SpectraSuite Data File
++++++++++++++++++++++++++++++++++++
Date: Mon Jun 15 06:32:27 PDT 2015
User: introlabs
Dark Spectrum Present: Yes
Reference Spectrum Present: Yes
Number of Sampled Component Spectra: 1
Spectrometers: USB4H08886
Integration Time (usec): 44366 (USB4H08886)
Spectra Averaged: 20 (USB4H08886)
Boxcar Smoothing: 5 (USB4H08886)
Correct for Electrical Dark: Yes (USB4H08886)
Strobe/Lamp Enabled: No (USB4H08886)
Correct for Detector Non-linearity: Yes (USB4H08886)
Correct for Stray Light: Yes (USB4H08886)
Number of Pixels in Processed Spectrum: 3648
>>>>>Begin Processed Spectral Data<<<<<
178.14	-0.863
178.36	-0.863
178.57	-0.863
178.79	-2.040
179.01	1.011
179.22	-1.815
179.44	-0.907
179.65	-0.000
179.87	0.406
180.08	0.380
180.30	0.243
180.52	0.370
180.73	0.370
180.95	0.149
181.16	0.106
181.38	0.099
181.59	0.078
181.81	0.057
182.03	0.056
182.24	0.045
182.46	0.028
182.67	0.034
182.89	0.020
183.10	0.018
183.32	0.016
183.54	0.013
183.75	0.002
183.97	0.002
184.18	0.003
184.40	-0.006
184.61	-0.007
184.83	-0.003
185.04	-0.004
185.26	0.006
185.48	-0.001
185.69	0.000
185.91	-0.000
186.12	-0.003
186.34	0.000
186.55	-0.013
186.77	-0.015
186.98	-0.014
187.20	-0.020
187.42	-0.024
187.63	-0.034
187.85	-0.033
188.06	-0.031
188.28	-0.034
188.49	-0.024
188.71	-0.032
188.92	-0.025
189.14	-0.032
189.36	-0.019
189.57	-0.015
189.79	-0.006
190.00	-0.001
190.22	0.001
190.43	0.004
190.65	0.011
190.86	0.010
191.08	0.009
191.29	0.006
191.51	0.015
191.72	0.005
191.94	0.008
192.16	0.002
192.37	-0.001
192.59	-0.011
192.80	-0.012
193.02	-0.016
193.23	-0.016
193.45	-0.012
193.66	-0.007
193.88	-0.011
194.09	-0.008
194.31	-0.010
194.52	-0.003
194.74	0.004
194.95	0.009
195.17	0.009
195.38	0.017
195.60	0.032
195.81	0.029
196.03	0.031
196.25	0.043
196.46	0.029
196.68	0.024
196.89	0.022
197.11	0.024
197.32	0.025
197.54	0.020
197.75	0.011
197.97	-0.004
198.18	-0.005
198.40	-0.007
198.61	-0.012
198.83	-0.011
199.04	-0.009
199.26	-0.011
199.47	-0.017
199.69	-0.019
199.90	-0.017
200.12	-0.014
200.33	-0.020
200.55	-0.012
200.76	-0.019
200.98	-0.031
201.19	-0.018
201.41	-0.015
201.62	-0.013
201.84	-0.013
202.05	-0.012
202.27	-0.017
202.48	-0.016
202.70	-0.010
202.91	-0.018
203.13	-0.005
203.34	0.003
203.56	0.002
203.77	0.002
203.99	-0.001
204.20	0.001
204.42	0.003
204.63	0.008
204.85	-0.001
205.06	-0.008
205.28	0.000
205.49	0.002
205.71	0.010
205.92	-0.001
206.14	-0.003
206.35	-0.000
206.56	-0.008
206.78	0.001
206.99	-0.004
207.21	0.006
207.42	0.009
207.64	0.005
207.85	-0.002
208.07	-0.010
208.28	-0.011
208.50	-0.015
208.71	-0.018
208.93	-0.015
209.14	-0.028
209.36	-0.014
209.57	-0.018
209.79	-0.016
210.00	-0.014
210.22	-0.011
210.43	-0.008
210.64	0.001
210.86	0.002
211.07	0.003
211.29	0.005
211.50	0.004
211.72	-0.007
211.93	-0.012
212.15	-0.006
212.36	-0.001
212.58	-0.002
212.79	-0.003
213.01	-0.008
213.22	-0.003
213.43	-0.003
213.65	0.003
213.86	0.003
214.08	-0.001
214.29	0.004
214.51	-0.003
214.72	-0.005
214.94	-0.002
215.15	-0.005
215.36	-0.001
215.58	-0.005
215.79	-0.003
216.01	-0.015
216.22	-0.012
216.44	-0.008
216.65	-0.006
216.87	0.002
217.08	-0.002
217.29	-0.002
217.51	-0.002
217.72	-0.002
217.94	0.006
218.15	0.003
218.37	0.001
218.58	0.004
218.80	0.004
219.01	0.002
219.22	-0.005
219.44	-0.008
219.65	-0.017
219.87	-0.017
220.08	-0.012
220.30	-0.023
220.51	-0.022
220.72	-0.007
220.94	-0.012
221.15	-0.008
221.37	-0.013
221.58	-0.010
221.79	-0.006
222.01	0.000
222.22	0.001
222.44	-0.010
222.65	0.000
222.87	-0.008
223.08	-0.019
223.29	-0.019
223.51	-0.025
223.72	-0.018
223.94	-0.017
224.15	-0.023
224.36	-0.027
224.58	-0.026
224.79	-0.017
225.01	-0.019
225.22	-0.016
225.44	-0.013
225.65	-0.013
225.86	-0.007
226.08	-0.011
226.29	-0.016
226.51	-0.015
226.72	-0.014
226.93	-0.011
227.15	-0.019
227.36	-0.023
227.58	-0.019
227.79	-0.019
228.00	-0.025
228.22	-0.032
228.43	-0.035
228.65	-0.034
228.86	-0.033
229.07	-0.034
229.29	-0.042
229.50	-0.042
229.72	-0.046
229.93	-0.046
230.14	-0.046
230.36	-0.042
230.57	-0.041
230.78	-0.040
231.00	-0.041
231.21	-0.045
231.43	-0.044
231.64	-0.042
231.85	-0.042
232.07	-0.043
232.28	-0.042
232.50	-0.043
232.71	-0.044
232.92	-0.044
233.14	-0.046
233.35	-0.049
233.56	-0.047
233.78	-0.047
233.99	-0.048
234.21	-0.046
234.42	-0.042
234.63	-0.044
234.85	-0.045
235.06	-0.045
235.27	-0.046
235.49	-0.046
235.70	-0.046
235.91	-0.048
236.13	-0.050
236.34	-0.050
236.56	-0.050
236.77	-0.053
236.98	-0.054
237.20	-0.055
237.41	-0.055
237.62	-0.055
237.84	-0.053
238.05	-0.052
238.26	-0.052
238.48	-0.052
238.69	-0.052
238.91	-0.052
239.12	-0.051
239.33	-0.050
239.55	-0.048
239.76	-0.048
239.97	-0.048
240.19	-0.048
240.40	-0.048
240.61	-0.047
240.83	-0.045
241.04	-0.044
241.25	-0.043
241.47	-0.043
241.68	-0.042
241.89	-0.043
242.11	-0.042
242.32	-0.041
242.53	-0.040
242.75	-0.039
242.96	-0.039
243.17	-0.039
243.39	-0.038
243.60	-0.038
243.81	-0.037
244.03	-0.037
244.24	-0.037
244.45	-0.037
244.67	-0.036
244.88	-0.036
245.09	-0.036
245.31	-0.036
245.52	-0.036
245.73	-0.035
245.95	-0.036
246.16	-0.035
246.37	-0.034
246.59	-0.034
246.80	-0.034
247.01	-0.033
247.23	-0.033
247.44	-0.032
247.65	-0.032
247.87	-0.032
248.08	-0.032
248.29	-0.031
248.51	-0.032
248.72	-0.032
248.93	-0.031
249.15	-0.031
249.36	-0.031
249.57	-0.031
249.78	-0.030
250.00	-0.030
250.21	-0.029
250.42	-0.029
250.64	-0.029
250.85	-0.028
251.06	-0.028
251.28	-0.028
251.49	-0.027
251.70	-0.027
251.92	-0.027
252.13	-0.027
252.34	-0.027
252.55	-0.026
252.77	-0.026
252.98	-0.026
253.19	-0.026
253.41	-0.026
253.62	-0.026
253.83	-0.026
254.05	-0.026
254.26	-0.025
254.47	-0.026
254.68	-0.025
254.90	-0.025
255.11	-0.025
255.32	-0.024
255.54	-0.024
255.75	-0.024
255.96	-0.024
256.17	-0.024
256.39	-0.024
256.60	-0.024
256.81	-0.024
257.03	-0.024
257.24	-0.024
257.45	-0.024
257.66	-0.024
257.88	-0.023
258.09	-0.023
258.30	-0.023
258.51	-0.023
258.73	-0.023
258.94	-0.022
259.15	-0.022
259.37	-0.022
259.58	-0.022
259.79	-0.021
260.00	-0.022
260.22	-0.022
260.43	-0.022
260.64	-0.023
260.85	-0.023
261.07	-0.023
261.28	-0.023
261.49	-0.023
261.71	-0.023
261.92	-0.023
262.13	-0.023
262.34	-0.024
262.56	-0.023
262.77	-0.023
262.98	-0.023
263.19	-0.023
263.41	-0.024
263.62	-0.024
263.83	-0.024
264.04	-0.024
264.26	-0.025
264.47	-0.025
264.68	-0.025
264.89	-0.025
265.11	-0.025
265.32	-0.025
265.53	-0.025
265.74	-0.025
265.96	-0.026
266.17	-0.026
266.38	-0.026
266.59	-0.026
266.81	-0.027
267.02	-0.027
267.23	-0.027
267.44	-0.026
267.65	-0.027
267.87	-0.027
268.08	-0.027
268.29	-0.027
268.50	-0.027
268.72	-0.028
268.93	-0.028
269.14	-0.027
269.35	-0.028
269.57	-0.028
269.78	-0.028
269.99	-0.029
270.20	-0.029
270.41	-0.029
270.63	-0.029
270.84	-0.029
271.05	-0.029
271.26	-0.029
271.48	-0.029
271.69	-0.029
271.90	-0.029
272.11	-0.029
272.32	-0.029
272.54	-0.029
272.75	-0.029
272.96	-0.029
273.17	-0.029
273.39	-0.030
273.60	-0.030
273.81	-0.030
274.02	-0.031
274.23	-0.031
274.45	-0.031
274.66	-0.031
274.87	-0.031
275.08	-0.032
275.29	-0.032
275.51	-0.032
275.72	-0.032
275.93	-0.032
276.14	-0.032
276.35	-0.032
276.57	-0.032
276.78	-0.032
276.99	-0.032
277.20	-0.032
277.41	-0.032
277.63	-0.032
277.84	-0.032
278.05	-0.032
278.26	-0.032
278.47	-0.032
278.69	-0.032
278.90	-0.032
279.11	-0.032
279.32	-0.032
279.53	-0.031
279.74	-0.031
279.96	-0.031
280.17	-0.031
280.38	-0.030
280.59	-0.031
280.80	-0.031
281.02	-0.031
281.23	-0.031
281.44	-0.031
281.65	-0.031
281.86	-0.030
282.07	-0.030
282.29	-0.030
282.50	-0.030
282.71	-0.030
282.92	-0.030
283.13	-0.030
283.35	-0.030
283.56	-0.030
283.77	-0.029
283.98	-0.029
284.19	-0.029
284.40	-0.029
284.62	-0.029
284.83	-0.029
285.04	-0.028
285.25	-0.027
285.46	-0.027
285.67	-0.026
285.88	-0.026
286.10	-0.026
286.31	-0.025
286.52	-0.025
286.73	-0.025
286.94	-0.024
287.15	-0.024
287.37	-0.024
287.58	-0.024
287.79	-0.023
288.00	-0.023
288.21	-0.022
288.42	-0.022
288.63	-0.021
288.85	-0.021
289.06	-0.021
289.27	-0.020
289.48	-0.020
289.69	-0.019
289.90	-0.019
290.11	-0.018
290.33	-0.018
290.54	-0.018
290.75	-0.017
290.96	-0.017
291.17	-0.017
291.38	-0.017
291.59	-0.017
291.81	-0.016
292.02	-0.016
292.23	-0.016
292.44	-0.016
292.65	-0.016
292.86	-0.016
293.07	-0.015
293.28	-0.015
293.50	-0.015
293.71	-0.015
293.92	-0.014
294.13	-0.014
294.34	-0.014
294.55	-0.014
294.76	-0.014
294.97	-0.014
295.19	-0.014
295.40	-0.014
295.61	-0.014
295.82	-0.014
296.03	-0.013
296.24	-0.013
296.45	-0.013
296.66	-0.013
296.87	-0.013
297.09	-0.013
297.30	-0.013
297.51	-0.013
297.72	-0.013
297.93	-0.013
298.14	-0.013
298.35	-0.013
298.56	-0.013
298.77	-0.013
298.99	-0.013
299.20	-0.013
299.41	-0.013
299.62	-0.013
299.83	-0.013
300.04	-0.013
300.25	-0.013
300.46	-0.012
300.67	-0.013
300.88	-0.012
301.10	-0.012
301.31	-0.013
301.52	-0.013
301.73	-0.012
301.94	-0.012
302.15	-0.013
302.36	-0.013
302.57	-0.013
302.78	-0.013
302.99	-0.013
303.20	-0.013
303.41	-0.013
303.63	-0.013
303.84	-0.013
304.05	-0.013
304.26	-0.013
304.47	-0.013
304.68	-0.013
304.89	-0.013
305.10	-0.013
305.31	-0.013
305.52	-0.013
305.73	-0.013
305.94	-0.013
306.15	-0.013
306.37	-0.013
306.58	-0.013
306.79	-0.012
307.00	-0.012
307.21	-0.012
307.42	-0.012
307.63	-0.012
307.84	-0.012
308.05	-0.012
308.26	-0.012
308.47	-0.012
308.68	-0.012
308.89	-0.012
309.10	-0.012
309.31	-0.012
309.52	-0.012
309.73	-0.012
309.95	-0.012
310.16	-0.012
310.37	-0.012
310.58	-0.012
310.79	-0.012
311.00	-0.012
311.21	-0.012
311.42	-0.012
311.63	-0.012
311.84	-0.012
312.05	-0.012
312.26	-0.012
312.47	-0.013
312.68	-0.013
312.89	-0.013
313.10	-0.012
313.31	-0.012
313.52	-0.012
313.73	-0.012
313.94	-0.012
314.15	-0.012
314.36	-0.012
314.57	-0.012
314.78	-0.012
314.99	-0.012
315.21	-0.012
315.42	-0.012
315.63	-0.012
315.84	-0.012
316.05	-0.012
316.26	-0.012
316.47	-0.012
316.68	-0.012
316.89	-0.012
317.10	-0.012
317.31	-0.012
317.52	-0.012
317.73	-0.012
317.94	-0.012
318.15	-0.012
318.36	-0.012
318.57	-0.012
318.78	-0.012
318.99	-0.011
319.20	-0.011
319.41	-0.011
319.62	-0.011
319.83	-0.011
320.04	-0.011
320.25	-0.011
320.46	-0.011
320.67	-0.011
320.88	-0.011
321.09	-0.012
321.30	-0.012
321.51	-0.012
321.72	-0.012
321.93	-0.012
322.14	-0.012
322.35	-0.012
322.56	-0.011
322.77	-0.012
322.98	-0.011
323.19	-0.011
323.40	-0.011
323.61	-0.011
323.82	-0.011
324.03	-0.011
324.24	-0.011
324.45	-0.011
324.66	-0.011
324.87	-0.011
325.08	-0.011
325.29	-0.011
325.50	-0.011
325.71	-0.011
325.92	-0.011
326.13	-0.011
326.34	-0.011
326.55	-0.011
326.76	-0.011
326.97	-0.011
327.18	-0.011
327.39	-0.011
327.60	-0.011
327.80	-0.011
328.01	-0.011
328.22	-0.011
328.43	-0.010
328.64	-0.010
328.85	-0.010
329.06	-0.010
329.27	-0.010
329.48	-0.010
329.69	-0.010
329.90	-0.010
330.11	-0.010
330.32	-0.010
330.53	-0.010
330.74	-0.010
330.95	-0.010
331.16	-0.010
331.37	-0.011
331.58	-0.010
331.79	-0.010
332.00	-0.010
332.21	-0.010
332.42	-0.010
332.63	-0.010
332.83	-0.010
333.04	-0.010
333.25	-0.010
333.46	-0.010
333.67	-0.010
333.88	-0.010
334.09	-0.010
334.30	-0.010
334.51	-0.010
334.72	-0.010
334.93	-0.010
335.14	-0.010
335.35	-0.010
335.56	-0.010
335.77	-0.010
335.98	-0.010
336.18	-0.010
336.39	-0.010
336.60	-0.010
336.81	-0.010
337.02	-0.010
337.23	-0.010
337.44	-0.010
337.65	-0.010
337.86	-0.010
338.07	-0.010
338.28	-0.010
338.49	-0.010
338.70	-0.010
338.91	-0.010
339.11	-0.010
339.32	-0.010
339.53	-0.010
339.74	-0.010
339.95	-0.010
340.16	-0.010
340.37	-0.010
340.58	-0.009
340.79	-0.009
341.00	-0.009
341.21	-0.009
341.41	-0.009
341.62	-0.009
341.83	-0.009
342.04	-0.009
342.25	-0.009
342.46	-0.009
342.67	-0.009
342.88	-0.009
343.09	-0.009
343.30	-0.009
343.50	-0.009
343.71	-0.009
343.92	-0.009
344.13	-0.009
344.34	-0.009
344.55	-0.009
344.76	-0.009
344.97	-0.009
345.18	-0.009
345.38	-0.009
345.59	-0.009
345.80	-0.009
346.01	-0.009
346.22	-0.009
346.43	-0.009
346.64	-0.009
346.85	-0.009
347.06	-0.009
347.26	-0.009
347.47	-0.009
347.68	-0.009
347.89	-0.009
348.10	-0.009
348.31	-0.009
348.52	-0.009
348.73	-0.009
348.93	-0.009
349.14	-0.009
349.35	-0.009
349.56	-0.009
349.77	-0.009
349.98	-0.009
350.19	-0.009
350.39	-0.009
350.60	-0.008
350.81	-0.009
351.02	-0.008
351.23	-0.009
351.44	-0.008
351.65	-0.008
351.86	-0.008
352.06	-0.008
352.27	-0.008
352.48	-0.008
352.69	-0.008
352.90	-0.008
353.11	-0.008
353.31	-0.008
353.52	-0.008
353.73	-0.008
353.94	-0.008
354.15	-0.008
354.36	-0.008
354.57	-0.008
354.77	-0.008
354.98	-0.008
355.19	-0.008
355.40	-0.008
355.61	-0.008
355.82	-0.008
356.02	-0.008
356.23	-0.008
356.44	-0.008
356.65	-0.008
356.86	-0.008
357.07	-0.008
357.27	-0.008
357.48	-0.008
357.69	-0.007
357.90	-0.007
358.11	-0.007
358.32	-0.007
358.52	-0.007
358.73	-0.007
358.94	-0.007
359.15	-0.007
359.36	-0.007
359.56	-0.007
359.77	-0.007
359.98	-0.007
360.19	-0.007
360.40	-0.007
360.61	-0.007
360.81	-0.007
361.02	-0.007
361.23	-0.007
361.44	-0.007
361.65	-0.007
361.85	-0.007
362.06	-0.007
362.27	-0.007
362.48	-0.007
362.69	-0.007
362.89	-0.007
363.10	-0.007
363.31	-0.007
363.52	-0.007
363.73	-0.007
363.93	-0.007
364.14	-0.007
364.35	-0.007
364.56	-0.007
364.77	-0.007
364.97	-0.007
365.18	-0.007
365.39	-0.007
365.60	-0.007
365.81	-0.007
366.01	-0.007
366.22	-0.007
366.43	-0.007
366.64	-0.007
366.84	-0.007
367.05	-0.007
367.26	-0.007
367.47	-0.007
367.68	-0.007
367.88	-0.007
368.09	-0.007
368.30	-0.007
368.51	-0.007
368.71	-0.007
368.92	-0.007
369.13	-0.007
369.34	-0.007
369.55	-0.007
369.75	-0.007
369.96	-0.007
370.17	-0.007
370.38	-0.007
370.58	-0.007
370.79	-0.007
371.00	-0.007
371.21	-0.007
371.41	-0.007
371.62	-0.007
371.83	-0.006
372.04	-0.006
372.24	-0.006
372.45	-0.006
372.66	-0.006
372.87	-0.006
373.07	-0.006
373.28	-0.007
373.49	-0.007
373.70	-0.007
373.90	-0.007
374.11	-0.007
374.32	-0.007
374.53	-0.007
374.73	-0.007
374.94	-0.007
375.15	-0.007
375.36	-0.007
375.56	-0.007
375.77	-0.007
375.98	-0.007
376.19	-0.007
376.39	-0.007
376.60	-0.007
376.81	-0.007
377.02	-0.007
377.22	-0.007
377.43	-0.007
377.64	-0.007
377.84	-0.007
378.05	-0.006
378.26	-0.006
378.47	-0.006
378.67	-0.006
378.88	-0.006
379.09	-0.006
379.30	-0.006
379.50	-0.006
379.71	-0.006
379.92	-0.006
380.12	-0.006
380.33	-0.006
380.54	-0.006
380.75	-0.006
380.95	-0.006
381.16	-0.006
381.37	-0.006
381.57	-0.006
381.78	-0.006
381.99	-0.006
382.20	-0.006
382.40	-0.006
382.61	-0.006
382.82	-0.006
383.02	-0.006
383.23	-0.006
383.44	-0.006
383.64	-0.006
383.85	-0.006
384.06	-0.006
384.27	-0.006
384.47	-0.006
384.68	-0.006
384.89	-0.006
385.09	-0.006
385.30	-0.006
385.51	-0.006
385.71	-0.006
385.92	-0.006
386.13	-0.006
386.33	-0.006
386.54	-0.006
386.75	-0.006
386.95	-0.006
387.16	-0.006
387.37	-0.006
387.58	-0.006
387.78	-0.006
387.99	-0.006
388.20	-0.006
388.40	-0.006
388.61	-0.006
388.82	-0.006
389.02	-0.006
389.23	-0.006
389.44	-0.006
389.64	-0.006
389.85	-0.006
390.06	-0.006
390.26	-0.006
390.47	-0.006
390.68	-0.006
390.88	-0.006
391.09	-0.006
391.30	-0.006
391.50	-0.006
391.71	-0.006
391.92	-0.006
392.12	-0.006
392.33	-0.006
392.53	-0.006
392.74	-0.006
392.95	-0.006
393.15	-0.006
393.36	-0.006
393.57	-0.006
393.77	-0.006
393.98	-0.006
394.19	-0.006
394.39	-0.006
394.60	-0.006
394.81	-0.006
395.01	-0.006
395.22	-0.005
395.43	-0.005
395.63	-0.005
395.84	-0.005
396.04	-0.005
396.25	-0.006
396.46	-0.006
396.66	-0.006
396.87	-0.006
397.08	-0.006
397.28	-0.006
397.49	-0.006
397.69	-0.006
397.90	-0.006
398.11	-0.006
398.31	-0.006
398.52	-0.006
398.73	-0.006
398.93	-0.006
399.14	-0.006
399.34	-0.005
399.55	-0.005
399.76	-0.005
399.96	-0.006
400.17	-0.006
400.37	-0.006
400.58	-0.006
400.79	-0.006
400.99	-0.006
401.20	-0.005
401.41	-0.005
401.61	-0.005
401.82	-0.005
402.02	-0.005
402.23	-0.005
402.44	-0.005
402.64	-0.005
402.85	-0.005
403.05	-0.005
403.26	-0.005
403.47	-0.005
403.67	-0.005
403.88	-0.005
404.08	-0.005
404.29	-0.005
404.50	-0.005
404.70	-0.005
404.91	-0.005
405.11	-0.005
405.32	-0.005
405.52	-0.006
405.73	-0.006
405.94	-0.005
406.14	-0.006
406.35	-0.005
406.55	-0.006
406.76	-0.006
406.97	-0.006
407.17	-0.006
407.38	-0.006
407.58	-0.006
407.79	-0.006
407.99	-0.006
408.20	-0.006
408.41	-0.006
408.61	-0.006
408.82	-0.006
409.02	-0.006
409.23	-0.006
409.43	-0.005
409.64	-0.005
409.84	-0.005
410.05	-0.005
410.26	-0.005
410.46	-0.005
410.67	-0.005
410.87	-0.005
411.08	-0.005
411.28	-0.005
411.49	-0.005
411.69	-0.005
411.90	-0.005
412.11	-0.005
412.31	-0.005
412.52	-0.005
412.72	-0.005
412.93	-0.005
413.13	-0.005
413.34	-0.005
413.54	-0.005
413.75	-0.005
413.95	-0.005
414.16	-0.005
414.37	-0.005
414.57	-0.005
414.78	-0.005
414.98	-0.005
415.19	-0.005
415.39	-0.005
415.60	-0.005
415.80	-0.005
416.01	-0.005
416.21	-0.005
416.42	-0.005
416.62	-0.005
416.83	-0.005
417.03	-0.005
417.24	-0.005
417.44	-0.005
417.65	-0.005
417.86	-0.005
418.06	-0.005
418.27	-0.005
418.47	-0.005
418.68	-0.005
418.88	-0.005
419.09	-0.005
419.29	-0.005
419.50	-0.005
419.70	-0.005
419.91	-0.005
420.11	-0.005
420.32	-0.005
420.52	-0.005
420.73	-0.005
420.93	-0.005
421.14	-0.005
421.34	-0.005
421.55	-0.005
421.75	-0.005
421.96	-0.005
422.16	-0.005
422.37	-0.005
422.57	-0.005
422.78	-0.005
422.98	-0.005
423.19	-0.005
423.39	-0.005
423.60	-0.005
423.80	-0.005
424.01	-0.005
424.21	-0.005
424.42	-0.005
424.62	-0.005
424.83	-0.005
425.03	-0.005
425.23	-0.005
425.44	-0.005
425.64	-0.005
425.85	-0.005
426.05	-0.005
426.26	-0.005
426.46	-0.005
426.67	-0.005
426.87	-0.005
427.08	-0.005
427.28	-0.005
427.49	-0.005
427.69	-0.005
427.90	-0.005
428.10	-0.005
428.31	-0.005
428.51	-0.005
428.71	-0.005
428.92	-0.005
429.12	-0.005
429.33	-0.005
429.53	-0.005
429.74	-0.005
429.94	-0.005
430.15	-0.005
430.35	-0.005
430.56	-0.005
430.76	-0.005
430.96	-0.005
431.17	-0.005
431.37	-0.005
431.58	-0.005
431.78	-0.005
431.99	-0.005
432.19	-0.005
432.40	-0.005
432.60	-0.005
432.80	-0.005
433.01	-0.005
433.21	-0.005
433.42	-0.005
433.62	-0.005
433.83	-0.005
434.03	-0.005
434.23	-0.005
434.44	-0.005
434.64	-0.005
434.85	-0.005
435.05	-0.005
435.26	-0.005
435.46	-0.005
435.66	-0.005
435.87	-0.005
436.07	-0.005
436.28	-0.005
436.48	-0.005
436.69	-0.005
436.89	-0.005
437.09	-0.005
437.30	-0.005
437.50	-0.005
437.71	-0.005
437.91	-0.005
438.11	-0.005
438.32	-0.004
438.52	-0.004
438.73	-0.004
438.93	-0.004
439.13	-0.004
439.34	-0.004
439.54	-0.004
439.75	-0.004
439.95	-0.004
440.15	-0.004
440.36	-0.004
440.56	-0.005
440.77	-0.005
440.97	-0.004
441.17	-0.005
441.38	-0.004
441.58	-0.005
441.79	-0.004
441.99	-0.004
442.19	-0.004
442.40	-0.004
442.60	-0.005
442.81	-0.004
443.01	-0.004
443.21	-0.005
443.42	-0.005
443.62	-0.005
443.82	-0.005
444.03	-0.005
444.23	-0.005
444.44	-0.005
444.64	-0.005
444.84	-0.005
445.05	-0.005
445.25	-0.005
445.45	-0.005
445.66	-0.005
445.86	-0.005
446.06	-0.005
446.27	-0.005
446.47	-0.005
446.68	-0.005
446.88	-0.005
447.08	-0.005
447.29	-0.005
447.49	-0.005
447.69	-0.005
447.90	-0.005
448.10	-0.004
448.30	-0.004
448.51	-0.004
448.71	-0.004
448.91	-0.004
449.12	-0.004
449.32	-0.004
449.52	-0.004
449.73	-0.004
449.93	-0.005
450.14	-0.005
450.34	-0.004
450.54	-0.004
450.75	-0.004
450.95	-0.004
451.15	-0.004
451.36	-0.004
451.56	-0.004
451.76	-0.004
451.97	-0.004
452.17	-0.004
452.37	-0.004
452.58	-0.004
452.78	-0.004
452.98	-0.004
453.19	-0.004
453.39	-0.004
453.59	-0.004
453.79	-0.004
454.00	-0.004
454.20	-0.004
454.40	-0.004
454.61	-0.004
454.81	-0.004
455.01	-0.004
455.22	-0.004
455.42	-0.004
455.62	-0.004
455.83	-0.004
456.03	-0.005
456.23	-0.005
456.44	-0.005
456.64	-0.004
456.84	-0.004
457.04	-0.004
457.25	-0.004
457.45	-0.004
457.65	-0.004
457.86	-0.004
458.06	-0.004
458.26	-0.004
458.47	-0.004
458.67	-0.004
458.87	-0.004
459.07	-0.004
459.28	-0.004
459.48	-0.004
459.68	-0.004
459.89	-0.004
460.09	-0.004
460.29	-0.004
460.49	-0.004
460.70	-0.004
460.90	-0.004
461.10	-0.004
461.31	-0.004
461.51	-0.004
461.71	-0.004
461.91	-0.004
462.12	-0.004
462.32	-0.004
462.52	-0.004
462.72	-0.004
462.93	-0.004
463.13	-0.004
463.33	-0.004
463.53	-0.004
463.74	-0.004
463.94	-0.004
464.14	-0.004
464.35	-0.004
464.55	-0.004
464.75	-0.004
464.95	-0.004
465.16	-0.004
465.36	-0.004
465.56	-0.004
465.76	-0.004
465.97	-0.004
466.17	-0.004
466.37	-0.004
466.57	-0.004
466.78	-0.004
466.98	-0.004
467.18	-0.004
467.38	-0.004
467.59	-0.004
467.79	-0.004
467.99	-0.004
468.19	-0.004
468.39	-0.004
468.60	-0.004
468.80	-0.004
469.00	-0.004
469.20	-0.004
469.41	-0.004
469.61	-0.004
469.81	-0.004
470.01	-0.004
470.22	-0.004
470.42	-0.004
470.62	-0.004
470.82	-0.004
471.02	-0.004
471.23	-0.004
471.43	-0.004
471.63	-0.004
471.83	-0.004
472.04	-0.004
472.24	-0.004
472.44	-0.004
472.64	-0.004
472.84	-0.004
473.05	-0.004
473.25	-0.004
473.45	-0.004
473.65	-0.004
473.85	-0.004
474.06	-0.004
474.26	-0.005
474.46	-0.005
474.66	-0.005
474.86	-0.004
475.07	-0.004
475.27	-0.005
475.47	-0.005
475.67	-0.005
475.87	-0.005
476.08	-0.004
476.28	-0.004
476.48	-0.004
476.68	-0.004
476.88	-0.004
477.09	-0.004
477.29	-0.004
477.49	-0.004
477.69	-0.004
477.89	-0.004
478.09	-0.004
478.30	-0.004
478.50	-0.004
478.70	-0.004
478.90	-0.004
479.10	-0.004
479.31	-0.004
479.51	-0.004
479.71	-0.004
479.91	-0.004
480.11	-0.005
480.31	-0.005
480.52	-0.005
480.72	-0.004
480.92	-0.004
481.12	-0.004
481.32	-0.004
481.52	-0.004
481.72	-0.004
481.93	-0.004
482.13	-0.004
482.33	-0.004
482.53	-0.004
482.73	-0.004
482.93	-0.004
483.14	-0.004
483.34	-0.004
483.54	-0.004
483.74	-0.004
483.94	-0.004
484.14	-0.004
484.34	-0.004
484.55	-0.004
484.75	-0.004
484.95	-0.004
485.15	-0.004
485.35	-0.004
485.55	-0.004
485.75	-0.004
485.96	-0.004
486.16	-0.004
486.36	-0.004
486.56	-0.004
486.76	-0.004
486.96	-0.003
487.16	-0.003
487.36	-0.003
487.57	-0.003
487.77	-0.003
487.97	-0.003
488.17	-0.003
488.37	-0.004
488.57	-0.004
488.77	-0.004
488.97	-0.004
489.18	-0.004
489.38	-0.004
489.58	-0.004
489.78	-0.004
489.98	-0.004
490.18	-0.004
490.38	-0.004
490.58	-0.003
490.78	-0.004
490.98	-0.003
491.19	-0.003
491.39	-0.004
491.59	-0.004
491.79	-0.004
491.99	-0.004
492.19	-0.004
492.39	-0.004
492.59	-0.004
492.79	-0.004
492.99	-0.004
493.20	-0.004
493.40	-0.004
493.60	-0.004
493.80	-0.004
494.00	-0.004
494.20	-0.004
494.40	-0.004
494.60	-0.004
494.80	-0.004
495.00	-0.004
495.20	-0.004
495.40	-0.004
495.61	-0.004
495.81	-0.003
496.01	-0.003
496.21	-0.003
496.41	-0.003
496.61	-0.003
496.81	-0.003
497.01	-0.003
497.21	-0.003
497.41	-0.003
497.61	-0.003
497.81	-0.003
498.01	-0.003
498.21	-0.004
498.41	-0.004
498.61	-0.004
498.82	-0.004
499.02	-0.003
499.22	-0.003
499.42	-0.003
499.62	-0.003
499.82	-0.003
500.02	-0.003
500.22	-0.003
500.42	-0.003
500.62	-0.003
500.82	-0.003
501.02	-0.003
501.22	-0.003
501.42	-0.003
501.62	-0.003
501.82	-0.003
502.02	-0.003
502.22	-0.003
502.42	-0.003
502.62	-0.003
502.82	-0.003
503.02	-0.003
503.22	-0.003
503.42	-0.004
503.63	-0.004
503.83	-0.004
504.03	-0.004
504.23	-0.003
504.43	-0.003
504.63	-0.003
504.83	-0.003
505.03	-0.003
505.23	-0.003
505.43	-0.003
505.63	-0.003
505.83	-0.003
506.03	-0.004
506.23	-0.003
506.43	-0.003
506.63	-0.004
506.83	-0.004
507.03	-0.004
507.23	-0.004
507.43	-0.003
507.63	-0.003
507.83	-0.003
508.03	-0.003
508.23	-0.003
508.43	-0.003
508.63	-0.003
508.83	-0.003
509.03	-0.003
509.23	-0.003
509.43	-0.003
509.63	-0.003
509.83	-0.003
510.03	-0.003
510.23	-0.003
510.43	-0.003
510.63	-0.003
510.83	-0.003
511.03	-0.003
511.23	-0.003
511.43	-0.003
511.63	-0.003
511.83	-0.003
512.03	-0.003
512.22	-0.003
512.42	-0.003
512.62	-0.003
512.82	-0.003
513.02	-0.004
513.22	-0.003
513.42	-0.003
513.62	-0.003
513.82	-0.003
514.02	-0.003
514.22	-0.003
514.42	-0.003
514.62	-0.003
514.82	-0.003
515.02	-0.003
515.22	-0.003
515.42	-0.003
515.62	-0.003
515.82	-0.003
516.02	-0.003
516.22	-0.003
516.42	-0.003
516.62	-0.003
516.82	-0.003
517.01	-0.003
517.21	-0.003
517.41	-0.003
517.61	-0.003
517.81	-0.003
518.01	-0.003
518.21	-0.003
518.41	-0.003
518.61	-0.003
518.81	-0.003
519.01	-0.003
519.21	-0.003
519.41	-0.003
519.61	-0.003
519.81	-0.003
520.00	-0.003
520.20	-0.003
520.40	-0.003
520.60	-0.003
520.80	-0.003
521.00	-0.003
521.20	-0.003
521.40	-0.003
521.60	-0.003
521.80	-0.003
522.00	-0.003
522.20	-0.003
522.39	-0.003
522.59	-0.003
522.79	-0.003
522.99	-0.003
523.19	-0.003
523.39	-0.003
523.59	-0.003
523.79	-0.003
523.99	-0.003
524.19	-0.003
524.38	-0.003
524.58	-0.003
524.78	-0.003
524.98	-0.003
525.18	-0.003
525.38	-0.003
525.58	-0.003
525.78	-0.003
525.98	-0.003
526.18	-0.003
526.37	-0.003
526.57	-0.003
526.77	-0.003
526.97	-0.003
527.17	-0.003
527.37	-0.003
527.57	-0.003
527.77	-0.003
527.96	-0.003
528.16	-0.003
528.36	-0.003
528.56	-0.003
528.76	-0.003
528.96	-0.003
529.16	-0.003
529.36	-0.003
529.55	-0.003
529.75	-0.003
529.95	-0.003
530.15	-0.003
530.35	-0.003
530.55	-0.003
530.75	-0.003
530.94	-0.003
531.14	-0.003
531.34	-0.003
531.54	-0.003
531.74	-0.003
531.94	-0.003
532.13	-0.003
532.33	-0.003
532.53	-0.003
532.73	-0.003
532.93	-0.003
533.13	-0.003
533.33	-0.003
533.52	-0.003
533.72	-0.003
533.92	-0.003
534.12	-0.003
534.32	-0.003
534.52	-0.003
534.71	-0.003
534.91	-0.003
535.11	-0.003
535.31	-0.003
535.51	-0.003
535.71	-0.003
535.90	-0.003
536.10	-0.003
536.30	-0.003
536.50	-0.003
536.70	-0.003
536.89	-0.003
537.09	-0.003
537.29	-0.003
537.49	-0.003
537.69	-0.003
537.89	-0.003
538.08	-0.003
538.28	-0.003
538.48	-0.003
538.68	-0.003
538.88	-0.003
539.07	-0.003
539.27	-0.003
539.47	-0.003
539.67	-0.003
539.87	-0.003
540.06	-0.003
540.26	-0.003
540.46	-0.003
540.66	-0.003
540.86	-0.003
541.05	-0.003
541.25	-0.003
541.45	-0.003
541.65	-0.003
541.84	-0.003
542.04	-0.003
542.24	-0.003
542.44	-0.003
542.64	-0.003
542.83	-0.003
543.03	-0.003
543.23	-0.003
543.43	-0.003
543.62	-0.003
543.82	-0.003
544.02	-0.003
544.22	-0.003
544.42	-0.003
544.61	-0.003
544.81	-0.002
545.01	-0.002
545.21	-0.002
545.40	-0.002
545.60	-0.002
545.80	-0.002
546.00	-0.002
546.19	-0.002
546.39	-0.002
546.59	-0.002
546.79	-0.002
546.98	-0.002
547.18	-0.002
547.38	-0.002
547.58	-0.002
547.77	-0.002
547.97	-0.002
548.17	-0.002
548.37	-0.002
548.56	-0.003
548.76	-0.003
548.96	-0.002
549.16	-0.003
549.35	-0.003
549.55	-0.002
549.75	-0.003
549.95	-0.003
550.14	-0.003
550.34	-0.003
550.54	-0.003
550.73	-0.003
550.93	-0.003
551.13	-0.003
551.33	-0.003
551.52	-0.003
551.72	-0.003
551.92	-0.003
552.12	-0.003
552.31	-0.002
552.51	-0.002
552.71	-0.002
552.90	-0.002
553.10	-0.002
553.30	-0.002
553.50	-0.002
553.69	-0.002
553.89	-0.002
554.09	-0.002
554.28	-0.002
554.48	-0.002
554.68	-0.002
554.87	-0.002
555.07	-0.002
555.27	-0.002
555.47	-0.002
555.66	-0.002
555.86	-0.002
556.06	-0.002
556.25	-0.002
556.45	-0.002
556.65	-0.002
556.84	-0.002
557.04	-0.002
557.24	-0.002
557.43	-0.002
557.63	-0.002
557.83	-0.002
558.02	-0.002
558.22	-0.002
558.42	-0.002
558.61	-0.002
558.81	-0.002
559.01	-0.002
559.21	-0.003
559.40	-0.002
559.60	-0.002
559.80	-0.002
559.99	-0.002
560.19	-0.003
560.39	-0.003
560.58	-0.003
560.78	-0.003
560.97	-0.003
561.17	-0.003
561.37	-0.003
561.56	-0.003
561.76	-0.003
561.96	-0.003
562.15	-0.003
562.35	-0.003
562.55	-0.002
562.74	-0.002
562.94	-0.002
563.14	-0.002
563.33	-0.002
563.53	-0.002
563.73	-0.002
563.92	-0.002
564.12	-0.002
564.31	-0.002
564.51	-0.002
564.71	-0.002
564.90	-0.002
565.10	-0.002
565.30	-0.002
565.49	-0.002
565.69	-0.002
565.89	-0.002
566.08	-0.002
566.28	-0.002
566.47	-0.002
566.67	-0.002
566.87	-0.003
567.06	-0.002
567.26	-0.002
567.46	-0.002
567.65	-0.002
567.85	-0.002
568.04	-0.003
568.24	-0.003
568.44	-0.003
568.63	-0.003
568.83	-0.003
569.02	-0.003
569.22	-0.003
569.42	-0.003
569.61	-0.003
569.81	-0.003
570.00	-0.003
570.20	-0.003
570.40	-0.003
570.59	-0.003
570.79	-0.003
570.98	-0.003
571.18	-0.003
571.38	-0.003
571.57	-0.003
571.77	-0.003
571.96	-0.003
572.16	-0.003
572.35	-0.003
572.55	-0.003
572.75	-0.003
572.94	-0.003
573.14	-0.003
573.33	-0.003
573.53	-0.003
573.73	-0.003
573.92	-0.003
574.12	-0.003
574.31	-0.003
574.51	-0.002
574.70	-0.002
574.90	-0.002
575.09	-0.002
575.29	-0.002
575.49	-0.001
575.68	-0.001
575.88	-0.001
576.07	-0.001
576.27	-0.001
576.46	-0.000
576.66	-0.000
576.86	-0.000
577.05	-0.000
577.25	-0.000
577.44	-0.000
577.64	-0.000
577.83	-0.000
578.03	-0.000
578.22	-0.000
578.42	-0.000
578.61	-0.000
578.81	-0.000
579.00	-0.000
579.20	-0.000
579.40	-0.000
579.59	-0.000
579.79	-0.000
579.98	-0.000
580.18	-0.000
580.37	-0.000
580.57	-0.000
580.76	-0.000
580.96	-0.000
581.15	-0.000
581.35	-0.000
581.54	-0.000
581.74	-0.000
581.93	-0.000
582.13	-0.000
582.32	-0.000
582.52	-0.000
582.71	-0.000
582.91	-0.000
583.10	-0.000
583.30	-0.000
583.49	-0.000
583.69	-0.000
583.88	-0.000
584.08	-0.000
584.27	-0.000
584.47	-0.000
584.66	-0.000
584.86	-0.000
585.05	-0.000
585.25	-0.000
585.44	-0.000
585.64	-0.000
585.83	-0.000
586.03	-0.000
586.22	-0.000
586.42	-0.000
586.61	-0.000
586.81	-0.001
587.00	-0.001
587.20	-0.001
587.39	-0.001
587.59	-0.001
587.78	-0.001
587.98	-0.002
588.17	-0.002
588.37	-0.002
588.56	-0.002
588.76	-0.002
588.95	-0.002
589.15	-0.002
589.34	-0.002
589.54	-0.002
589.73	-0.002
589.92	-0.002
590.12	-0.002
590.31	-0.002
590.51	-0.002
590.70	-0.002
590.90	-0.002
591.09	-0.003
591.29	-0.003
591.48	-0.003
591.68	-0.002
591.87	-0.003
592.06	-0.002
592.26	-0.003
592.45	-0.002
592.65	-0.002
592.84	-0.002
593.04	-0.002
593.23	-0.002
593.43	-0.002
593.62	-0.002
593.81	-0.002
594.01	-0.002
594.20	-0.002
594.40	-0.002
594.59	-0.002
594.79	-0.002
594.98	-0.002
595.17	-0.002
595.37	-0.002
595.56	-0.002
595.76	-0.002
595.95	-0.002
596.14	-0.002
596.34	-0.002
596.53	-0.002
596.73	-0.002
596.92	-0.002
597.12	-0.003
597.31	-0.003
597.50	-0.003
597.70	-0.003
597.89	-0.003
598.09	-0.003
598.28	-0.003
598.47	-0.003
598.67	-0.003
598.86	-0.003
599.06	-0.003
599.25	-0.002
599.44	-0.002
599.64	-0.002
599.83	-0.002
600.03	-0.002
600.22	-0.002
600.41	-0.002
600.61	-0.002
600.80	-0.002
601.00	-0.002
601.19	-0.001
601.38	-0.001
601.58	-0.001
601.77	-0.001
601.96	-0.001
602.16	-0.002
602.35	-0.002
602.55	-0.002
602.74	-0.002
602.93	-0.002
603.13	-0.002
603.32	-0.002
603.51	-0.002
603.71	-0.002
603.90	-0.002
604.09	-0.002
604.29	-0.002
604.48	-0.002
604.68	-0.002
604.87	-0.002
605.06	-0.002
605.26	-0.002
605.45	-0.002
605.64	-0.002
605.84	-0.002
606.03	-0.002
606.22	-0.002
606.42	-0.002
606.61	-0.002
606.80	-0.002
607.00	-0.002
607.19	-0.002
607.38	-0.002
607.58	-0.002
607.77	-0.002
607.96	-0.002
608.16	-0.001
608.35	-0.001
608.54	-0.001
608.74	-0.001
608.93	-0.001
609.12	-0.001
609.32	-0.001
609.51	-0.001
609.70	-0.001
609.90	-0.001
610.09	-0.001
610.28	-0.001
610.48	-0.001
610.67	-0.001
610.86	-0.002
611.06	-0.002
611.25	-0.002
611.44	-0.002
611.64	-0.002
611.83	-0.002
612.02	-0.002
612.21	-0.002
612.41	-0.003
612.60	-0.002
612.79	-0.002
612.99	-0.002
613.18	-0.002
613.37	-0.002
613.57	-0.002
613.76	-0.002
613.95	-0.002
614.14	-0.002
614.34	-0.002
614.53	-0.002
614.72	-0.002
614.92	-0.002
615.11	-0.002
615.30	-0.002
615.49	-0.002
615.69	-0.002
615.88	-0.002
616.07	-0.002
616.26	-0.002
616.46	-0.002
616.65	-0.001
616.84	-0.001
617.04	-0.002
617.23	-0.001
617.42	-0.001
617.61	-0.001
617.81	-0.001
618.00	-0.001
618.19	-0.001
618.38	-0.001
618.58	-0.001
618.77	-0.001
618.96	-0.002
619.15	-0.002
619.35	-0.002
619.54	-0.002
619.73	-0.002
619.92	-0.002
620.12	-0.002
620.31	-0.002
620.50	-0.002
620.69	-0.002
620.89	-0.002
621.08	-0.002
621.27	-0.002
621.46	-0.002
621.66	-0.002
621.85	-0.002
622.04	-0.002
622.23	-0.002
622.43	-0.002
622.62	-0.002
622.81	-0.002
623.00	-0.002
623.19	-0.002
623.39	-0.002
623.58	-0.002
623.77	-0.002
623.96	-0.002
624.16	-0.002
624.35	-0.001
624.54	-0.001
624.73	-0.002
624.92	-0.002
625.12	-0.002
625.31	-0.002
625.50	-0.002
625.69	-0.002
625.88	-0.002
626.08	-0.002
626.27	-0.002
626.46	-0.002
626.65	-0.002
626.84	-0.002
627.04	-0.002
627.23	-0.002
627.42	-0.002
627.61	-0.002
627.80	-0.002
628.00	-0.002
628.19	-0.001
628.38	-0.001
628.57	-0.001
628.76	-0.001
628.96	-0.001
629.15	-0.001
629.34	-0.001
629.53	-0.001
629.72	-0.001
629.91	-0.001
630.11	-0.001
630.30	-0.001
630.49	-0.001
630.68	-0.001
630.87	-0.001
631.06	-0.001
631.26	-0.001
631.45	-0.001
631.64	-0.001
631.83	-0.001
632.02	-0.001
632.21	-0.001
632.41	-0.001
632.60	-0.001
632.79	-0.001
632.98	-0.001
633.17	-0.001
633.36	-0.001
633.55	-0.001
633.75	-0.001
633.94	-0.001
634.13	-0.001
634.32	-0.001
634.51	-0.001
634.70	-0.001
634.89	-0.001
635.09	-0.001
635.28	-0.001
635.47	-0.001
635.66	-0.001
635.85	-0.001
636.04	-0.001
636.23	-0.002
636.43	-0.002
636.62	-0.001
636.81	-0.001
637.00	-0.001
637.19	-0.001
637.38	-0.001
637.57	-0.001
637.76	-0.001
637.95	-0.001
638.15	-0.001
638.34	-0.001
638.53	-0.001
638.72	-0.001
638.91	-0.001
639.10	-0.001
639.29	-0.001
639.48	-0.001
639.67	-0.001
639.87	-0.001
640.06	-0.001
640.25	-0.001
640.44	-0.001
640.63	-0.001
640.82	-0.001
641.01	-0.001
641.20	-0.001
641.39	-0.001
641.58	-0.001
641.78	-0.001
641.97	-0.001
642.16	-0.001
642.35	-0.001
642.54	-0.001
642.73	-0.001
642.92	-0.001
643.11	-0.001
643.30	-0.001
643.49	-0.001
643.68	-0.001
643.87	-0.001
644.06	-0.001
644.25	-0.001
644.45	-0.001
644.64	-0.001
644.83	-0.001
645.02	-0.001
645.21	-0.001
645.40	-0.001
645.59	-0.001
645.78	-0.001
645.97	-0.001
646.16	-0.001
646.35	-0.001
646.54	-0.001
646.73	-0.001
646.92	-0.001
647.11	-0.001
647.30	-0.001
647.49	-0.002
647.68	-0.001
647.88	-0.001
648.07	-0.001
648.26	-0.002
648.45	-0.001
648.64	-0.001
648.83	-0.001
649.02	-0.001
649.21	-0.001
649.40	-0.001
649.59	-0.001
649.78	-0.001
649.97	-0.001
650.16	-0.001
650.35	-0.001
650.54	-0.001
650.73	-0.001
650.92	-0.001
651.11	-0.001
651.30	-0.001
651.49	-0.001
651.68	-0.001
651.87	-0.001
652.06	-0.001
652.25	-0.001
652.44	-0.001
652.63	-0.001
652.82	-0.002
653.01	-0.002
653.20	-0.002
653.39	-0.002
653.58	-0.003
653.77	-0.002
653.96	-0.003
654.15	-0.003
654.34	-0.003
654.53	-0.003
654.72	-0.003
654.91	-0.002
655.10	-0.002
655.29	-0.002
655.48	-0.002
655.67	-0.002
655.86	-0.002
656.05	-0.002
656.24	-0.002
656.43	-0.002
656.62	-0.002
656.81	-0.002
657.00	-0.001
657.19	-0.001
657.38	-0.001
657.57	-0.001
657.76	-0.000
657.95	-0.000
658.14	-0.000
658.33	-0.000
658.51	0.000
658.70	0.000
658.89	0.000
659.08	-0.000
659.27	-0.000
659.46	-0.001
659.65	-0.001
659.84	-0.000
660.03	-0.000
660.22	-0.000
660.41	-0.000
660.60	-0.000
660.79	-0.001
660.98	-0.000
661.17	-0.000
661.36	-0.001
661.55	-0.001
661.74	-0.001
661.92	-0.001
662.11	-0.001
662.30	-0.001
662.49	-0.001
662.68	-0.001
662.87	-0.001
663.06	-0.001
663.25	-0.001
663.44	-0.001
663.63	-0.001
663.82	-0.001
664.01	-0.001
664.20	-0.001
664.38	-0.001
664.57	-0.001
664.76	-0.001
664.95	-0.001
665.14	-0.001
665.33	-0.001
665.52	-0.001
665.71	-0.000
665.90	-0.000
666.09	-0.000
666.28	-0.000
666.46	-0.000
666.65	-0.000
666.84	-0.000
667.03	-0.001
667.22	-0.001
667.41	-0.001
667.60	-0.001
667.79	-0.001
667.98	-0.001
668.16	-0.001
668.35	-0.001
668.54	-0.001
668.73	-0.001
668.92	-0.001
669.11	-0.001
669.30	-0.001
669.49	-0.001
669.67	-0.001
669.86	-0.001
670.05	-0.001
670.24	-0.001
670.43	-0.001
670.62	-0.001
670.81	-0.001
671.00	-0.001
671.18	-0.001
671.37	-0.001
671.56	-0.001
671.75	-0.001
671.94	-0.001
672.13	-0.001
672.32	-0.001
672.50	-0.001
672.69	-0.001
672.88	-0.001
673.07	-0.001
673.26	-0.001
673.45	-0.001
673.63	-0.001
673.82	-0.001
674.01	-0.001
674.20	-0.001
674.39	-0.001
674.58	-0.001
674.76	-0.001
674.95	-0.001
675.14	-0.001
675.33	-0.001
675.52	-0.001
675.71	-0.001
675.89	-0.001
676.08	-0.001
676.27	-0.001
676.46	-0.001
676.65	-0.001
676.84	-0.001
677.02	-0.001
677.21	-0.001
677.40	-0.001
677.59	-0.001
677.78	-0.001
677.96	-0.001
678.15	-0.001
678.34	-0.001
678.53	-0.001
678.72	-0.001
678.90	-0.001
679.09	-0.001
679.28	-0.001
679.47	-0.001
679.66	-0.001
679.84	-0.001
680.03	-0.001
680.22	-0.001
680.41	-0.001
680.60	-0.001
680.78	-0.001
680.97	-0.000
681.16	-0.000
681.35	-0.001
681.53	-0.001
681.72	-0.001
681.91	-0.001
682.10	-0.001
682.29	-0.001
682.47	-0.001
682.66	-0.001
682.85	-0.001
683.04	-0.001
683.22	-0.001
683.41	-0.001
683.60	-0.001
683.79	-0.001
683.97	-0.001
684.16	-0.001
684.35	-0.001
684.54	-0.001
684.72	-0.001
684.91	-0.001
685.10	-0.001
685.29	-0.001
685.47	-0.001
685.66	-0.001
685.85	-0.001
686.04	-0.001
686.22	-0.001
686.41	-0.001
686.60	-0.001
686.79	-0.001
686.97	-0.000
687.16	-0.000
687.35	-0.001
687.54	-0.000
687.72	-0.000
687.91	-0.000
688.10	-0.000
688.29	-0.000
688.47	-0.001
688.66	-0.000
688.85	-0.001
689.03	-0.001
689.22	-0.001
689.41	-0.001
689.60	-0.001
689.78	-0.001
689.97	-0.001
690.16	-0.001
690.34	-0.001
690.53	-0.001
690.72	-0.001
690.91	-0.001
691.09	-0.001
691.28	-0.001
691.47	-0.001
691.65	-0.001
691.84	-0.001
692.03	-0.001
692.21	-0.001
692.40	-0.001
692.59	-0.001
692.77	-0.001
692.96	-0.001
693.15	-0.001
693.34	-0.001
693.52	-0.001
693.71	-0.001
693.90	-0.001
694.08	-0.001
694.27	-0.001
694.46	-0.001
694.64	-0.001
694.83	-0.001
695.02	-0.001
695.20	-0.001
695.39	-0.001
695.58	-0.001
695.76	-0.001
695.95	-0.001
696.14	-0.000
696.32	-0.001
696.51	-0.000
696.70	-0.001
696.88	-0.001
697.07	-0.001
697.26	-0.001
697.44	-0.001
697.63	-0.001
697.81	-0.001
698.00	-0.001
698.19	-0.001
698.37	-0.001
698.56	-0.001
698.75	-0.001
698.93	-0.001
699.12	-0.001
699.31	-0.001
699.49	-0.001
699.68	-0.001
699.87	-0.001
700.05	-0.001
700.24	-0.001
700.42	-0.001
700.61	-0.001
700.80	-0.001
700.98	-0.001
701.17	-0.001
701.36	-0.001
701.54	-0.001
701.73	-0.000
701.91	-0.000
702.10	-0.000
702.29	-0.000
702.47	-0.000
702.66	-0.000
702.84	-0.000
703.03	-0.000
703.22	-0.000
703.40	-0.000
703.59	-0.000
703.77	-0.000
703.96	-0.000
704.15	-0.000
704.33	-0.000
704.52	-0.001
704.70	-0.001
704.89	-0.001
705.08	-0.001
705.26	-0.001
705.45	-0.001
705.63	-0.001
705.82	-0.001
706.00	-0.001
706.19	-0.001
706.38	-0.001
706.56	-0.001
706.75	-0.001
706.93	-0.001
707.12	-0.001
707.30	-0.001
707.49	-0.001
707.68	-0.001
707.86	-0.000
708.05	-0.001
708.23	-0.000
708.42	-0.000
708.60	-0.000
708.79	-0.000
708.98	-0.000
709.16	-0.001
709.35	-0.000
709.53	-0.000
709.72	-0.001
709.90	-0.001
710.09	-0.001
710.27	-0.001
710.46	-0.001
710.64	-0.001
710.83	-0.001
711.02	-0.001
711.20	-0.001
711.39	-0.000
711.57	-0.000
711.76	-0.000
711.94	-0.000
712.13	-0.000
712.31	-0.000
712.50	-0.000
712.68	-0.000
712.87	-0.000
713.05	-0.000
713.24	-0.000
713.42	-0.000
713.61	-0.001
713.79	-0.001
713.98	-0.000
714.16	-0.000
714.35	-0.000
714.54	-0.000
714.72	-0.001
714.91	-0.001
715.09	-0.000
715.28	-0.000
715.46	-0.000
715.65	-0.000
715.83	-0.001
716.02	-0.001
716.20	-0.001
716.39	-0.001
716.57	-0.001
716.76	-0.001
716.94	-0.001
717.12	-0.001
717.31	-0.001
717.49	-0.001
717.68	-0.001
717.86	-0.000
718.05	-0.000
718.23	-0.000
718.42	-0.000
718.60	-0.000
718.79	-0.000
718.97	-0.000
719.16	-0.000
719.34	-0.000
719.53	-0.000
719.71	-0.000
719.90	-0.000
720.08	-0.000
720.27	-0.000
720.45	-0.000
720.63	-0.000
720.82	-0.000
721.00	-0.001
721.19	-0.001
721.37	-0.001
721.56	-0.000
721.74	-0.000
721.93	-0.001
722.11	-0.001
722.30	-0.001
722.48	-0.001
722.66	-0.001
722.85	-0.001
723.03	-0.000
723.22	-0.000
723.40	-0.000
723.59	-0.000
723.77	0.000
723.95	0.000
724.14	0.000
724.32	-0.000
724.51	0.000
724.69	0.000
724.88	0.000
725.06	0.000
725.24	0.000
725.43	0.000
725.61	0.000
725.80	-0.000
725.98	-0.000
726.16	-0.000
726.35	-0.000
726.53	-0.000
726.72	-0.000
726.90	-0.001
727.09	-0.001
727.27	-0.001
727.45	-0.001
727.64	-0.001
727.82	-0.001
728.01	-0.001
728.19	-0.001
728.37	-0.001
728.56	-0.001
728.74	-0.001
728.92	-0.001
729.11	-0.001
729.29	-0.001
729.48	-0.001
729.66	-0.001
729.84	-0.001
730.03	-0.001
730.21	-0.002
730.40	-0.002
730.58	-0.002
730.76	-0.002
730.95	-0.002
731.13	-0.002
731.31	-0.002
731.50	-0.002
731.68	-0.002
731.86	-0.002
732.05	-0.002
732.23	-0.001
732.42	-0.001
732.60	-0.001
732.78	-0.002
732.97	-0.001
733.15	-0.001
733.33	-0.001
733.52	-0.001
733.70	-0.001
733.88	-0.002
734.07	-0.002
734.25	-0.002
734.43	-0.002
734.62	-0.003
734.80	-0.003
734.98	-0.003
735.17	-0.003
735.35	-0.003
735.53	-0.003
735.72	-0.002
735.90	-0.001
736.08	-0.001
736.27	-0.001
736.45	-0.001
736.63	-0.001
736.82	-0.001
737.00	-0.001
737.18	-0.000
737.37	-0.000
737.55	-0.000
737.73	-0.001
737.92	-0.001
738.10	-0.002
738.28	-0.002
738.46	-0.001
738.65	-0.002
738.83	-0.002
739.01	-0.002
739.20	-0.002
739.38	-0.002
739.56	-0.002
739.75	-0.002
739.93	-0.001
740.11	-0.001
740.29	-0.001
740.48	-0.001
740.66	-0.001
740.84	-0.000
741.03	0.000
741.21	0.000
741.39	-0.000
741.57	-0.000
741.76	-0.000
741.94	-0.000
742.12	0.000
742.31	0.000
742.49	0.000
742.67	0.000
742.85	-0.000
743.04	-0.000
743.22	-0.000
743.40	0.000
743.58	0.000
743.77	-0.001
743.95	-0.001
744.13	-0.002
744.31	-0.002
744.50	-0.003
744.68	-0.003
744.86	-0.003
745.04	-0.003
745.23	-0.003
745.41	-0.004
745.59	-0.003
745.77	-0.003
745.96	-0.003
746.14	-0.002
746.32	-0.002
746.50	-0.001
746.69	-0.001
746.87	-0.001
747.05	-0.001
747.23	-0.001
747.42	-0.000
747.60	-0.001
747.78	-0.001
747.96	-0.000
748.14	-0.000
748.33	-0.001
748.51	-0.001
748.69	-0.002
748.87	-0.002
749.06	-0.002
749.24	-0.001
749.42	-0.001
749.60	-0.001
749.78	-0.001
749.97	-0.001
750.15	-0.000
750.33	-0.000
750.51	0.000
750.69	0.000
750.88	0.001
751.06	0.000
751.24	0.000
751.42	0.000
751.60	-0.000
751.79	0.000
751.97	-0.001
752.15	-0.000
752.33	-0.000
752.51	-0.001
752.69	-0.001
752.88	-0.000
753.06	-0.000
753.24	-0.000
753.42	-0.000
753.60	0.000
753.78	-0.000
753.97	-0.000
754.15	-0.001
754.33	-0.001
754.51	-0.001
754.69	-0.002
754.87	-0.002
755.06	-0.002
755.24	-0.002
755.42	-0.003
755.60	-0.003
755.78	-0.003
755.96	-0.003
756.15	-0.003
756.33	-0.003
756.51	-0.002
756.69	-0.001
756.87	-0.001
757.05	-0.002
757.23	-0.002
757.42	-0.001
757.60	-0.001
757.78	-0.001
757.96	-0.000
758.14	-0.000
758.32	-0.001
758.50	-0.001
758.69	-0.001
758.87	-0.001
759.05	-0.000
759.23	-0.001
759.41	-0.000
759.59	-0.000
759.77	-0.000
759.95	-0.001
760.13	-0.001
760.32	0.000
760.50	0.000
760.68	-0.000
760.86	-0.000
761.04	-0.001
761.22	-0.000
761.40	-0.001
761.58	-0.001
761.76	-0.001
761.95	-0.001
762.13	-0.001
762.31	-0.001
762.49	-0.001
762.67	-0.001
762.85	-0.000
763.03	-0.001
763.21	-0.001
763.39	-0.000
763.57	-0.000
763.75	-0.000
763.94	0.000
764.12	0.000
764.30	0.000
764.48	-0.000
764.66	-0.001
764.84	-0.001
765.02	-0.001
765.20	-0.001
765.38	-0.001
765.56	-0.000
765.74	-0.000
765.92	-0.001
766.10	-0.000
766.28	0.000
766.46	0.000
766.65	0.000
766.83	0.001
767.01	0.001
767.19	0.001
767.37	0.000
767.55	0.000
767.73	0.001
767.91	0.001
768.09	0.000
768.27	-0.000
768.45	-0.000
768.63	0.000
768.81	-0.000
768.99	-0.000
769.17	-0.000
769.35	-0.000
769.53	-0.000
769.71	-0.000
769.89	0.000
770.07	0.000
770.25	0.001
770.43	0.001
770.61	0.000
770.79	0.001
770.97	0.001
771.15	0.001
771.33	0.001
771.51	0.001
771.69	0.001
771.87	0.001
772.05	0.001
772.24	0.001
772.42	0.001
772.60	0.001
772.78	0.001
772.96	0.001
773.14	0.001
773.32	0.001
773.49	0.000
773.67	-0.000
773.85	-0.001
774.03	-0.000
774.21	-0.000
774.39	-0.000
774.57	0.000
774.75	0.000
774.93	0.000
775.11	-0.000
775.29	-0.000
775.47	-0.000
775.65	0.000
775.83	0.001
776.01	0.000
776.19	-0.000
776.37	-0.001
776.55	-0.001
776.73	-0.001
776.91	-0.001
777.09	-0.001
777.27	-0.001
777.45	-0.002
777.63	-0.002
777.81	-0.002
777.99	-0.002
778.17	-0.001
778.35	-0.002
778.53	-0.001
778.71	-0.001
778.89	-0.002
779.07	-0.001
779.24	-0.001
779.42	-0.001
779.60	-0.000
779.78	0.000
779.96	0.000
780.14	-0.000
780.32	0.000
780.50	0.000
780.68	0.000
780.86	0.001
781.04	0.001
781.22	0.001
781.40	0.001
781.58	0.001
781.75	0.001
781.93	0.001
782.11	0.002
782.29	0.002
782.47	0.002
782.65	0.002
782.83	0.002
783.01	0.002
783.19	0.001
783.37	0.001
783.55	0.001
783.72	0.000
783.90	0.000
784.08	-0.000
784.26	-0.000
784.44	-0.000
784.62	-0.000
784.80	0.000
784.98	0.000
785.16	-0.000
785.33	-0.000
785.51	-0.001
785.69	-0.001
785.87	-0.001
786.05	-0.001
786.23	-0.001
786.41	-0.002
786.59	-0.001
786.77	-0.002
786.94	-0.002
787.12	-0.002
787.30	-0.002
787.48	-0.001
787.66	-0.001
787.84	-0.001
788.02	-0.001
788.19	-0.001
788.37	-0.000
788.55	-0.001
788.73	-0.000
788.91	-0.000
789.09	-0.000
789.27	-0.000
789.44	-0.000
789.62	-0.000
789.80	-0.000
789.98	-0.000
790.16	-0.001
790.34	-0.001
790.51	-0.000
790.69	-0.000
790.87	-0.000
791.05	-0.000
791.23	-0.001
791.41	-0.000
791.58	-0.000
791.76	-0.000
791.94	0.000
792.12	0.000
792.30	-0.000
792.48	-0.000
792.65	-0.000
792.83	-0.000
793.01	-0.000
793.19	-0.000
793.37	-0.000
793.54	-0.000
793.72	0.000
793.90	-0.000
794.08	-0.000
794.26	0.000
794.43	0.000
794.61	0.000
794.79	0.000
794.97	0.000
795.15	0.000
795.32	0.000
795.50	0.000
795.68	-0.000
795.86	0.000
796.04	0.000
796.21	0.000
796.39	0.000
796.57	-0.000
796.75	-0.000
796.92	-0.001
797.10	-0.001
797.28	-0.001
797.46	-0.001
797.64	-0.001
797.81	-0.001
797.99	-0.001
798.17	-0.001
798.35	-0.000
798.52	-0.000
798.70	0.000
798.88	0.000
799.06	0.000
799.23	0.000
799.41	0.000
799.59	0.000
799.77	0.000
799.94	0.000
800.12	0.000
800.30	0.000
800.48	0.000
800.65	0.001
800.83	0.000
801.01	0.001
801.19	0.000
801.36	0.000
801.54	0.000
801.72	0.001
801.90	0.001
802.07	0.001
802.25	0.001
802.43	0.001
802.60	0.000
802.78	0.001
802.96	0.000
803.14	0.000
803.31	0.000
803.49	-0.000
803.67	-0.000
803.84	-0.001
804.02	-0.001
804.20	-0.001
804.38	-0.001
804.55	-0.000
804.73	-0.001
804.91	-0.000
805.08	-0.000
805.26	-0.000
805.44	-0.000
805.61	-0.000
805.79	-0.000
805.97	-0.000
806.15	-0.001
806.32	-0.001
806.50	-0.001
806.68	-0.001
806.85	-0.001
807.03	-0.001
807.21	-0.001
807.38	-0.001
807.56	-0.001
807.74	-0.001
807.91	-0.001
808.09	-0.001
808.27	-0.001
808.44	-0.000
808.62	-0.000
808.80	-0.000
808.97	-0.000
809.15	-0.000
809.33	-0.000
809.50	-0.000
809.68	-0.000
809.86	0.000
810.03	0.000
810.21	0.000
810.39	0.000
810.56	0.000
810.74	-0.000
810.91	0.000
811.09	0.000
811.27	0.000
811.44	0.000
811.62	0.000
811.80	0.000
811.97	0.000
812.15	0.000
812.33	0.000
812.50	0.001
812.68	0.000
812.85	0.000
813.03	-0.000
813.21	-0.000
813.38	-0.001
813.56	-0.000
813.74	-0.000
813.91	-0.000
814.09	-0.000
814.26	-0.001
814.44	-0.001
814.62	0.000
814.79	-0.000
814.97	0.000
815.14	0.000
815.32	0.000
815.50	0.000
815.67	0.000
815.85	0.000
816.02	-0.000
816.20	0.000
816.38	-0.000
816.55	-0.000
816.73	0.000
816.90	0.000
817.08	0.000
817.26	0.000
817.43	0.000
817.61	0.000
817.78	0.000
817.96	0.001
818.13	0.000
818.31	0.001
818.49	-0.000
818.66	-0.000
818.84	-0.000
819.01	-0.000
819.19	-0.000
819.36	0.000
819.54	0.000
819.71	0.000
819.89	0.000
820.07	0.000
820.24	0.001
820.42	0.001
820.59	0.001
820.77	0.001
820.94	0.001
821.12	0.001
821.29	0.001
821.47	0.001
821.64	0.000
821.82	-0.001
822.00	-0.001
822.17	-0.001
822.35	-0.001
822.52	-0.001
822.70	-0.001
822.87	-0.001
823.05	-0.001
823.22	-0.002
823.40	-0.001
823.57	-0.001
823.75	-0.000
823.92	-0.000
824.10	-0.001
824.27	-0.001
824.45	-0.001
824.62	-0.001
824.80	-0.001
824.97	-0.000
825.15	0.000
825.32	-0.000
825.50	-0.001
825.67	-0.000
825.85	-0.000
826.02	-0.000
826.20	0.000
826.37	-0.000
826.55	0.000
826.72	0.000
826.90	0.001
827.07	0.000
827.25	0.001
827.42	0.000
827.60	0.001
827.77	0.001
827.95	0.001
828.12	0.001
828.30	0.002
828.47	0.001
828.65	0.001
828.82	0.000
829.00	0.001
829.17	0.001
829.34	0.001
829.52	0.001
829.69	0.001
829.87	0.001
830.04	0.001
830.22	0.001
830.39	0.001
830.57	0.001
830.74	0.001
830.92	0.001
831.09	0.001
831.26	0.001
831.44	0.002
831.61	0.002
831.79	0.002
831.96	0.003
832.14	0.004
832.31	0.004
832.49	0.005
832.66	0.004
832.83	0.003
833.01	0.003
833.18	0.003
833.36	0.002
833.53	0.003
833.70	0.002
833.88	0.001
834.05	-0.000
834.23	-0.001
834.40	-0.001
834.58	-0.002
834.75	-0.001
834.92	-0.002
835.10	-0.001
835.27	-0.001
835.45	-0.001
835.62	-0.001
835.79	-0.001
835.97	-0.001
836.14	0.000
836.32	-0.001
836.49	-0.001
836.66	-0.001
836.84	-0.000
837.01	0.000
837.18	0.000
837.36	0.001
837.53	0.002
837.71	0.003
837.88	0.003
838.05	0.003
838.23	0.004
838.40	0.005
838.58	0.005
838.75	0.006
838.92	0.004
839.10	0.005
839.27	0.003
839.44	0.003
839.62	0.002
839.79	0.003
839.96	0.002
840.14	0.005
840.31	0.003
840.48	0.003
840.66	0.002
840.83	0.002
841.01	0.002
841.18	0.005
841.35	0.005
841.53	0.006
841.70	0.005
841.87	0.005
842.05	0.003
842.22	0.004
842.39	0.003
842.57	0.003
842.74	0.002
842.91	0.002
843.09	0.002
843.26	0.002
843.43	0.002
843.60	0.002
843.78	0.002
843.95	0.004
844.12	0.003
844.30	0.005
844.47	0.004
844.64	0.004
844.82	0.004
844.99	0.004
845.16	0.001
845.34	0.000
845.51	0.000
845.68	0.000
845.85	0.000
846.03	0.000
846.20	0.001
846.37	0.001
846.55	0.002
846.72	0.000
846.89	-0.001
847.06	0.001
847.24	0.001
847.41	-0.000
847.58	-0.001
847.76	-0.002
847.93	-0.002
848.10	-0.005
848.27	-0.005
848.45	-0.003
848.62	-0.002
848.79	-0.001
848.97	-0.003
849.14	-0.002
849.31	-0.001
849.48	0.001
849.66	-0.002
849.83	-0.002
850.00	0.003
850.17	0.004
850.35	0.001
850.52	-0.002
850.69	-0.003
850.86	-0.002
851.04	-0.004
851.21	-0.005
851.38	-0.004
851.55	-0.002
851.72	-0.003
851.90	-0.006
852.07	-0.007
852.24	-0.006
852.41	-0.003
852.59	-0.002
852.76	-0.002
852.93	-0.001
853.10	-0.001
853.28	-0.002
853.45	0.001
853.62	-0.001
853.79	-0.000
853.96	0.000
854.14	0.001
854.31	-0.001
854.48	0.001
854.65	0.001
854.82	0.001
855.00	0.002
855.17	0.002
855.34	0.001
855.51	0.001
855.68	0.002
855.86	0.003
856.03	0.003
856.20	0.004
856.37	0.004
856.54	0.005
856.72	0.006
856.89	0.006
857.06	0.008
857.23	0.007
857.40	0.010
857.57	0.010
857.75	0.010
857.92	0.012
858.09	0.010
858.26	0.011
858.43	0.011
858.60	0.014
858.78	0.011
858.95	0.010
859.12	0.010
859.29	0.010
859.46	0.010
859.63	0.007
859.81	0.006
859.98	0.011
860.15	0.009
860.32	0.012
860.49	0.009
860.66	0.009
860.83	0.011
861.01	0.011
861.18	0.008
861.35	0.007
861.52	0.011
861.69	0.009
861.86	0.006
862.03	0.005
862.21	0.002
862.38	0.002
862.55	0.004
862.72	0.002
862.89	0.000
863.06	0.002
863.23	0.002
863.40	-0.002
863.58	-0.002
863.75	0.001
863.92	-0.001
864.09	-0.000
864.26	-0.002
864.43	-0.003
864.60	0.000
864.77	0.000
864.94	0.000
865.11	0.003
865.29	0.003
865.46	0.003
865.63	-0.001
865.80	0.003
865.97	0.005
866.14	0.007
866.31	0.006
866.48	0.002
866.65	0.003
866.82	0.003
866.99	0.001
867.16	0.000
867.34	-0.001
867.51	-0.001
867.68	-0.006
867.85	-0.008
868.02	-0.009
868.19	-0.006
868.36	-0.003
868.53	-0.005
868.70	-0.005
868.87	-0.000
869.04	0.002
869.21	0.004
869.38	0.004
869.55	0.011
869.72	0.008
869.89	0.006
870.06	0.005
870.24	-0.002
870.41	-0.002
870.58	-0.001
870.75	-0.001
870.92	-0.000
871.09	0.002
871.26	0.003
871.43	-0.000
871.60	0.002
871.77	0.004
871.94	0.005
872.11	0.009
872.28	0.012
872.45	0.013
872.62	0.004
872.79	0.006
872.96	-0.001
873.13	0.001
873.30	0.003
873.47	0.003
873.64	0.007
873.81	0.003
873.98	0.009
874.15	0.004
874.32	0.002
874.49	0.004
874.66	0.006
874.83	0.012
875.00	0.008
875.17	0.010
875.34	0.008
875.51	0.005
875.68	0.007
875.85	-0.003
876.02	0.000
876.19	-0.003
876.36	0.002
876.53	-0.003
876.70	0.000
876.87	0.005
877.04	-0.002
877.21	-0.001
877.38	0.001
877.55	0.001
877.72	0.004
877.89	0.005
878.06	0.006
878.23	-0.000
878.39	0.004
878.56	0.002
878.73	-0.003
878.90	0.005
879.07	-0.001
879.24	0.000
879.41	-0.003
879.58	-0.002
879.75	0.002
879.92	0.007
880.09	0.015
880.26	0.007
880.43	0.004
880.60	0.003
880.77	-0.009
880.94	-0.004
881.11	-0.005
881.27	0.005
881.44	0.004
881.61	-0.001
881.78	-0.002
881.95	-0.007
882.12	-0.006
882.29	-0.002
882.46	0.003
882.63	0.011
882.80	0.012
882.97	0.014
883.14	0.009
883.30	0.013
883.47	0.015
883.64	0.013
883.81	0.009
883.98	0.010
884.15	0.010
884.32	0.009
884.49	0.012
884.66	0.021
884.82	0.023
884.99	0.023
885.16	0.016
885.33	0.017
885.50	0.013
885.67	0.026
885.84	0.022
886.01	0.022
886.17	0.012
886.34	0.014
886.51	0.004
886.68	-0.004
886.85	-0.000
887.02	0.006
887.19	0.003
887.36	0.007
887.52	-0.003
887.69	0.002
887.86	0.000
888.03	0.013
888.20	0.015
888.37	0.012
888.54	0.011
888.70	0.013
888.87	0.004
889.04	0.014
889.21	0.014
889.38	0.017
889.55	0.013
889.71	-0.080
889.88	0.078
890.05	0.013
890.22	0.025
890.39	-0.074
>>>>>End Processed Spectral Data<<<<<
