SpectraSuite Data File
++++++++++++++++++++++++++++++++++++
Date: Mon Jun 15 05:23:01 PDT 2015
User: introlabs
Dark Spectrum Present: Yes
Reference Spectrum Present: Yes
Number of Sampled Component Spectra: 1
Spectrometers: USB4H08886
Integration Time (usec): 99009 (USB4H08886)
Spectra Averaged: 20 (USB4H08886)
Boxcar Smoothing: 5 (USB4H08886)
Correct for Electrical Dark: Yes (USB4H08886)
Strobe/Lamp Enabled: No (USB4H08886)
Correct for Detector Non-linearity: Yes (USB4H08886)
Correct for Stray Light: Yes (USB4H08886)
Number of Pixels in Processed Spectrum: 3648
>>>>>Begin Processed Spectral Data<<<<<
178.14	-0.000
178.36	-0.000
178.57	-0.000
178.79	-0.000
179.01	-0.066
179.22	0.112
179.44	0.280
179.65	0.436
179.87	0.558
180.08	1.128
180.30	-0.000
180.52	-0.000
180.73	-0.000
180.95	-0.167
181.16	-0.316
181.38	-0.157
181.59	-0.105
181.81	-0.099
182.03	-0.096
182.24	-0.094
182.46	-0.099
182.67	-0.104
182.89	-0.090
183.10	-0.086
183.32	-0.078
183.54	-0.061
183.75	-0.071
183.97	-0.073
184.18	-0.073
184.40	-0.078
184.61	-0.082
184.83	-0.094
185.04	-0.094
185.26	-0.111
185.48	-0.086
185.69	-0.095
185.91	-0.098
186.12	-0.097
186.34	-0.099
186.55	-0.098
186.77	-0.092
186.98	-0.084
187.20	-0.074
187.42	-0.071
187.63	-0.083
187.85	-0.098
188.06	-0.099
188.28	-0.095
188.49	-0.105
188.71	-0.117
188.92	-0.111
189.14	-0.101
189.36	-0.123
189.57	-0.140
189.79	-0.132
190.00	-0.115
190.22	-0.111
190.43	-0.115
190.65	-0.121
190.86	-0.112
191.08	-0.105
191.29	-0.112
191.51	-0.138
191.72	-0.117
191.94	-0.097
192.16	-0.103
192.37	-0.089
192.59	-0.097
192.80	-0.099
193.02	-0.080
193.23	-0.069
193.45	-0.065
193.66	-0.069
193.88	-0.051
194.09	-0.061
194.31	-0.063
194.52	-0.064
194.74	-0.080
194.95	-0.075
195.17	-0.076
195.38	-0.094
195.60	-0.101
195.81	-0.096
196.03	-0.093
196.25	-0.095
196.46	-0.100
196.68	-0.106
196.89	-0.104
197.11	-0.107
197.32	-0.114
197.54	-0.111
197.75	-0.123
197.97	-0.119
198.18	-0.123
198.40	-0.127
198.61	-0.129
198.83	-0.115
199.04	-0.110
199.26	-0.101
199.47	-0.093
199.69	-0.100
199.90	-0.100
200.12	-0.081
200.33	-0.089
200.55	-0.085
200.76	-0.089
200.98	-0.078
201.19	-0.086
201.41	-0.095
201.62	-0.110
201.84	-0.116
202.05	-0.112
202.27	-0.098
202.48	-0.109
202.70	-0.112
202.91	-0.115
203.13	-0.106
203.34	-0.104
203.56	-0.102
203.77	-0.096
203.99	-0.084
204.20	-0.073
204.42	-0.064
204.63	-0.068
204.85	-0.055
205.06	-0.051
205.28	-0.047
205.49	-0.043
205.71	-0.059
205.92	-0.059
206.14	-0.057
206.35	-0.063
206.56	-0.057
206.78	-0.064
206.99	-0.059
207.21	-0.077
207.42	-0.073
207.64	-0.073
207.85	-0.075
208.07	-0.068
208.28	-0.071
208.50	-0.056
208.71	-0.048
208.93	-0.059
209.14	-0.056
209.36	-0.072
209.57	-0.078
209.79	-0.077
210.00	-0.082
210.22	-0.092
210.43	-0.091
210.64	-0.091
210.86	-0.108
211.07	-0.122
211.29	-0.126
211.50	-0.135
211.72	-0.126
211.93	-0.114
212.15	-0.111
212.36	-0.105
212.58	-0.100
212.79	-0.100
213.01	-0.091
213.22	-0.093
213.43	-0.082
213.65	-0.075
213.86	-0.063
214.08	-0.067
214.29	-0.058
214.51	-0.064
214.72	-0.074
214.94	-0.073
215.15	-0.068
215.36	-0.082
215.58	-0.080
215.79	-0.092
216.01	-0.102
216.22	-0.108
216.44	-0.115
216.65	-0.134
216.87	-0.129
217.08	-0.120
217.29	-0.117
217.51	-0.119
217.72	-0.109
217.94	-0.111
218.15	-0.105
218.37	-0.100
218.58	-0.108
218.80	-0.094
219.01	-0.081
219.22	-0.086
219.44	-0.095
219.65	-0.092
219.87	-0.084
220.08	-0.087
220.30	-0.088
220.51	-0.094
220.72	-0.090
220.94	-0.081
221.15	-0.095
221.37	-0.102
221.58	-0.091
221.79	-0.091
222.01	-0.100
222.22	-0.113
222.44	-0.115
222.65	-0.103
222.87	-0.097
223.08	-0.108
223.29	-0.103
223.51	-0.099
223.72	-0.088
223.94	-0.105
224.15	-0.100
224.36	-0.095
224.58	-0.103
224.79	-0.098
225.01	-0.114
225.22	-0.116
225.44	-0.114
225.65	-0.116
225.86	-0.107
226.08	-0.115
226.29	-0.104
226.51	-0.110
226.72	-0.114
226.93	-0.108
227.15	-0.109
227.36	-0.096
227.58	-0.096
227.79	-0.101
228.00	-0.102
228.22	-0.119
228.43	-0.119
228.65	-0.129
228.86	-0.134
229.07	-0.130
229.29	-0.120
229.50	-0.123
229.72	-0.125
229.93	-0.130
230.14	-0.129
230.36	-0.127
230.57	-0.117
230.78	-0.126
231.00	-0.122
231.21	-0.115
231.43	-0.125
231.64	-0.136
231.85	-0.137
232.07	-0.141
232.28	-0.138
232.50	-0.136
232.71	-0.140
232.92	-0.138
233.14	-0.130
233.35	-0.131
233.56	-0.131
233.78	-0.127
233.99	-0.127
234.21	-0.127
234.42	-0.128
234.63	-0.135
234.85	-0.136
235.06	-0.137
235.27	-0.142
235.49	-0.145
235.70	-0.149
235.91	-0.152
236.13	-0.151
236.34	-0.151
236.56	-0.152
236.77	-0.153
236.98	-0.150
237.20	-0.150
237.41	-0.152
237.62	-0.152
237.84	-0.153
238.05	-0.152
238.26	-0.148
238.48	-0.149
238.69	-0.150
238.91	-0.151
239.12	-0.151
239.33	-0.150
239.55	-0.149
239.76	-0.147
239.97	-0.146
240.19	-0.145
240.40	-0.143
240.61	-0.145
240.83	-0.144
241.04	-0.144
241.25	-0.144
241.47	-0.143
241.68	-0.142
241.89	-0.142
242.11	-0.143
242.32	-0.143
242.53	-0.143
242.75	-0.144
242.96	-0.144
243.17	-0.143
243.39	-0.141
243.60	-0.139
243.81	-0.139
244.03	-0.138
244.24	-0.138
244.45	-0.137
244.67	-0.136
244.88	-0.134
245.09	-0.134
245.31	-0.134
245.52	-0.134
245.73	-0.134
245.95	-0.134
246.16	-0.134
246.37	-0.135
246.59	-0.135
246.80	-0.135
247.01	-0.135
247.23	-0.136
247.44	-0.135
247.65	-0.135
247.87	-0.135
248.08	-0.136
248.29	-0.135
248.51	-0.135
248.72	-0.135
248.93	-0.135
249.15	-0.135
249.36	-0.135
249.57	-0.135
249.78	-0.135
250.00	-0.134
250.21	-0.134
250.42	-0.135
250.64	-0.135
250.85	-0.135
251.06	-0.135
251.28	-0.136
251.49	-0.135
251.70	-0.136
251.92	-0.137
252.13	-0.136
252.34	-0.137
252.55	-0.137
252.77	-0.137
252.98	-0.137
253.19	-0.137
253.41	-0.137
253.62	-0.137
253.83	-0.137
254.05	-0.136
254.26	-0.135
254.47	-0.135
254.68	-0.136
254.90	-0.135
255.11	-0.135
255.32	-0.135
255.54	-0.136
255.75	-0.136
255.96	-0.136
256.17	-0.137
256.39	-0.137
256.60	-0.138
256.81	-0.138
257.03	-0.138
257.24	-0.138
257.45	-0.138
257.66	-0.138
257.88	-0.138
258.09	-0.138
258.30	-0.138
258.51	-0.138
258.73	-0.138
258.94	-0.138
259.15	-0.138
259.37	-0.138
259.58	-0.139
259.79	-0.139
260.00	-0.139
260.22	-0.140
260.43	-0.140
260.64	-0.140
260.85	-0.141
261.07	-0.140
261.28	-0.140
261.49	-0.140
261.71	-0.140
261.92	-0.139
262.13	-0.139
262.34	-0.139
262.56	-0.139
262.77	-0.138
262.98	-0.138
263.19	-0.138
263.41	-0.138
263.62	-0.138
263.83	-0.138
264.04	-0.138
264.26	-0.138
264.47	-0.138
264.68	-0.138
264.89	-0.138
265.11	-0.138
265.32	-0.138
265.53	-0.138
265.74	-0.138
265.96	-0.138
266.17	-0.138
266.38	-0.138
266.59	-0.139
266.81	-0.138
267.02	-0.138
267.23	-0.138
267.44	-0.138
267.65	-0.138
267.87	-0.138
268.08	-0.138
268.29	-0.138
268.50	-0.137
268.72	-0.138
268.93	-0.138
269.14	-0.138
269.35	-0.138
269.57	-0.138
269.78	-0.138
269.99	-0.139
270.20	-0.138
270.41	-0.138
270.63	-0.138
270.84	-0.137
271.05	-0.138
271.26	-0.137
271.48	-0.137
271.69	-0.137
271.90	-0.136
272.11	-0.137
272.32	-0.135
272.54	-0.135
272.75	-0.135
272.96	-0.135
273.17	-0.135
273.39	-0.135
273.60	-0.134
273.81	-0.134
274.02	-0.134
274.23	-0.134
274.45	-0.133
274.66	-0.133
274.87	-0.133
275.08	-0.132
275.29	-0.132
275.51	-0.132
275.72	-0.132
275.93	-0.132
276.14	-0.131
276.35	-0.131
276.57	-0.130
276.78	-0.130
276.99	-0.129
277.20	-0.129
277.41	-0.129
277.63	-0.128
277.84	-0.128
278.05	-0.127
278.26	-0.127
278.47	-0.127
278.69	-0.126
278.90	-0.126
279.11	-0.126
279.32	-0.126
279.53	-0.125
279.74	-0.125
279.96	-0.124
280.17	-0.124
280.38	-0.124
280.59	-0.123
280.80	-0.123
281.02	-0.122
281.23	-0.122
281.44	-0.121
281.65	-0.121
281.86	-0.121
282.07	-0.120
282.29	-0.120
282.50	-0.119
282.71	-0.119
282.92	-0.119
283.13	-0.118
283.35	-0.118
283.56	-0.118
283.77	-0.117
283.98	-0.117
284.19	-0.117
284.40	-0.116
284.62	-0.116
284.83	-0.116
285.04	-0.115
285.25	-0.115
285.46	-0.115
285.67	-0.114
285.88	-0.114
286.10	-0.113
286.31	-0.112
286.52	-0.112
286.73	-0.111
286.94	-0.111
287.15	-0.111
287.37	-0.110
287.58	-0.110
287.79	-0.110
288.00	-0.109
288.21	-0.109
288.42	-0.109
288.63	-0.108
288.85	-0.108
289.06	-0.108
289.27	-0.108
289.48	-0.107
289.69	-0.107
289.90	-0.107
290.11	-0.107
290.33	-0.106
290.54	-0.106
290.75	-0.106
290.96	-0.106
291.17	-0.105
291.38	-0.105
291.59	-0.104
291.81	-0.104
292.02	-0.104
292.23	-0.104
292.44	-0.103
292.65	-0.103
292.86	-0.103
293.07	-0.103
293.28	-0.102
293.50	-0.102
293.71	-0.102
293.92	-0.102
294.13	-0.102
294.34	-0.102
294.55	-0.101
294.76	-0.101
294.97	-0.101
295.19	-0.101
295.40	-0.101
295.61	-0.100
295.82	-0.100
296.03	-0.100
296.24	-0.100
296.45	-0.100
296.66	-0.100
296.87	-0.100
297.09	-0.099
297.30	-0.099
297.51	-0.099
297.72	-0.099
297.93	-0.099
298.14	-0.099
298.35	-0.099
298.56	-0.099
298.77	-0.099
298.99	-0.098
299.20	-0.098
299.41	-0.098
299.62	-0.098
299.83	-0.098
300.04	-0.098
300.25	-0.098
300.46	-0.097
300.67	-0.097
300.88	-0.097
301.10	-0.097
301.31	-0.097
301.52	-0.097
301.73	-0.097
301.94	-0.097
302.15	-0.097
302.36	-0.096
302.57	-0.096
302.78	-0.096
302.99	-0.096
303.20	-0.096
303.41	-0.096
303.63	-0.096
303.84	-0.096
304.05	-0.096
304.26	-0.096
304.47	-0.096
304.68	-0.095
304.89	-0.095
305.10	-0.095
305.31	-0.095
305.52	-0.095
305.73	-0.095
305.94	-0.095
306.15	-0.095
306.37	-0.095
306.58	-0.095
306.79	-0.095
307.00	-0.095
307.21	-0.095
307.42	-0.094
307.63	-0.094
307.84	-0.094
308.05	-0.094
308.26	-0.094
308.47	-0.094
308.68	-0.094
308.89	-0.094
309.10	-0.094
309.31	-0.094
309.52	-0.094
309.73	-0.094
309.95	-0.094
310.16	-0.093
310.37	-0.093
310.58	-0.093
310.79	-0.093
311.00	-0.093
311.21	-0.093
311.42	-0.093
311.63	-0.093
311.84	-0.093
312.05	-0.093
312.26	-0.093
312.47	-0.093
312.68	-0.093
312.89	-0.093
313.10	-0.092
313.31	-0.092
313.52	-0.092
313.73	-0.092
313.94	-0.092
314.15	-0.092
314.36	-0.092
314.57	-0.092
314.78	-0.092
314.99	-0.092
315.21	-0.092
315.42	-0.092
315.63	-0.092
315.84	-0.092
316.05	-0.092
316.26	-0.092
316.47	-0.092
316.68	-0.092
316.89	-0.091
317.10	-0.091
317.31	-0.091
317.52	-0.091
317.73	-0.091
317.94	-0.091
318.15	-0.091
318.36	-0.091
318.57	-0.091
318.78	-0.091
318.99	-0.091
319.20	-0.091
319.41	-0.091
319.62	-0.090
319.83	-0.091
320.04	-0.091
320.25	-0.091
320.46	-0.091
320.67	-0.091
320.88	-0.091
321.09	-0.091
321.30	-0.091
321.51	-0.091
321.72	-0.091
321.93	-0.091
322.14	-0.090
322.35	-0.091
322.56	-0.090
322.77	-0.090
322.98	-0.090
323.19	-0.090
323.40	-0.090
323.61	-0.090
323.82	-0.090
324.03	-0.090
324.24	-0.090
324.45	-0.090
324.66	-0.090
324.87	-0.089
325.08	-0.089
325.29	-0.089
325.50	-0.089
325.71	-0.089
325.92	-0.089
326.13	-0.089
326.34	-0.089
326.55	-0.089
326.76	-0.089
326.97	-0.089
327.18	-0.089
327.39	-0.089
327.60	-0.089
327.80	-0.089
328.01	-0.089
328.22	-0.089
328.43	-0.089
328.64	-0.089
328.85	-0.089
329.06	-0.089
329.27	-0.089
329.48	-0.089
329.69	-0.089
329.90	-0.089
330.11	-0.089
330.32	-0.089
330.53	-0.089
330.74	-0.089
330.95	-0.089
331.16	-0.089
331.37	-0.089
331.58	-0.089
331.79	-0.089
332.00	-0.088
332.21	-0.088
332.42	-0.088
332.63	-0.088
332.83	-0.088
333.04	-0.088
333.25	-0.088
333.46	-0.088
333.67	-0.088
333.88	-0.088
334.09	-0.088
334.30	-0.088
334.51	-0.088
334.72	-0.088
334.93	-0.088
335.14	-0.088
335.35	-0.088
335.56	-0.088
335.77	-0.088
335.98	-0.088
336.18	-0.088
336.39	-0.088
336.60	-0.088
336.81	-0.088
337.02	-0.088
337.23	-0.088
337.44	-0.087
337.65	-0.087
337.86	-0.088
338.07	-0.088
338.28	-0.088
338.49	-0.088
338.70	-0.088
338.91	-0.088
339.11	-0.088
339.32	-0.088
339.53	-0.088
339.74	-0.088
339.95	-0.088
340.16	-0.088
340.37	-0.088
340.58	-0.088
340.79	-0.088
341.00	-0.088
341.21	-0.088
341.41	-0.087
341.62	-0.087
341.83	-0.087
342.04	-0.087
342.25	-0.087
342.46	-0.087
342.67	-0.087
342.88	-0.087
343.09	-0.087
343.30	-0.087
343.50	-0.087
343.71	-0.087
343.92	-0.087
344.13	-0.087
344.34	-0.087
344.55	-0.087
344.76	-0.087
344.97	-0.087
345.18	-0.087
345.38	-0.087
345.59	-0.087
345.80	-0.087
346.01	-0.087
346.22	-0.087
346.43	-0.087
346.64	-0.087
346.85	-0.087
347.06	-0.087
347.26	-0.087
347.47	-0.087
347.68	-0.087
347.89	-0.086
348.10	-0.087
348.31	-0.086
348.52	-0.086
348.73	-0.086
348.93	-0.086
349.14	-0.087
349.35	-0.087
349.56	-0.087
349.77	-0.087
349.98	-0.087
350.19	-0.087
350.39	-0.087
350.60	-0.087
350.81	-0.087
351.02	-0.087
351.23	-0.087
351.44	-0.086
351.65	-0.086
351.86	-0.086
352.06	-0.086
352.27	-0.086
352.48	-0.086
352.69	-0.086
352.90	-0.086
353.11	-0.086
353.31	-0.086
353.52	-0.086
353.73	-0.086
353.94	-0.086
354.15	-0.086
354.36	-0.086
354.57	-0.086
354.77	-0.086
354.98	-0.086
355.19	-0.086
355.40	-0.086
355.61	-0.086
355.82	-0.086
356.02	-0.086
356.23	-0.086
356.44	-0.086
356.65	-0.086
356.86	-0.086
357.07	-0.085
357.27	-0.085
357.48	-0.085
357.69	-0.085
357.90	-0.085
358.11	-0.085
358.32	-0.085
358.52	-0.085
358.73	-0.085
358.94	-0.085
359.15	-0.085
359.36	-0.085
359.56	-0.085
359.77	-0.085
359.98	-0.085
360.19	-0.085
360.40	-0.085
360.61	-0.085
360.81	-0.085
361.02	-0.085
361.23	-0.085
361.44	-0.085
361.65	-0.085
361.85	-0.085
362.06	-0.085
362.27	-0.085
362.48	-0.085
362.69	-0.085
362.89	-0.085
363.10	-0.085
363.31	-0.085
363.52	-0.085
363.73	-0.085
363.93	-0.085
364.14	-0.085
364.35	-0.085
364.56	-0.085
364.77	-0.085
364.97	-0.085
365.18	-0.085
365.39	-0.085
365.60	-0.085
365.81	-0.085
366.01	-0.085
366.22	-0.084
366.43	-0.084
366.64	-0.085
366.84	-0.084
367.05	-0.085
367.26	-0.084
367.47	-0.084
367.68	-0.085
367.88	-0.084
368.09	-0.085
368.30	-0.084
368.51	-0.085
368.71	-0.085
368.92	-0.085
369.13	-0.085
369.34	-0.084
369.55	-0.084
369.75	-0.085
369.96	-0.084
370.17	-0.084
370.38	-0.084
370.58	-0.084
370.79	-0.084
371.00	-0.084
371.21	-0.084
371.41	-0.084
371.62	-0.084
371.83	-0.084
372.04	-0.084
372.24	-0.084
372.45	-0.084
372.66	-0.084
372.87	-0.084
373.07	-0.084
373.28	-0.084
373.49	-0.084
373.70	-0.084
373.90	-0.084
374.11	-0.084
374.32	-0.084
374.53	-0.084
374.73	-0.084
374.94	-0.084
375.15	-0.084
375.36	-0.084
375.56	-0.084
375.77	-0.084
375.98	-0.084
376.19	-0.084
376.39	-0.084
376.60	-0.083
376.81	-0.083
377.02	-0.083
377.22	-0.083
377.43	-0.083
377.64	-0.083
377.84	-0.083
378.05	-0.083
378.26	-0.083
378.47	-0.083
378.67	-0.083
378.88	-0.083
379.09	-0.083
379.30	-0.083
379.50	-0.083
379.71	-0.083
379.92	-0.083
380.12	-0.083
380.33	-0.083
380.54	-0.083
380.75	-0.083
380.95	-0.083
381.16	-0.083
381.37	-0.083
381.57	-0.083
381.78	-0.083
381.99	-0.082
382.20	-0.082
382.40	-0.082
382.61	-0.082
382.82	-0.082
383.02	-0.083
383.23	-0.082
383.44	-0.083
383.64	-0.083
383.85	-0.083
384.06	-0.083
384.27	-0.083
384.47	-0.083
384.68	-0.083
384.89	-0.083
385.09	-0.083
385.30	-0.083
385.51	-0.083
385.71	-0.083
385.92	-0.083
386.13	-0.083
386.33	-0.083
386.54	-0.083
386.75	-0.083
386.95	-0.083
387.16	-0.083
387.37	-0.083
387.58	-0.083
387.78	-0.083
387.99	-0.083
388.20	-0.083
388.40	-0.083
388.61	-0.083
388.82	-0.083
389.02	-0.083
389.23	-0.083
389.44	-0.083
389.64	-0.083
389.85	-0.083
390.06	-0.083
390.26	-0.083
390.47	-0.083
390.68	-0.083
390.88	-0.083
391.09	-0.083
391.30	-0.083
391.50	-0.083
391.71	-0.082
391.92	-0.082
392.12	-0.082
392.33	-0.082
392.53	-0.082
392.74	-0.082
392.95	-0.082
393.15	-0.082
393.36	-0.082
393.57	-0.082
393.77	-0.082
393.98	-0.082
394.19	-0.082
394.39	-0.082
394.60	-0.082
394.81	-0.082
395.01	-0.082
395.22	-0.082
395.43	-0.082
395.63	-0.082
395.84	-0.082
396.04	-0.082
396.25	-0.082
396.46	-0.082
396.66	-0.082
396.87	-0.082
397.08	-0.082
397.28	-0.082
397.49	-0.082
397.69	-0.082
397.90	-0.082
398.11	-0.082
398.31	-0.082
398.52	-0.082
398.73	-0.082
398.93	-0.082
399.14	-0.082
399.34	-0.082
399.55	-0.082
399.76	-0.082
399.96	-0.082
400.17	-0.082
400.37	-0.082
400.58	-0.082
400.79	-0.082
400.99	-0.082
401.20	-0.082
401.41	-0.082
401.61	-0.082
401.82	-0.082
402.02	-0.082
402.23	-0.082
402.44	-0.082
402.64	-0.082
402.85	-0.082
403.05	-0.082
403.26	-0.082
403.47	-0.082
403.67	-0.082
403.88	-0.082
404.08	-0.082
404.29	-0.082
404.50	-0.082
404.70	-0.082
404.91	-0.082
405.11	-0.082
405.32	-0.082
405.52	-0.082
405.73	-0.081
405.94	-0.081
406.14	-0.081
406.35	-0.081
406.55	-0.081
406.76	-0.081
406.97	-0.081
407.17	-0.081
407.38	-0.081
407.58	-0.081
407.79	-0.081
407.99	-0.081
408.20	-0.081
408.41	-0.082
408.61	-0.082
408.82	-0.081
409.02	-0.082
409.23	-0.082
409.43	-0.082
409.64	-0.082
409.84	-0.082
410.05	-0.082
410.26	-0.082
410.46	-0.082
410.67	-0.082
410.87	-0.082
411.08	-0.082
411.28	-0.082
411.49	-0.082
411.69	-0.081
411.90	-0.081
412.11	-0.082
412.31	-0.081
412.52	-0.081
412.72	-0.081
412.93	-0.081
413.13	-0.081
413.34	-0.081
413.54	-0.081
413.75	-0.081
413.95	-0.081
414.16	-0.081
414.37	-0.081
414.57	-0.081
414.78	-0.081
414.98	-0.081
415.19	-0.081
415.39	-0.081
415.60	-0.081
415.80	-0.081
416.01	-0.081
416.21	-0.081
416.42	-0.081
416.62	-0.081
416.83	-0.081
417.03	-0.081
417.24	-0.081
417.44	-0.081
417.65	-0.081
417.86	-0.081
418.06	-0.081
418.27	-0.081
418.47	-0.081
418.68	-0.081
418.88	-0.081
419.09	-0.081
419.29	-0.081
419.50	-0.081
419.70	-0.081
419.91	-0.081
420.11	-0.081
420.32	-0.081
420.52	-0.081
420.73	-0.081
420.93	-0.081
421.14	-0.081
421.34	-0.081
421.55	-0.081
421.75	-0.081
421.96	-0.081
422.16	-0.081
422.37	-0.081
422.57	-0.081
422.78	-0.081
422.98	-0.081
423.19	-0.081
423.39	-0.081
423.60	-0.081
423.80	-0.081
424.01	-0.080
424.21	-0.081
424.42	-0.081
424.62	-0.081
424.83	-0.081
425.03	-0.081
425.23	-0.081
425.44	-0.081
425.64	-0.081
425.85	-0.081
426.05	-0.081
426.26	-0.081
426.46	-0.081
426.67	-0.081
426.87	-0.081
427.08	-0.081
427.28	-0.081
427.49	-0.080
427.69	-0.080
427.90	-0.080
428.10	-0.080
428.31	-0.080
428.51	-0.081
428.71	-0.081
428.92	-0.081
429.12	-0.080
429.33	-0.080
429.53	-0.080
429.74	-0.081
429.94	-0.081
430.15	-0.081
430.35	-0.081
430.56	-0.080
430.76	-0.080
430.96	-0.080
431.17	-0.080
431.37	-0.080
431.58	-0.080
431.78	-0.080
431.99	-0.080
432.19	-0.080
432.40	-0.081
432.60	-0.081
432.80	-0.081
433.01	-0.081
433.21	-0.081
433.42	-0.081
433.62	-0.081
433.83	-0.081
434.03	-0.081
434.23	-0.081
434.44	-0.081
434.64	-0.081
434.85	-0.081
435.05	-0.081
435.26	-0.080
435.46	-0.081
435.66	-0.081
435.87	-0.081
436.07	-0.081
436.28	-0.081
436.48	-0.080
436.69	-0.080
436.89	-0.081
437.09	-0.081
437.30	-0.080
437.50	-0.081
437.71	-0.080
437.91	-0.080
438.11	-0.081
438.32	-0.081
438.52	-0.081
438.73	-0.080
438.93	-0.080
439.13	-0.080
439.34	-0.080
439.54	-0.080
439.75	-0.080
439.95	-0.080
440.15	-0.080
440.36	-0.080
440.56	-0.080
440.77	-0.080
440.97	-0.080
441.17	-0.080
441.38	-0.080
441.58	-0.080
441.79	-0.080
441.99	-0.080
442.19	-0.080
442.40	-0.080
442.60	-0.080
442.81	-0.080
443.01	-0.080
443.21	-0.080
443.42	-0.080
443.62	-0.080
443.82	-0.080
444.03	-0.080
444.23	-0.080
444.44	-0.080
444.64	-0.080
444.84	-0.080
445.05	-0.080
445.25	-0.080
445.45	-0.080
445.66	-0.080
445.86	-0.080
446.06	-0.080
446.27	-0.080
446.47	-0.080
446.68	-0.080
446.88	-0.080
447.08	-0.080
447.29	-0.080
447.49	-0.080
447.69	-0.080
447.90	-0.080
448.10	-0.080
448.30	-0.080
448.51	-0.080
448.71	-0.080
448.91	-0.080
449.12	-0.080
449.32	-0.080
449.52	-0.080
449.73	-0.080
449.93	-0.080
450.14	-0.080
450.34	-0.080
450.54	-0.080
450.75	-0.080
450.95	-0.080
451.15	-0.080
451.36	-0.080
451.56	-0.080
451.76	-0.080
451.97	-0.080
452.17	-0.080
452.37	-0.080
452.58	-0.080
452.78	-0.080
452.98	-0.080
453.19	-0.080
453.39	-0.080
453.59	-0.080
453.79	-0.080
454.00	-0.080
454.20	-0.080
454.40	-0.080
454.61	-0.080
454.81	-0.080
455.01	-0.080
455.22	-0.080
455.42	-0.080
455.62	-0.080
455.83	-0.080
456.03	-0.080
456.23	-0.079
456.44	-0.080
456.64	-0.080
456.84	-0.080
457.04	-0.080
457.25	-0.080
457.45	-0.080
457.65	-0.080
457.86	-0.079
458.06	-0.080
458.26	-0.080
458.47	-0.080
458.67	-0.080
458.87	-0.080
459.07	-0.080
459.28	-0.080
459.48	-0.080
459.68	-0.080
459.89	-0.080
460.09	-0.080
460.29	-0.080
460.49	-0.080
460.70	-0.080
460.90	-0.080
461.10	-0.080
461.31	-0.080
461.51	-0.080
461.71	-0.080
461.91	-0.080
462.12	-0.080
462.32	-0.080
462.52	-0.080
462.72	-0.080
462.93	-0.080
463.13	-0.080
463.33	-0.080
463.53	-0.080
463.74	-0.080
463.94	-0.080
464.14	-0.080
464.35	-0.080
464.55	-0.080
464.75	-0.080
464.95	-0.080
465.16	-0.079
465.36	-0.079
465.56	-0.079
465.76	-0.079
465.97	-0.079
466.17	-0.079
466.37	-0.079
466.57	-0.079
466.78	-0.079
466.98	-0.080
467.18	-0.080
467.38	-0.080
467.59	-0.080
467.79	-0.080
467.99	-0.080
468.19	-0.080
468.39	-0.080
468.60	-0.080
468.80	-0.080
469.00	-0.080
469.20	-0.079
469.41	-0.079
469.61	-0.079
469.81	-0.079
470.01	-0.079
470.22	-0.080
470.42	-0.079
470.62	-0.079
470.82	-0.079
471.02	-0.079
471.23	-0.080
471.43	-0.080
471.63	-0.080
471.83	-0.080
472.04	-0.080
472.24	-0.080
472.44	-0.080
472.64	-0.080
472.84	-0.080
473.05	-0.080
473.25	-0.080
473.45	-0.079
473.65	-0.079
473.85	-0.079
474.06	-0.079
474.26	-0.079
474.46	-0.079
474.66	-0.079
474.86	-0.079
475.07	-0.079
475.27	-0.079
475.47	-0.079
475.67	-0.079
475.87	-0.079
476.08	-0.079
476.28	-0.079
476.48	-0.079
476.68	-0.079
476.88	-0.079
477.09	-0.079
477.29	-0.079
477.49	-0.079
477.69	-0.079
477.89	-0.079
478.09	-0.079
478.30	-0.079
478.50	-0.079
478.70	-0.079
478.90	-0.079
479.10	-0.079
479.31	-0.079
479.51	-0.079
479.71	-0.079
479.91	-0.079
480.11	-0.079
480.31	-0.079
480.52	-0.079
480.72	-0.079
480.92	-0.079
481.12	-0.079
481.32	-0.079
481.52	-0.079
481.72	-0.079
481.93	-0.079
482.13	-0.079
482.33	-0.079
482.53	-0.079
482.73	-0.079
482.93	-0.079
483.14	-0.079
483.34	-0.079
483.54	-0.079
483.74	-0.079
483.94	-0.079
484.14	-0.079
484.34	-0.079
484.55	-0.079
484.75	-0.079
484.95	-0.079
485.15	-0.079
485.35	-0.079
485.55	-0.079
485.75	-0.079
485.96	-0.079
486.16	-0.079
486.36	-0.079
486.56	-0.079
486.76	-0.079
486.96	-0.079
487.16	-0.079
487.36	-0.079
487.57	-0.079
487.77	-0.079
487.97	-0.079
488.17	-0.079
488.37	-0.080
488.57	-0.080
488.77	-0.079
488.97	-0.080
489.18	-0.079
489.38	-0.079
489.58	-0.079
489.78	-0.079
489.98	-0.079
490.18	-0.079
490.38	-0.079
490.58	-0.079
490.78	-0.079
490.98	-0.079
491.19	-0.079
491.39	-0.079
491.59	-0.079
491.79	-0.079
491.99	-0.079
492.19	-0.079
492.39	-0.079
492.59	-0.079
492.79	-0.079
492.99	-0.079
493.20	-0.079
493.40	-0.079
493.60	-0.079
493.80	-0.079
494.00	-0.079
494.20	-0.079
494.40	-0.079
494.60	-0.079
494.80	-0.079
495.00	-0.079
495.20	-0.079
495.40	-0.079
495.61	-0.079
495.81	-0.079
496.01	-0.079
496.21	-0.079
496.41	-0.079
496.61	-0.079
496.81	-0.079
497.01	-0.079
497.21	-0.079
497.41	-0.079
497.61	-0.080
497.81	-0.079
498.01	-0.080
498.21	-0.080
498.41	-0.080
498.61	-0.080
498.82	-0.080
499.02	-0.080
499.22	-0.080
499.42	-0.080
499.62	-0.080
499.82	-0.079
500.02	-0.079
500.22	-0.079
500.42	-0.079
500.62	-0.079
500.82	-0.079
501.02	-0.079
501.22	-0.079
501.42	-0.080
501.62	-0.080
501.82	-0.080
502.02	-0.080
502.22	-0.080
502.42	-0.080
502.62	-0.080
502.82	-0.080
503.02	-0.080
503.22	-0.080
503.42	-0.080
503.63	-0.080
503.83	-0.080
504.03	-0.080
504.23	-0.080
504.43	-0.080
504.63	-0.080
504.83	-0.080
505.03	-0.080
505.23	-0.080
505.43	-0.080
505.63	-0.080
505.83	-0.080
506.03	-0.080
506.23	-0.080
506.43	-0.080
506.63	-0.080
506.83	-0.080
507.03	-0.080
507.23	-0.080
507.43	-0.080
507.63	-0.080
507.83	-0.080
508.03	-0.080
508.23	-0.080
508.43	-0.080
508.63	-0.080
508.83	-0.080
509.03	-0.080
509.23	-0.080
509.43	-0.080
509.63	-0.080
509.83	-0.080
510.03	-0.080
510.23	-0.080
510.43	-0.080
510.63	-0.080
510.83	-0.080
511.03	-0.079
511.23	-0.079
511.43	-0.079
511.63	-0.079
511.83	-0.080
512.03	-0.080
512.22	-0.079
512.42	-0.080
512.62	-0.080
512.82	-0.080
513.02	-0.080
513.22	-0.080
513.42	-0.080
513.62	-0.080
513.82	-0.080
514.02	-0.080
514.22	-0.080
514.42	-0.080
514.62	-0.080
514.82	-0.080
515.02	-0.080
515.22	-0.080
515.42	-0.080
515.62	-0.080
515.82	-0.080
516.02	-0.080
516.22	-0.080
516.42	-0.080
516.62	-0.079
516.82	-0.080
517.01	-0.080
517.21	-0.079
517.41	-0.080
517.61	-0.080
517.81	-0.080
518.01	-0.080
518.21	-0.080
518.41	-0.080
518.61	-0.080
518.81	-0.080
519.01	-0.080
519.21	-0.080
519.41	-0.080
519.61	-0.080
519.81	-0.080
520.00	-0.080
520.20	-0.080
520.40	-0.080
520.60	-0.079
520.80	-0.079
521.00	-0.079
521.20	-0.080
521.40	-0.080
521.60	-0.080
521.80	-0.080
522.00	-0.080
522.20	-0.080
522.39	-0.080
522.59	-0.080
522.79	-0.080
522.99	-0.080
523.19	-0.080
523.39	-0.080
523.59	-0.080
523.79	-0.080
523.99	-0.080
524.19	-0.080
524.38	-0.080
524.58	-0.080
524.78	-0.080
524.98	-0.080
525.18	-0.080
525.38	-0.080
525.58	-0.080
525.78	-0.080
525.98	-0.080
526.18	-0.080
526.37	-0.080
526.57	-0.080
526.77	-0.080
526.97	-0.080
527.17	-0.080
527.37	-0.080
527.57	-0.080
527.77	-0.080
527.96	-0.080
528.16	-0.080
528.36	-0.080
528.56	-0.080
528.76	-0.080
528.96	-0.080
529.16	-0.080
529.36	-0.080
529.55	-0.080
529.75	-0.080
529.95	-0.080
530.15	-0.080
530.35	-0.079
530.55	-0.080
530.75	-0.080
530.94	-0.080
531.14	-0.080
531.34	-0.080
531.54	-0.080
531.74	-0.080
531.94	-0.080
532.13	-0.080
532.33	-0.080
532.53	-0.080
532.73	-0.080
532.93	-0.080
533.13	-0.080
533.33	-0.080
533.52	-0.080
533.72	-0.080
533.92	-0.080
534.12	-0.080
534.32	-0.080
534.52	-0.080
534.71	-0.080
534.91	-0.080
535.11	-0.080
535.31	-0.080
535.51	-0.080
535.71	-0.080
535.90	-0.080
536.10	-0.080
536.30	-0.080
536.50	-0.080
536.70	-0.080
536.89	-0.080
537.09	-0.080
537.29	-0.080
537.49	-0.080
537.69	-0.080
537.89	-0.080
538.08	-0.080
538.28	-0.080
538.48	-0.080
538.68	-0.080
538.88	-0.080
539.07	-0.080
539.27	-0.080
539.47	-0.080
539.67	-0.081
539.87	-0.080
540.06	-0.081
540.26	-0.080
540.46	-0.080
540.66	-0.080
540.86	-0.080
541.05	-0.080
541.25	-0.080
541.45	-0.080
541.65	-0.080
541.84	-0.080
542.04	-0.080
542.24	-0.080
542.44	-0.080
542.64	-0.080
542.83	-0.080
543.03	-0.080
543.23	-0.080
543.43	-0.080
543.62	-0.080
543.82	-0.080
544.02	-0.080
544.22	-0.080
544.42	-0.080
544.61	-0.080
544.81	-0.080
545.01	-0.080
545.21	-0.080
545.40	-0.080
545.60	-0.080
545.80	-0.080
546.00	-0.080
546.19	-0.081
546.39	-0.081
546.59	-0.081
546.79	-0.080
546.98	-0.081
547.18	-0.081
547.38	-0.081
547.58	-0.081
547.77	-0.081
547.97	-0.081
548.17	-0.081
548.37	-0.080
548.56	-0.080
548.76	-0.080
548.96	-0.080
549.16	-0.080
549.35	-0.080
549.55	-0.080
549.75	-0.080
549.95	-0.080
550.14	-0.080
550.34	-0.080
550.54	-0.080
550.73	-0.080
550.93	-0.080
551.13	-0.080
551.33	-0.080
551.52	-0.080
551.72	-0.080
551.92	-0.080
552.12	-0.080
552.31	-0.080
552.51	-0.080
552.71	-0.080
552.90	-0.080
553.10	-0.081
553.30	-0.081
553.50	-0.081
553.69	-0.081
553.89	-0.080
554.09	-0.081
554.28	-0.081
554.48	-0.081
554.68	-0.081
554.87	-0.081
555.07	-0.081
555.27	-0.081
555.47	-0.081
555.66	-0.081
555.86	-0.081
556.06	-0.081
556.25	-0.081
556.45	-0.081
556.65	-0.082
556.84	-0.081
557.04	-0.081
557.24	-0.081
557.43	-0.081
557.63	-0.081
557.83	-0.081
558.02	-0.081
558.22	-0.081
558.42	-0.081
558.61	-0.081
558.81	-0.081
559.01	-0.081
559.21	-0.081
559.40	-0.080
559.60	-0.080
559.80	-0.080
559.99	-0.080
560.19	-0.080
560.39	-0.080
560.58	-0.081
560.78	-0.080
560.97	-0.081
561.17	-0.081
561.37	-0.081
561.56	-0.081
561.76	-0.081
561.96	-0.081
562.15	-0.081
562.35	-0.081
562.55	-0.081
562.74	-0.081
562.94	-0.081
563.14	-0.081
563.33	-0.081
563.53	-0.081
563.73	-0.081
563.92	-0.081
564.12	-0.081
564.31	-0.081
564.51	-0.081
564.71	-0.081
564.90	-0.081
565.10	-0.081
565.30	-0.081
565.49	-0.081
565.69	-0.081
565.89	-0.081
566.08	-0.081
566.28	-0.082
566.47	-0.081
566.67	-0.081
566.87	-0.081
567.06	-0.081
567.26	-0.081
567.46	-0.081
567.65	-0.081
567.85	-0.081
568.04	-0.081
568.24	-0.081
568.44	-0.081
568.63	-0.081
568.83	-0.080
569.02	-0.080
569.22	-0.080
569.42	-0.080
569.61	-0.080
569.81	-0.080
570.00	-0.080
570.20	-0.080
570.40	-0.080
570.59	-0.080
570.79	-0.081
570.98	-0.080
571.18	-0.081
571.38	-0.081
571.57	-0.081
571.77	-0.081
571.96	-0.081
572.16	-0.081
572.35	-0.081
572.55	-0.081
572.75	-0.080
572.94	-0.080
573.14	-0.080
573.33	-0.080
573.53	-0.080
573.73	-0.080
573.92	-0.080
574.12	-0.080
574.31	-0.080
574.51	-0.080
574.70	-0.079
574.90	-0.079
575.09	-0.079
575.29	-0.079
575.49	-0.078
575.68	-0.078
575.88	-0.077
576.07	-0.077
576.27	-0.076
576.46	-0.076
576.66	-0.076
576.86	-0.075
577.05	-0.075
577.25	-0.074
577.44	-0.074
577.64	-0.074
577.83	-0.074
578.03	-0.074
578.22	-0.073
578.42	-0.072
578.61	-0.070
578.81	-0.069
579.00	-0.067
579.20	-0.066
579.40	-0.065
579.59	-0.064
579.79	-0.063
579.98	-0.062
580.18	-0.061
580.37	-0.061
580.57	-0.061
580.76	-0.062
580.96	-0.062
581.15	-0.063
581.35	-0.064
581.54	-0.065
581.74	-0.065
581.93	-0.066
582.13	-0.066
582.32	-0.066
582.52	-0.067
582.71	-0.067
582.91	-0.068
583.10	-0.068
583.30	-0.069
583.49	-0.070
583.69	-0.071
583.88	-0.072
584.08	-0.073
584.27	-0.075
584.47	-0.076
584.66	-0.077
584.86	-0.078
585.05	-0.078
585.25	-0.078
585.44	-0.078
585.64	-0.078
585.83	-0.078
586.03	-0.078
586.22	-0.078
586.42	-0.078
586.61	-0.078
586.81	-0.078
587.00	-0.079
587.20	-0.079
587.39	-0.079
587.59	-0.080
587.78	-0.080
587.98	-0.081
588.17	-0.081
588.37	-0.081
588.56	-0.081
588.76	-0.082
588.95	-0.082
589.15	-0.082
589.34	-0.082
589.54	-0.082
589.73	-0.082
589.92	-0.082
590.12	-0.082
590.31	-0.082
590.51	-0.081
590.70	-0.081
590.90	-0.081
591.09	-0.081
591.29	-0.081
591.48	-0.081
591.68	-0.081
591.87	-0.081
592.06	-0.081
592.26	-0.081
592.45	-0.081
592.65	-0.082
592.84	-0.082
593.04	-0.082
593.23	-0.082
593.43	-0.082
593.62	-0.082
593.81	-0.082
594.01	-0.082
594.20	-0.082
594.40	-0.082
594.59	-0.082
594.79	-0.082
594.98	-0.082
595.17	-0.082
595.37	-0.082
595.56	-0.081
595.76	-0.081
595.95	-0.081
596.14	-0.081
596.34	-0.081
596.53	-0.081
596.73	-0.081
596.92	-0.081
597.12	-0.081
597.31	-0.081
597.50	-0.081
597.70	-0.081
597.89	-0.081
598.09	-0.081
598.28	-0.081
598.47	-0.081
598.67	-0.081
598.86	-0.081
599.06	-0.081
599.25	-0.081
599.44	-0.081
599.64	-0.081
599.83	-0.081
600.03	-0.082
600.22	-0.082
600.41	-0.082
600.61	-0.082
600.80	-0.082
601.00	-0.082
601.19	-0.082
601.38	-0.082
601.58	-0.082
601.77	-0.082
601.96	-0.082
602.16	-0.082
602.35	-0.082
602.55	-0.082
602.74	-0.082
602.93	-0.082
603.13	-0.082
603.32	-0.082
603.51	-0.082
603.71	-0.082
603.90	-0.082
604.09	-0.082
604.29	-0.082
604.48	-0.082
604.68	-0.082
604.87	-0.082
605.06	-0.081
605.26	-0.082
605.45	-0.081
605.64	-0.082
605.84	-0.082
606.03	-0.082
606.22	-0.082
606.42	-0.082
606.61	-0.082
606.80	-0.082
607.00	-0.082
607.19	-0.082
607.38	-0.082
607.58	-0.082
607.77	-0.082
607.96	-0.082
608.16	-0.082
608.35	-0.082
608.54	-0.082
608.74	-0.082
608.93	-0.082
609.12	-0.082
609.32	-0.082
609.51	-0.083
609.70	-0.082
609.90	-0.082
610.09	-0.083
610.28	-0.083
610.48	-0.083
610.67	-0.083
610.86	-0.083
611.06	-0.083
611.25	-0.082
611.44	-0.082
611.64	-0.082
611.83	-0.082
612.02	-0.082
612.21	-0.082
612.41	-0.082
612.60	-0.082
612.79	-0.082
612.99	-0.082
613.18	-0.082
613.37	-0.082
613.57	-0.082
613.76	-0.082
613.95	-0.082
614.14	-0.082
614.34	-0.082
614.53	-0.082
614.72	-0.082
614.92	-0.082
615.11	-0.082
615.30	-0.082
615.49	-0.082
615.69	-0.082
615.88	-0.082
616.07	-0.082
616.26	-0.083
616.46	-0.083
616.65	-0.083
616.84	-0.083
617.04	-0.083
617.23	-0.083
617.42	-0.083
617.61	-0.083
617.81	-0.083
618.00	-0.083
618.19	-0.084
618.38	-0.084
618.58	-0.084
618.77	-0.084
618.96	-0.084
619.15	-0.084
619.35	-0.084
619.54	-0.084
619.73	-0.084
619.92	-0.084
620.12	-0.084
620.31	-0.084
620.50	-0.084
620.69	-0.084
620.89	-0.084
621.08	-0.083
621.27	-0.083
621.46	-0.083
621.66	-0.083
621.85	-0.083
622.04	-0.083
622.23	-0.083
622.43	-0.083
622.62	-0.083
622.81	-0.083
623.00	-0.083
623.19	-0.083
623.39	-0.083
623.58	-0.083
623.77	-0.083
623.96	-0.083
624.16	-0.083
624.35	-0.083
624.54	-0.084
624.73	-0.084
624.92	-0.084
625.12	-0.084
625.31	-0.084
625.50	-0.084
625.69	-0.084
625.88	-0.084
626.08	-0.084
626.27	-0.084
626.46	-0.084
626.65	-0.084
626.84	-0.084
627.04	-0.084
627.23	-0.084
627.42	-0.084
627.61	-0.084
627.80	-0.084
628.00	-0.084
628.19	-0.084
628.38	-0.084
628.57	-0.084
628.76	-0.085
628.96	-0.085
629.15	-0.085
629.34	-0.085
629.53	-0.085
629.72	-0.085
629.91	-0.085
630.11	-0.085
630.30	-0.085
630.49	-0.085
630.68	-0.085
630.87	-0.085
631.06	-0.085
631.26	-0.085
631.45	-0.085
631.64	-0.085
631.83	-0.085
632.02	-0.085
632.21	-0.085
632.41	-0.085
632.60	-0.085
632.79	-0.085
632.98	-0.086
633.17	-0.086
633.36	-0.086
633.55	-0.086
633.75	-0.086
633.94	-0.086
634.13	-0.086
634.32	-0.086
634.51	-0.086
634.70	-0.086
634.89	-0.086
635.09	-0.085
635.28	-0.085
635.47	-0.085
635.66	-0.085
635.85	-0.085
636.04	-0.085
636.23	-0.085
636.43	-0.086
636.62	-0.086
636.81	-0.086
637.00	-0.086
637.19	-0.086
637.38	-0.086
637.57	-0.086
637.76	-0.086
637.95	-0.086
638.15	-0.086
638.34	-0.086
638.53	-0.086
638.72	-0.086
638.91	-0.087
639.10	-0.086
639.29	-0.086
639.48	-0.086
639.67	-0.086
639.87	-0.087
640.06	-0.086
640.25	-0.086
640.44	-0.086
640.63	-0.087
640.82	-0.087
641.01	-0.087
641.20	-0.087
641.39	-0.087
641.58	-0.087
641.78	-0.087
641.97	-0.087
642.16	-0.087
642.35	-0.087
642.54	-0.087
642.73	-0.087
642.92	-0.087
643.11	-0.086
643.30	-0.087
643.49	-0.087
643.68	-0.087
643.87	-0.087
644.06	-0.087
644.25	-0.087
644.45	-0.087
644.64	-0.087
644.83	-0.087
645.02	-0.087
645.21	-0.087
645.40	-0.087
645.59	-0.087
645.78	-0.087
645.97	-0.087
646.16	-0.087
646.35	-0.087
646.54	-0.087
646.73	-0.087
646.92	-0.087
647.11	-0.087
647.30	-0.087
647.49	-0.087
647.68	-0.087
647.88	-0.087
648.07	-0.087
648.26	-0.087
648.45	-0.086
648.64	-0.086
648.83	-0.087
649.02	-0.086
649.21	-0.086
649.40	-0.086
649.59	-0.086
649.78	-0.086
649.97	-0.086
650.16	-0.086
650.35	-0.086
650.54	-0.086
650.73	-0.086
650.92	-0.086
651.11	-0.086
651.30	-0.086
651.49	-0.086
651.68	-0.086
651.87	-0.086
652.06	-0.086
652.25	-0.086
652.44	-0.086
652.63	-0.086
652.82	-0.085
653.01	-0.085
653.20	-0.085
653.39	-0.084
653.58	-0.084
653.77	-0.084
653.96	-0.083
654.15	-0.083
654.34	-0.083
654.53	-0.083
654.72	-0.083
654.91	-0.083
655.10	-0.083
655.29	-0.083
655.48	-0.083
655.67	-0.083
655.86	-0.083
656.05	-0.083
656.24	-0.083
656.43	-0.083
656.62	-0.083
656.81	-0.083
657.00	-0.083
657.19	-0.084
657.38	-0.084
657.57	-0.084
657.76	-0.084
657.95	-0.084
658.14	-0.085
658.33	-0.085
658.51	-0.085
658.70	-0.086
658.89	-0.086
659.08	-0.086
659.27	-0.086
659.46	-0.087
659.65	-0.087
659.84	-0.087
660.03	-0.087
660.22	-0.087
660.41	-0.087
660.60	-0.087
660.79	-0.087
660.98	-0.087
661.17	-0.087
661.36	-0.087
661.55	-0.087
661.74	-0.087
661.92	-0.087
662.11	-0.087
662.30	-0.087
662.49	-0.087
662.68	-0.087
662.87	-0.087
663.06	-0.087
663.25	-0.087
663.44	-0.087
663.63	-0.087
663.82	-0.087
664.01	-0.087
664.20	-0.087
664.38	-0.087
664.57	-0.087
664.76	-0.087
664.95	-0.087
665.14	-0.087
665.33	-0.087
665.52	-0.087
665.71	-0.087
665.90	-0.088
666.09	-0.088
666.28	-0.088
666.46	-0.088
666.65	-0.088
666.84	-0.088
667.03	-0.088
667.22	-0.088
667.41	-0.088
667.60	-0.088
667.79	-0.088
667.98	-0.088
668.16	-0.087
668.35	-0.087
668.54	-0.087
668.73	-0.087
668.92	-0.087
669.11	-0.087
669.30	-0.087
669.49	-0.087
669.67	-0.087
669.86	-0.087
670.05	-0.087
670.24	-0.087
670.43	-0.087
670.62	-0.087
670.81	-0.087
671.00	-0.087
671.18	-0.087
671.37	-0.087
671.56	-0.087
671.75	-0.087
671.94	-0.087
672.13	-0.087
672.32	-0.087
672.50	-0.087
672.69	-0.087
672.88	-0.087
673.07	-0.087
673.26	-0.087
673.45	-0.087
673.63	-0.087
673.82	-0.087
674.01	-0.087
674.20	-0.087
674.39	-0.087
674.58	-0.087
674.76	-0.087
674.95	-0.087
675.14	-0.087
675.33	-0.087
675.52	-0.087
675.71	-0.087
675.89	-0.087
676.08	-0.087
676.27	-0.087
676.46	-0.087
676.65	-0.087
676.84	-0.087
677.02	-0.087
677.21	-0.087
677.40	-0.087
677.59	-0.087
677.78	-0.087
677.96	-0.087
678.15	-0.087
678.34	-0.087
678.53	-0.087
678.72	-0.087
678.90	-0.087
679.09	-0.087
679.28	-0.086
679.47	-0.086
679.66	-0.086
679.84	-0.086
680.03	-0.086
680.22	-0.086
680.41	-0.086
680.60	-0.086
680.78	-0.086
680.97	-0.086
681.16	-0.086
681.35	-0.087
681.53	-0.087
681.72	-0.087
681.91	-0.087
682.10	-0.087
682.29	-0.087
682.47	-0.087
682.66	-0.087
682.85	-0.087
683.04	-0.087
683.22	-0.087
683.41	-0.087
683.60	-0.086
683.79	-0.086
683.97	-0.086
684.16	-0.086
684.35	-0.086
684.54	-0.086
684.72	-0.086
684.91	-0.086
685.10	-0.086
685.29	-0.086
685.47	-0.086
685.66	-0.086
685.85	-0.086
686.04	-0.086
686.22	-0.086
686.41	-0.086
686.60	-0.086
686.79	-0.086
686.97	-0.086
687.16	-0.086
687.35	-0.086
687.54	-0.086
687.72	-0.086
687.91	-0.086
688.10	-0.086
688.29	-0.086
688.47	-0.086
688.66	-0.086
688.85	-0.086
689.03	-0.086
689.22	-0.087
689.41	-0.087
689.60	-0.087
689.78	-0.087
689.97	-0.087
690.16	-0.087
690.34	-0.087
690.53	-0.087
690.72	-0.087
690.91	-0.087
691.09	-0.087
691.28	-0.087
691.47	-0.087
691.65	-0.087
691.84	-0.087
692.03	-0.087
692.21	-0.087
692.40	-0.087
692.59	-0.087
692.77	-0.087
692.96	-0.087
693.15	-0.087
693.34	-0.087
693.52	-0.087
693.71	-0.087
693.90	-0.087
694.08	-0.087
694.27	-0.087
694.46	-0.087
694.64	-0.087
694.83	-0.087
695.02	-0.086
695.20	-0.086
695.39	-0.086
695.58	-0.086
695.76	-0.086
695.95	-0.086
696.14	-0.087
696.32	-0.087
696.51	-0.087
696.70	-0.087
696.88	-0.087
697.07	-0.087
697.26	-0.087
697.44	-0.087
697.63	-0.087
697.81	-0.087
698.00	-0.087
698.19	-0.087
698.37	-0.087
698.56	-0.087
698.75	-0.087
698.93	-0.087
699.12	-0.087
699.31	-0.087
699.49	-0.087
699.68	-0.087
699.87	-0.087
700.05	-0.087
700.24	-0.087
700.42	-0.087
700.61	-0.087
700.80	-0.088
700.98	-0.088
701.17	-0.088
701.36	-0.088
701.54	-0.087
701.73	-0.087
701.91	-0.087
702.10	-0.087
702.29	-0.087
702.47	-0.087
702.66	-0.087
702.84	-0.087
703.03	-0.087
703.22	-0.087
703.40	-0.087
703.59	-0.087
703.77	-0.087
703.96	-0.087
704.15	-0.087
704.33	-0.087
704.52	-0.087
704.70	-0.087
704.89	-0.087
705.08	-0.087
705.26	-0.087
705.45	-0.087
705.63	-0.087
705.82	-0.087
706.00	-0.087
706.19	-0.087
706.38	-0.087
706.56	-0.087
706.75	-0.087
706.93	-0.086
707.12	-0.086
707.30	-0.086
707.49	-0.086
707.68	-0.086
707.86	-0.086
708.05	-0.086
708.23	-0.087
708.42	-0.087
708.60	-0.087
708.79	-0.086
708.98	-0.087
709.16	-0.087
709.35	-0.087
709.53	-0.087
709.72	-0.087
709.90	-0.087
710.09	-0.087
710.27	-0.087
710.46	-0.087
710.64	-0.088
710.83	-0.088
711.02	-0.088
711.20	-0.088
711.39	-0.088
711.57	-0.088
711.76	-0.088
711.94	-0.087
712.13	-0.087
712.31	-0.087
712.50	-0.087
712.68	-0.087
712.87	-0.087
713.05	-0.087
713.24	-0.087
713.42	-0.087
713.61	-0.087
713.79	-0.087
713.98	-0.087
714.16	-0.087
714.35	-0.087
714.54	-0.087
714.72	-0.087
714.91	-0.087
715.09	-0.087
715.28	-0.087
715.46	-0.087
715.65	-0.087
715.83	-0.087
716.02	-0.087
716.20	-0.088
716.39	-0.088
716.57	-0.087
716.76	-0.088
716.94	-0.088
717.12	-0.088
717.31	-0.088
717.49	-0.088
717.68	-0.088
717.86	-0.088
718.05	-0.088
718.23	-0.087
718.42	-0.087
718.60	-0.087
718.79	-0.087
718.97	-0.087
719.16	-0.087
719.34	-0.087
719.53	-0.087
719.71	-0.087
719.90	-0.087
720.08	-0.087
720.27	-0.087
720.45	-0.088
720.63	-0.088
720.82	-0.088
721.00	-0.088
721.19	-0.088
721.37	-0.088
721.56	-0.088
721.74	-0.088
721.93	-0.088
722.11	-0.088
722.30	-0.088
722.48	-0.088
722.66	-0.087
722.85	-0.088
723.03	-0.088
723.22	-0.088
723.40	-0.088
723.59	-0.088
723.77	-0.088
723.95	-0.088
724.14	-0.088
724.32	-0.088
724.51	-0.088
724.69	-0.088
724.88	-0.088
725.06	-0.088
725.24	-0.088
725.43	-0.087
725.61	-0.087
725.80	-0.087
725.98	-0.086
726.16	-0.086
726.35	-0.086
726.53	-0.087
726.72	-0.086
726.90	-0.086
727.09	-0.086
727.27	-0.086
727.45	-0.087
727.64	-0.087
727.82	-0.088
728.01	-0.088
728.19	-0.088
728.37	-0.088
728.56	-0.088
728.74	-0.088
728.92	-0.088
729.11	-0.089
729.29	-0.088
729.48	-0.089
729.66	-0.088
729.84	-0.088
730.03	-0.088
730.21	-0.087
730.40	-0.087
730.58	-0.087
730.76	-0.087
730.95	-0.087
731.13	-0.087
731.31	-0.087
731.50	-0.086
731.68	-0.086
731.86	-0.086
732.05	-0.087
732.23	-0.087
732.42	-0.087
732.60	-0.088
732.78	-0.088
732.97	-0.087
733.15	-0.087
733.33	-0.087
733.52	-0.087
733.70	-0.087
733.88	-0.087
734.07	-0.087
734.25	-0.087
734.43	-0.087
734.62	-0.087
734.80	-0.087
734.98	-0.088
735.17	-0.088
735.35	-0.088
735.53	-0.088
735.72	-0.088
735.90	-0.087
736.08	-0.086
736.27	-0.086
736.45	-0.086
736.63	-0.087
736.82	-0.086
737.00	-0.086
737.18	-0.086
737.37	-0.086
737.55	-0.085
737.73	-0.085
737.92	-0.086
738.10	-0.086
738.28	-0.085
738.46	-0.085
738.65	-0.085
738.83	-0.085
739.01	-0.085
739.20	-0.085
739.38	-0.085
739.56	-0.085
739.75	-0.085
739.93	-0.086
740.11	-0.086
740.29	-0.087
740.48	-0.087
740.66	-0.087
740.84	-0.087
741.03	-0.087
741.21	-0.086
741.39	-0.086
741.57	-0.086
741.76	-0.087
741.94	-0.087
742.12	-0.086
742.31	-0.086
742.49	-0.086
742.67	-0.087
742.85	-0.088
743.04	-0.088
743.22	-0.087
743.40	-0.088
743.58	-0.088
743.77	-0.088
743.95	-0.087
744.13	-0.087
744.31	-0.087
744.50	-0.087
744.68	-0.087
744.86	-0.087
745.04	-0.088
745.23	-0.089
745.41	-0.088
745.59	-0.089
745.77	-0.088
745.96	-0.089
746.14	-0.089
746.32	-0.088
746.50	-0.088
746.69	-0.088
746.87	-0.088
747.05	-0.088
747.23	-0.087
747.42	-0.088
747.60	-0.088
747.78	-0.089
747.96	-0.089
748.14	-0.090
748.33	-0.090
748.51	-0.090
748.69	-0.090
748.87	-0.089
749.06	-0.089
749.24	-0.090
749.42	-0.089
749.60	-0.089
749.78	-0.088
749.97	-0.087
750.15	-0.087
750.33	-0.087
750.51	-0.088
750.69	-0.088
750.88	-0.088
751.06	-0.088
751.24	-0.088
751.42	-0.088
751.60	-0.088
751.79	-0.089
751.97	-0.089
752.15	-0.089
752.33	-0.089
752.51	-0.088
752.69	-0.087
752.88	-0.087
753.06	-0.088
753.24	-0.088
753.42	-0.088
753.60	-0.087
753.78	-0.086
753.97	-0.086
754.15	-0.087
754.33	-0.087
754.51	-0.086
754.69	-0.087
754.87	-0.087
755.06	-0.087
755.24	-0.086
755.42	-0.086
755.60	-0.087
755.78	-0.086
755.96	-0.087
756.15	-0.086
756.33	-0.086
756.51	-0.086
756.69	-0.086
756.87	-0.085
757.05	-0.085
757.23	-0.085
757.42	-0.085
757.60	-0.084
757.78	-0.085
757.96	-0.085
758.14	-0.085
758.32	-0.086
758.50	-0.086
758.69	-0.086
758.87	-0.087
759.05	-0.087
759.23	-0.087
759.41	-0.088
759.59	-0.088
759.77	-0.088
759.95	-0.089
760.13	-0.089
760.32	-0.088
760.50	-0.088
760.68	-0.087
760.86	-0.087
761.04	-0.086
761.22	-0.086
761.40	-0.085
761.58	-0.085
761.76	-0.085
761.95	-0.085
762.13	-0.084
762.31	-0.085
762.49	-0.085
762.67	-0.085
762.85	-0.085
763.03	-0.085
763.21	-0.085
763.39	-0.085
763.57	-0.085
763.75	-0.084
763.94	-0.085
764.12	-0.086
764.30	-0.086
764.48	-0.086
764.66	-0.086
764.84	-0.086
765.02	-0.086
765.20	-0.087
765.38	-0.088
765.56	-0.088
765.74	-0.088
765.92	-0.087
766.10	-0.086
766.28	-0.087
766.46	-0.087
766.65	-0.088
766.83	-0.088
767.01	-0.088
767.19	-0.087
767.37	-0.087
767.55	-0.088
767.73	-0.088
767.91	-0.089
768.09	-0.088
768.27	-0.088
768.45	-0.088
768.63	-0.088
768.81	-0.088
768.99	-0.089
769.17	-0.089
769.35	-0.089
769.53	-0.088
769.71	-0.089
769.89	-0.088
770.07	-0.088
770.25	-0.088
770.43	-0.088
770.61	-0.088
770.79	-0.087
770.97	-0.088
771.15	-0.088
771.33	-0.088
771.51	-0.088
771.69	-0.088
771.87	-0.088
772.05	-0.088
772.24	-0.088
772.42	-0.089
772.60	-0.089
772.78	-0.090
772.96	-0.089
773.14	-0.089
773.32	-0.089
773.49	-0.090
773.67	-0.089
773.85	-0.090
774.03	-0.089
774.21	-0.089
774.39	-0.088
774.57	-0.089
774.75	-0.088
774.93	-0.089
775.11	-0.088
775.29	-0.089
775.47	-0.089
775.65	-0.089
775.83	-0.089
776.01	-0.089
776.19	-0.089
776.37	-0.089
776.55	-0.089
776.73	-0.089
776.91	-0.089
777.09	-0.089
777.27	-0.089
777.45	-0.088
777.63	-0.088
777.81	-0.087
777.99	-0.087
778.17	-0.087
778.35	-0.087
778.53	-0.086
778.71	-0.086
778.89	-0.087
779.07	-0.086
779.24	-0.087
779.42	-0.087
779.60	-0.087
779.78	-0.087
779.96	-0.087
780.14	-0.088
780.32	-0.088
780.50	-0.088
780.68	-0.088
780.86	-0.088
781.04	-0.088
781.22	-0.088
781.40	-0.088
781.58	-0.087
781.75	-0.088
781.93	-0.087
782.11	-0.087
782.29	-0.088
782.47	-0.088
782.65	-0.087
782.83	-0.087
783.01	-0.087
783.19	-0.087
783.37	-0.087
783.55	-0.087
783.72	-0.087
783.90	-0.087
784.08	-0.087
784.26	-0.088
784.44	-0.088
784.62	-0.088
784.80	-0.088
784.98	-0.088
785.16	-0.089
785.33	-0.089
785.51	-0.089
785.69	-0.089
785.87	-0.089
786.05	-0.089
786.23	-0.088
786.41	-0.088
786.59	-0.087
786.77	-0.088
786.94	-0.088
787.12	-0.088
787.30	-0.087
787.48	-0.086
787.66	-0.087
787.84	-0.086
788.02	-0.087
788.19	-0.087
788.37	-0.087
788.55	-0.087
788.73	-0.087
788.91	-0.087
789.09	-0.087
789.27	-0.088
789.44	-0.089
789.62	-0.089
789.80	-0.089
789.98	-0.089
790.16	-0.089
790.34	-0.089
790.51	-0.089
790.69	-0.089
790.87	-0.089
791.05	-0.089
791.23	-0.088
791.41	-0.088
791.58	-0.088
791.76	-0.088
791.94	-0.088
792.12	-0.088
792.30	-0.088
792.48	-0.088
792.65	-0.088
792.83	-0.088
793.01	-0.087
793.19	-0.087
793.37	-0.088
793.54	-0.088
793.72	-0.087
793.90	-0.088
794.08	-0.088
794.26	-0.088
794.43	-0.088
794.61	-0.088
794.79	-0.088
794.97	-0.088
795.15	-0.089
795.32	-0.088
795.50	-0.088
795.68	-0.089
795.86	-0.089
796.04	-0.089
796.21	-0.089
796.39	-0.089
796.57	-0.088
796.75	-0.088
796.92	-0.089
797.10	-0.089
797.28	-0.089
797.46	-0.089
797.64	-0.088
797.81	-0.088
797.99	-0.089
798.17	-0.088
798.35	-0.088
798.52	-0.088
798.70	-0.089
798.88	-0.089
799.06	-0.089
799.23	-0.090
799.41	-0.089
799.59	-0.089
799.77	-0.090
799.94	-0.090
800.12	-0.090
800.30	-0.090
800.48	-0.091
800.65	-0.091
800.83	-0.091
801.01	-0.091
801.19	-0.090
801.36	-0.091
801.54	-0.091
801.72	-0.090
801.90	-0.090
802.07	-0.090
802.25	-0.090
802.43	-0.090
802.60	-0.090
802.78	-0.089
802.96	-0.089
803.14	-0.089
803.31	-0.089
803.49	-0.089
803.67	-0.089
803.84	-0.089
804.02	-0.089
804.20	-0.089
804.38	-0.089
804.55	-0.089
804.73	-0.089
804.91	-0.089
805.08	-0.090
805.26	-0.089
805.44	-0.089
805.61	-0.089
805.79	-0.089
805.97	-0.090
806.15	-0.090
806.32	-0.090
806.50	-0.091
806.68	-0.091
806.85	-0.091
807.03	-0.090
807.21	-0.091
807.38	-0.090
807.56	-0.091
807.74	-0.090
807.91	-0.089
808.09	-0.089
808.27	-0.089
808.44	-0.089
808.62	-0.088
808.80	-0.089
808.97	-0.088
809.15	-0.089
809.33	-0.089
809.50	-0.088
809.68	-0.089
809.86	-0.090
810.03	-0.090
810.21	-0.090
810.39	-0.090
810.56	-0.089
810.74	-0.090
810.91	-0.090
811.09	-0.089
811.27	-0.090
811.44	-0.090
811.62	-0.090
811.80	-0.089
811.97	-0.088
812.15	-0.088
812.33	-0.088
812.50	-0.088
812.68	-0.088
812.85	-0.088
813.03	-0.088
813.21	-0.088
813.38	-0.087
813.56	-0.087
813.74	-0.087
813.91	-0.087
814.09	-0.087
814.26	-0.087
814.44	-0.087
814.62	-0.087
814.79	-0.088
814.97	-0.087
815.14	-0.087
815.32	-0.087
815.50	-0.088
815.67	-0.087
815.85	-0.088
816.02	-0.088
816.20	-0.088
816.38	-0.088
816.55	-0.088
816.73	-0.088
816.90	-0.088
817.08	-0.089
817.26	-0.089
817.43	-0.089
817.61	-0.089
817.78	-0.089
817.96	-0.089
818.13	-0.089
818.31	-0.089
818.49	-0.089
818.66	-0.089
818.84	-0.089
819.01	-0.089
819.19	-0.089
819.36	-0.089
819.54	-0.089
819.71	-0.088
819.89	-0.088
820.07	-0.087
820.24	-0.087
820.42	-0.088
820.59	-0.087
820.77	-0.087
820.94	-0.086
821.12	-0.087
821.29	-0.087
821.47	-0.088
821.64	-0.088
821.82	-0.089
822.00	-0.089
822.17	-0.090
822.35	-0.090
822.52	-0.090
822.70	-0.091
822.87	-0.090
823.05	-0.090
823.22	-0.090
823.40	-0.090
823.57	-0.089
823.75	-0.089
823.92	-0.088
824.10	-0.088
824.27	-0.087
824.45	-0.087
824.62	-0.087
824.80	-0.087
824.97	-0.088
825.15	-0.087
825.32	-0.086
825.50	-0.087
825.67	-0.087
825.85	-0.087
826.02	-0.087
826.20	-0.087
826.37	-0.088
826.55	-0.088
826.72	-0.088
826.90	-0.088
827.07	-0.089
827.25	-0.089
827.42	-0.090
827.60	-0.089
827.77	-0.090
827.95	-0.090
828.12	-0.091
828.30	-0.091
828.47	-0.089
828.65	-0.089
828.82	-0.090
829.00	-0.089
829.17	-0.088
829.34	-0.087
829.52	-0.089
829.69	-0.088
829.87	-0.089
830.04	-0.089
830.22	-0.090
830.39	-0.091
830.57	-0.091
830.74	-0.091
830.92	-0.090
831.09	-0.091
831.26	-0.090
831.44	-0.090
831.61	-0.090
831.79	-0.090
831.96	-0.089
832.14	-0.089
832.31	-0.089
832.49	-0.088
832.66	-0.088
832.83	-0.088
833.01	-0.086
833.18	-0.087
833.36	-0.088
833.53	-0.087
833.70	-0.087
833.88	-0.086
834.05	-0.085
834.23	-0.086
834.40	-0.086
834.58	-0.086
834.75	-0.088
834.92	-0.087
835.10	-0.087
835.27	-0.086
835.45	-0.087
835.62	-0.088
835.79	-0.087
835.97	-0.085
836.14	-0.084
836.32	-0.085
836.49	-0.085
836.66	-0.085
836.84	-0.089
837.01	-0.089
837.18	-0.089
837.36	-0.093
837.53	-0.091
837.71	-0.092
837.88	-0.090
838.05	-0.091
838.23	-0.089
838.40	-0.087
838.58	-0.086
838.75	-0.085
838.92	-0.082
839.10	-0.082
839.27	-0.077
839.44	-0.078
839.62	-0.078
839.79	-0.080
839.96	-0.079
840.14	-0.078
840.31	-0.078
840.48	-0.078
840.66	-0.079
840.83	-0.081
841.01	-0.080
841.18	-0.081
841.35	-0.081
841.53	-0.082
841.70	-0.082
841.87	-0.085
842.05	-0.086
842.22	-0.085
842.39	-0.085
842.57	-0.083
842.74	-0.082
842.91	-0.083
843.09	-0.084
843.26	-0.086
843.43	-0.082
843.60	-0.082
843.78	-0.083
843.95	-0.083
844.12	-0.088
844.30	-0.088
844.47	-0.087
844.64	-0.087
844.82	-0.087
844.99	-0.088
845.16	-0.088
845.34	-0.089
845.51	-0.090
845.68	-0.086
845.85	-0.086
846.03	-0.083
846.20	-0.087
846.37	-0.088
846.55	-0.088
846.72	-0.089
846.89	-0.084
847.06	-0.080
847.24	-0.084
847.41	-0.086
847.58	-0.085
847.76	-0.088
847.93	-0.083
848.10	-0.079
848.27	-0.079
848.45	-0.079
848.62	-0.077
848.79	-0.081
848.97	-0.081
849.14	-0.073
849.31	-0.070
849.48	-0.067
849.66	-0.062
849.83	-0.064
850.00	-0.065
850.17	-0.061
850.35	-0.063
850.52	-0.061
850.69	-0.063
850.86	-0.061
851.04	-0.066
851.21	-0.069
851.38	-0.073
851.55	-0.077
851.72	-0.077
851.90	-0.077
852.07	-0.077
852.24	-0.080
852.41	-0.081
852.59	-0.083
852.76	-0.087
852.93	-0.086
853.10	-0.084
853.28	-0.085
853.45	-0.085
853.62	-0.089
853.79	-0.090
853.96	-0.094
854.14	-0.090
854.31	-0.088
854.48	-0.086
854.65	-0.087
854.82	-0.086
855.00	-0.086
855.17	-0.084
855.34	-0.080
855.51	-0.079
855.68	-0.076
855.86	-0.073
856.03	-0.073
856.20	-0.072
856.37	-0.069
856.54	-0.065
856.72	-0.066
856.89	-0.067
857.06	-0.067
857.23	-0.071
857.40	-0.069
857.57	-0.073
857.75	-0.077
857.92	-0.074
858.09	-0.078
858.26	-0.078
858.43	-0.078
858.60	-0.081
858.78	-0.078
858.95	-0.082
859.12	-0.084
859.29	-0.084
859.46	-0.077
859.63	-0.077
859.81	-0.084
859.98	-0.080
860.15	-0.079
860.32	-0.084
860.49	-0.084
860.66	-0.088
860.83	-0.086
861.01	-0.083
861.18	-0.087
861.35	-0.094
861.52	-0.090
861.69	-0.089
861.86	-0.092
862.03	-0.090
862.21	-0.090
862.38	-0.089
862.55	-0.087
862.72	-0.084
862.89	-0.080
863.06	-0.077
863.23	-0.076
863.40	-0.078
863.58	-0.074
863.75	-0.073
863.92	-0.077
864.09	-0.072
864.26	-0.072
864.43	-0.072
864.60	-0.076
864.77	-0.082
864.94	-0.087
865.11	-0.080
865.29	-0.078
865.46	-0.082
865.63	-0.082
865.80	-0.078
865.97	-0.075
866.14	-0.078
866.31	-0.077
866.48	-0.075
866.65	-0.072
866.82	-0.068
866.99	-0.072
867.16	-0.076
867.34	-0.070
867.51	-0.076
867.68	-0.077
867.85	-0.078
868.02	-0.077
868.19	-0.078
868.36	-0.081
868.53	-0.086
868.70	-0.085
868.87	-0.092
869.04	-0.086
869.21	-0.090
869.38	-0.082
869.55	-0.074
869.72	-0.074
869.89	-0.074
870.06	-0.072
870.24	-0.070
870.41	-0.069
870.58	-0.067
870.75	-0.067
870.92	-0.075
871.09	-0.068
871.26	-0.070
871.43	-0.077
871.60	-0.080
871.77	-0.072
871.94	-0.079
872.11	-0.082
872.28	-0.074
872.45	-0.078
872.62	-0.080
872.79	-0.077
872.96	-0.080
873.13	-0.080
873.30	-0.082
873.47	-0.091
873.64	-0.099
873.81	-0.099
873.98	-0.099
874.15	-0.100
874.32	-0.098
874.49	-0.093
874.66	-0.093
874.83	-0.099
875.00	-0.102
875.17	-0.102
875.34	-0.090
875.51	-0.097
875.68	-0.092
875.85	-0.086
876.02	-0.087
876.19	-0.089
876.36	-0.089
876.53	-0.077
876.70	-0.075
876.87	-0.071
877.04	-0.083
877.21	-0.093
877.38	-0.086
877.55	-0.089
877.72	-0.088
877.89	-0.094
878.06	-0.087
878.23	-0.086
878.39	-0.100
878.56	-0.101
878.73	-0.094
878.90	-0.085
879.07	-0.075
879.24	-0.084
879.41	-0.078
879.58	-0.082
879.75	-0.080
879.92	-0.082
880.09	-0.083
880.26	-0.089
880.43	-0.087
880.60	-0.091
880.77	-0.078
880.94	-0.076
881.11	-0.068
881.27	-0.072
881.44	-0.073
881.61	-0.071
881.78	-0.086
881.95	-0.080
882.12	-0.079
882.29	-0.083
882.46	-0.081
882.63	-0.084
882.80	-0.099
882.97	-0.095
883.14	-0.096
883.30	-0.090
883.47	-0.087
883.64	-0.075
883.81	-0.095
883.98	-0.085
884.15	-0.084
884.32	-0.089
884.49	-0.101
884.66	-0.085
884.82	-0.087
884.99	-0.083
885.16	-0.088
885.33	-0.091
885.50	-0.087
885.67	-0.071
885.84	-0.075
886.01	-0.057
886.17	-0.054
886.34	-0.054
886.51	-0.058
886.68	-0.053
886.85	-0.057
887.02	-0.062
887.19	-0.066
887.36	-0.055
887.52	-0.048
887.69	-0.058
887.86	-0.078
888.03	-0.078
888.20	-0.086
888.37	-0.098
888.54	-0.094
888.70	-0.095
888.87	-0.094
889.04	-0.102
889.21	-0.114
889.38	-0.114
889.55	-0.111
889.71	-0.122
889.88	-0.193
890.05	-0.065
890.22	-0.017
890.39	-0.175
>>>>>End Processed Spectral Data<<<<<
