SpectraSuite Data File
++++++++++++++++++++++++++++++++++++
Date: Mon Jun 15 09:53:19 PDT 2015
User: introlabs
Dark Spectrum Present: Yes
Reference Spectrum Present: Yes
Number of Sampled Component Spectra: 1
Spectrometers: USB4H08886
Integration Time (usec): 44366 (USB4H08886)
Spectra Averaged: 20 (USB4H08886)
Boxcar Smoothing: 5 (USB4H08886)
Correct for Electrical Dark: Yes (USB4H08886)
Strobe/Lamp Enabled: No (USB4H08886)
Correct for Detector Non-linearity: Yes (USB4H08886)
Correct for Stray Light: Yes (USB4H08886)
Number of Pixels in Processed Spectrum: 3648
>>>>>Begin Processed Spectral Data<<<<<
178.14	0.313
178.36	0.313
178.57	0.313
178.79	-0.000
179.01	-0.776
179.22	0.009
179.44	-0.434
179.65	-0.000
179.87	-0.000
180.08	-0.000
180.30	-0.000
180.52	-0.000
180.73	0.459
180.95	0.084
181.16	0.112
181.38	0.091
181.59	0.123
181.81	0.106
182.03	0.119
182.24	0.126
182.46	0.133
182.67	0.121
182.89	0.121
183.10	0.130
183.32	0.135
183.54	0.128
183.75	0.123
183.97	0.128
184.18	0.139
184.40	0.131
184.61	0.137
184.83	0.137
185.04	0.139
185.26	0.140
185.48	0.141
185.69	0.143
185.91	0.144
186.12	0.142
186.34	0.137
186.55	0.119
186.77	0.119
186.98	0.104
187.20	0.092
187.42	0.097
187.63	0.102
187.85	0.105
188.06	0.104
188.28	0.101
188.49	0.107
188.71	0.101
188.92	0.101
189.14	0.097
189.36	0.107
189.57	0.111
189.79	0.106
190.00	0.089
190.22	0.088
190.43	0.082
190.65	0.079
190.86	0.084
191.08	0.083
191.29	0.090
191.51	0.088
191.72	0.082
191.94	0.086
192.16	0.091
192.37	0.102
192.59	0.099
192.80	0.101
193.02	0.109
193.23	0.102
193.45	0.106
193.66	0.099
193.88	0.105
194.09	0.110
194.31	0.111
194.52	0.111
194.74	0.111
194.95	0.108
195.17	0.120
195.38	0.112
195.60	0.108
195.81	0.117
196.03	0.120
196.25	0.124
196.46	0.120
196.68	0.125
196.89	0.118
197.11	0.114
197.32	0.117
197.54	0.103
197.75	0.120
197.97	0.117
198.18	0.104
198.40	0.106
198.61	0.103
198.83	0.096
199.04	0.100
199.26	0.108
199.47	0.108
199.69	0.107
199.90	0.118
200.12	0.108
200.33	0.119
200.55	0.121
200.76	0.113
200.98	0.115
201.19	0.110
201.41	0.098
201.62	0.097
201.84	0.098
202.05	0.100
202.27	0.089
202.48	0.088
202.70	0.093
202.91	0.095
203.13	0.094
203.34	0.091
203.56	0.099
203.77	0.101
203.99	0.097
204.20	0.100
204.42	0.093
204.63	0.102
204.85	0.102
205.06	0.101
205.28	0.102
205.49	0.105
205.71	0.115
205.92	0.115
206.14	0.112
206.35	0.115
206.56	0.115
206.78	0.118
206.99	0.118
207.21	0.127
207.42	0.121
207.64	0.117
207.85	0.121
208.07	0.116
208.28	0.124
208.50	0.127
208.71	0.127
208.93	0.143
209.14	0.145
209.36	0.137
209.57	0.135
209.79	0.142
210.00	0.147
210.22	0.148
210.43	0.141
210.64	0.133
210.86	0.134
211.07	0.132
211.29	0.118
211.50	0.116
211.72	0.114
211.93	0.103
212.15	0.099
212.36	0.099
212.58	0.100
212.79	0.104
213.01	0.105
213.22	0.104
213.43	0.099
213.65	0.104
213.86	0.103
214.08	0.113
214.29	0.117
214.51	0.115
214.72	0.113
214.94	0.104
215.15	0.105
215.36	0.107
215.58	0.109
215.79	0.106
216.01	0.098
216.22	0.103
216.44	0.101
216.65	0.102
216.87	0.108
217.08	0.105
217.29	0.115
217.51	0.118
217.72	0.109
217.94	0.112
218.15	0.123
218.37	0.125
218.58	0.115
218.80	0.121
219.01	0.116
219.22	0.112
219.44	0.115
219.65	0.110
219.87	0.112
220.08	0.114
220.30	0.108
220.51	0.108
220.72	0.113
220.94	0.119
221.15	0.114
221.37	0.120
221.58	0.127
221.79	0.133
222.01	0.133
222.22	0.127
222.44	0.139
222.65	0.146
222.87	0.143
223.08	0.146
223.29	0.143
223.51	0.148
223.72	0.150
223.94	0.144
224.15	0.145
224.36	0.156
224.58	0.152
224.79	0.154
225.01	0.151
225.22	0.154
225.44	0.151
225.65	0.160
225.86	0.164
226.08	0.169
226.29	0.174
226.51	0.180
226.72	0.178
226.93	0.194
227.15	0.197
227.36	0.204
227.58	0.208
227.79	0.219
228.00	0.221
228.22	0.214
228.43	0.217
228.65	0.224
228.86	0.220
229.07	0.222
229.29	0.222
229.50	0.217
229.72	0.219
229.93	0.219
230.14	0.219
230.36	0.220
230.57	0.224
230.78	0.222
231.00	0.219
231.21	0.220
231.43	0.220
231.64	0.219
231.85	0.219
232.07	0.218
232.28	0.216
232.50	0.208
232.71	0.200
232.92	0.195
233.14	0.190
233.35	0.187
233.56	0.183
233.78	0.174
233.99	0.166
234.21	0.159
234.42	0.151
234.63	0.142
234.85	0.132
235.06	0.124
235.27	0.116
235.49	0.110
235.70	0.099
235.91	0.090
236.13	0.083
236.34	0.074
236.56	0.064
236.77	0.056
236.98	0.051
237.20	0.046
237.41	0.041
237.62	0.035
237.84	0.028
238.05	0.023
238.26	0.017
238.48	0.011
238.69	0.008
238.91	0.005
239.12	0.001
239.33	-0.002
239.55	-0.003
239.76	-0.005
239.97	-0.007
240.19	-0.009
240.40	-0.011
240.61	-0.012
240.83	-0.013
241.04	-0.014
241.25	-0.016
241.47	-0.015
241.68	-0.016
241.89	-0.018
242.11	-0.019
242.32	-0.020
242.53	-0.021
242.75	-0.020
242.96	-0.021
243.17	-0.021
243.39	-0.022
243.60	-0.022
243.81	-0.023
244.03	-0.023
244.24	-0.022
244.45	-0.022
244.67	-0.022
244.88	-0.021
245.09	-0.021
245.31	-0.020
245.52	-0.020
245.73	-0.020
245.95	-0.020
246.16	-0.019
246.37	-0.019
246.59	-0.019
246.80	-0.019
247.01	-0.018
247.23	-0.018
247.44	-0.019
247.65	-0.018
247.87	-0.017
248.08	-0.017
248.29	-0.017
248.51	-0.016
248.72	-0.015
248.93	-0.015
249.15	-0.014
249.36	-0.014
249.57	-0.014
249.78	-0.013
250.00	-0.013
250.21	-0.012
250.42	-0.011
250.64	-0.010
250.85	-0.009
251.06	-0.009
251.28	-0.008
251.49	-0.007
251.70	-0.006
251.92	-0.004
252.13	-0.003
252.34	-0.002
252.55	-0.001
252.77	-0.001
252.98	0.000
253.19	0.001
253.41	0.003
253.62	0.003
253.83	0.005
254.05	0.005
254.26	0.006
254.47	0.007
254.68	0.007
254.90	0.008
255.11	0.009
255.32	0.010
255.54	0.011
255.75	0.011
255.96	0.012
256.17	0.012
256.39	0.013
256.60	0.014
256.81	0.015
257.03	0.015
257.24	0.016
257.45	0.016
257.66	0.017
257.88	0.018
258.09	0.018
258.30	0.019
258.51	0.019
258.73	0.019
258.94	0.020
259.15	0.021
259.37	0.021
259.58	0.022
259.79	0.022
260.00	0.023
260.22	0.024
260.43	0.025
260.64	0.025
260.85	0.025
261.07	0.025
261.28	0.026
261.49	0.026
261.71	0.026
261.92	0.026
262.13	0.026
262.34	0.025
262.56	0.025
262.77	0.025
262.98	0.024
263.19	0.024
263.41	0.024
263.62	0.023
263.83	0.022
264.04	0.022
264.26	0.021
264.47	0.021
264.68	0.021
264.89	0.020
265.11	0.020
265.32	0.020
265.53	0.019
265.74	0.018
265.96	0.018
266.17	0.018
266.38	0.017
266.59	0.016
266.81	0.016
267.02	0.015
267.23	0.014
267.44	0.013
267.65	0.012
267.87	0.011
268.08	0.010
268.29	0.010
268.50	0.009
268.72	0.009
268.93	0.008
269.14	0.007
269.35	0.006
269.57	0.006
269.78	0.005
269.99	0.004
270.20	0.004
270.41	0.003
270.63	0.003
270.84	0.001
271.05	0.000
271.26	-0.000
271.48	-0.001
271.69	-0.002
271.90	-0.002
272.11	-0.003
272.32	-0.004
272.54	-0.005
272.75	-0.005
272.96	-0.006
273.17	-0.006
273.39	-0.007
273.60	-0.008
273.81	-0.008
274.02	-0.009
274.23	-0.009
274.45	-0.010
274.66	-0.010
274.87	-0.010
275.08	-0.010
275.29	-0.011
275.51	-0.011
275.72	-0.011
275.93	-0.011
276.14	-0.011
276.35	-0.011
276.57	-0.011
276.78	-0.011
276.99	-0.010
277.20	-0.010
277.41	-0.010
277.63	-0.009
277.84	-0.009
278.05	-0.008
278.26	-0.008
278.47	-0.007
278.69	-0.006
278.90	-0.005
279.11	-0.004
279.32	-0.004
279.53	-0.003
279.74	-0.002
279.96	-0.001
280.17	0.000
280.38	0.001
280.59	0.002
280.80	0.003
281.02	0.004
281.23	0.005
281.44	0.006
281.65	0.007
281.86	0.008
282.07	0.008
282.29	0.009
282.50	0.011
282.71	0.012
282.92	0.013
283.13	0.014
283.35	0.016
283.56	0.017
283.77	0.018
283.98	0.020
284.19	0.021
284.40	0.023
284.62	0.025
284.83	0.027
285.04	0.029
285.25	0.031
285.46	0.034
285.67	0.036
285.88	0.039
286.10	0.041
286.31	0.044
286.52	0.047
286.73	0.049
286.94	0.052
287.15	0.055
287.37	0.057
287.58	0.060
287.79	0.063
288.00	0.065
288.21	0.068
288.42	0.070
288.63	0.073
288.85	0.075
289.06	0.078
289.27	0.080
289.48	0.082
289.69	0.084
289.90	0.087
290.11	0.089
290.33	0.091
290.54	0.093
290.75	0.094
290.96	0.096
291.17	0.098
291.38	0.099
291.59	0.101
291.81	0.102
292.02	0.103
292.23	0.105
292.44	0.106
292.65	0.107
292.86	0.108
293.07	0.109
293.28	0.110
293.50	0.111
293.71	0.112
293.92	0.112
294.13	0.113
294.34	0.114
294.55	0.115
294.76	0.115
294.97	0.116
295.19	0.116
295.40	0.116
295.61	0.117
295.82	0.117
296.03	0.117
296.24	0.118
296.45	0.118
296.66	0.118
296.87	0.118
297.09	0.118
297.30	0.118
297.51	0.119
297.72	0.119
297.93	0.119
298.14	0.120
298.35	0.120
298.56	0.120
298.77	0.120
298.99	0.120
299.20	0.120
299.41	0.120
299.62	0.120
299.83	0.120
300.04	0.120
300.25	0.120
300.46	0.120
300.67	0.120
300.88	0.120
301.10	0.120
301.31	0.120
301.52	0.120
301.73	0.120
301.94	0.120
302.15	0.120
302.36	0.120
302.57	0.120
302.78	0.120
302.99	0.120
303.20	0.120
303.41	0.120
303.63	0.119
303.84	0.119
304.05	0.119
304.26	0.119
304.47	0.119
304.68	0.119
304.89	0.119
305.10	0.119
305.31	0.119
305.52	0.119
305.73	0.119
305.94	0.119
306.15	0.119
306.37	0.119
306.58	0.119
306.79	0.119
307.00	0.119
307.21	0.118
307.42	0.118
307.63	0.118
307.84	0.118
308.05	0.118
308.26	0.118
308.47	0.118
308.68	0.118
308.89	0.117
309.10	0.117
309.31	0.117
309.52	0.117
309.73	0.117
309.95	0.117
310.16	0.117
310.37	0.117
310.58	0.117
310.79	0.117
311.00	0.117
311.21	0.117
311.42	0.117
311.63	0.117
311.84	0.116
312.05	0.116
312.26	0.116
312.47	0.116
312.68	0.116
312.89	0.116
313.10	0.116
313.31	0.116
313.52	0.116
313.73	0.116
313.94	0.116
314.15	0.116
314.36	0.116
314.57	0.116
314.78	0.116
314.99	0.116
315.21	0.116
315.42	0.116
315.63	0.116
315.84	0.115
316.05	0.116
316.26	0.115
316.47	0.115
316.68	0.115
316.89	0.115
317.10	0.115
317.31	0.115
317.52	0.115
317.73	0.115
317.94	0.115
318.15	0.115
318.36	0.115
318.57	0.115
318.78	0.115
318.99	0.115
319.20	0.115
319.41	0.115
319.62	0.115
319.83	0.115
320.04	0.115
320.25	0.115
320.46	0.115
320.67	0.115
320.88	0.115
321.09	0.115
321.30	0.115
321.51	0.115
321.72	0.115
321.93	0.115
322.14	0.115
322.35	0.115
322.56	0.115
322.77	0.115
322.98	0.115
323.19	0.115
323.40	0.115
323.61	0.115
323.82	0.115
324.03	0.115
324.24	0.115
324.45	0.115
324.66	0.115
324.87	0.115
325.08	0.115
325.29	0.115
325.50	0.115
325.71	0.115
325.92	0.115
326.13	0.115
326.34	0.115
326.55	0.115
326.76	0.116
326.97	0.116
327.18	0.116
327.39	0.116
327.60	0.116
327.80	0.116
328.01	0.116
328.22	0.116
328.43	0.116
328.64	0.116
328.85	0.116
329.06	0.116
329.27	0.116
329.48	0.116
329.69	0.116
329.90	0.116
330.11	0.117
330.32	0.117
330.53	0.116
330.74	0.116
330.95	0.116
331.16	0.116
331.37	0.116
331.58	0.116
331.79	0.116
332.00	0.116
332.21	0.116
332.42	0.116
332.63	0.116
332.83	0.116
333.04	0.116
333.25	0.116
333.46	0.116
333.67	0.116
333.88	0.116
334.09	0.116
334.30	0.116
334.51	0.116
334.72	0.116
334.93	0.115
335.14	0.115
335.35	0.115
335.56	0.116
335.77	0.115
335.98	0.115
336.18	0.115
336.39	0.116
336.60	0.116
336.81	0.116
337.02	0.116
337.23	0.116
337.44	0.116
337.65	0.116
337.86	0.116
338.07	0.116
338.28	0.116
338.49	0.116
338.70	0.116
338.91	0.115
339.11	0.115
339.32	0.115
339.53	0.115
339.74	0.116
339.95	0.115
340.16	0.116
340.37	0.116
340.58	0.116
340.79	0.116
341.00	0.116
341.21	0.116
341.41	0.116
341.62	0.116
341.83	0.116
342.04	0.116
342.25	0.116
342.46	0.116
342.67	0.116
342.88	0.117
343.09	0.117
343.30	0.117
343.50	0.117
343.71	0.117
343.92	0.117
344.13	0.117
344.34	0.118
344.55	0.118
344.76	0.118
344.97	0.118
345.18	0.118
345.38	0.118
345.59	0.118
345.80	0.118
346.01	0.118
346.22	0.118
346.43	0.118
346.64	0.118
346.85	0.118
347.06	0.119
347.26	0.119
347.47	0.119
347.68	0.119
347.89	0.119
348.10	0.119
348.31	0.119
348.52	0.119
348.73	0.120
348.93	0.120
349.14	0.120
349.35	0.120
349.56	0.120
349.77	0.120
349.98	0.120
350.19	0.120
350.39	0.120
350.60	0.120
350.81	0.120
351.02	0.120
351.23	0.121
351.44	0.121
351.65	0.121
351.86	0.121
352.06	0.121
352.27	0.122
352.48	0.122
352.69	0.122
352.90	0.122
353.11	0.122
353.31	0.122
353.52	0.122
353.73	0.122
353.94	0.122
354.15	0.122
354.36	0.122
354.57	0.123
354.77	0.123
354.98	0.123
355.19	0.123
355.40	0.123
355.61	0.123
355.82	0.123
356.02	0.124
356.23	0.124
356.44	0.124
356.65	0.124
356.86	0.124
357.07	0.124
357.27	0.124
357.48	0.124
357.69	0.124
357.90	0.124
358.11	0.124
358.32	0.124
358.52	0.124
358.73	0.125
358.94	0.125
359.15	0.125
359.36	0.125
359.56	0.125
359.77	0.125
359.98	0.125
360.19	0.125
360.40	0.125
360.61	0.125
360.81	0.125
361.02	0.126
361.23	0.126
361.44	0.126
361.65	0.126
361.85	0.126
362.06	0.126
362.27	0.126
362.48	0.126
362.69	0.126
362.89	0.126
363.10	0.126
363.31	0.127
363.52	0.127
363.73	0.127
363.93	0.127
364.14	0.127
364.35	0.127
364.56	0.127
364.77	0.127
364.97	0.128
365.18	0.128
365.39	0.128
365.60	0.128
365.81	0.128
366.01	0.128
366.22	0.128
366.43	0.128
366.64	0.128
366.84	0.128
367.05	0.128
367.26	0.128
367.47	0.128
367.68	0.128
367.88	0.128
368.09	0.129
368.30	0.129
368.51	0.129
368.71	0.129
368.92	0.129
369.13	0.129
369.34	0.129
369.55	0.129
369.75	0.129
369.96	0.129
370.17	0.129
370.38	0.130
370.58	0.129
370.79	0.129
371.00	0.130
371.21	0.130
371.41	0.130
371.62	0.130
371.83	0.130
372.04	0.130
372.24	0.130
372.45	0.130
372.66	0.130
372.87	0.130
373.07	0.130
373.28	0.130
373.49	0.130
373.70	0.130
373.90	0.130
374.11	0.130
374.32	0.130
374.53	0.130
374.73	0.130
374.94	0.130
375.15	0.130
375.36	0.130
375.56	0.130
375.77	0.130
375.98	0.130
376.19	0.130
376.39	0.130
376.60	0.130
376.81	0.130
377.02	0.130
377.22	0.130
377.43	0.131
377.64	0.131
377.84	0.131
378.05	0.131
378.26	0.131
378.47	0.131
378.67	0.131
378.88	0.131
379.09	0.131
379.30	0.131
379.50	0.131
379.71	0.131
379.92	0.131
380.12	0.131
380.33	0.131
380.54	0.131
380.75	0.131
380.95	0.131
381.16	0.131
381.37	0.131
381.57	0.131
381.78	0.131
381.99	0.131
382.20	0.131
382.40	0.131
382.61	0.131
382.82	0.131
383.02	0.131
383.23	0.131
383.44	0.131
383.64	0.131
383.85	0.131
384.06	0.131
384.27	0.131
384.47	0.131
384.68	0.131
384.89	0.131
385.09	0.131
385.30	0.131
385.51	0.131
385.71	0.131
385.92	0.131
386.13	0.131
386.33	0.131
386.54	0.131
386.75	0.132
386.95	0.132
387.16	0.132
387.37	0.131
387.58	0.131
387.78	0.131
387.99	0.131
388.20	0.131
388.40	0.132
388.61	0.132
388.82	0.132
389.02	0.132
389.23	0.132
389.44	0.132
389.64	0.132
389.85	0.132
390.06	0.131
390.26	0.131
390.47	0.131
390.68	0.131
390.88	0.131
391.09	0.131
391.30	0.131
391.50	0.131
391.71	0.131
391.92	0.131
392.12	0.131
392.33	0.131
392.53	0.132
392.74	0.132
392.95	0.132
393.15	0.132
393.36	0.132
393.57	0.132
393.77	0.132
393.98	0.132
394.19	0.132
394.39	0.132
394.60	0.132
394.81	0.132
395.01	0.132
395.22	0.132
395.43	0.131
395.63	0.131
395.84	0.131
396.04	0.131
396.25	0.131
396.46	0.131
396.66	0.131
396.87	0.131
397.08	0.131
397.28	0.131
397.49	0.131
397.69	0.131
397.90	0.131
398.11	0.131
398.31	0.131
398.52	0.131
398.73	0.131
398.93	0.131
399.14	0.131
399.34	0.131
399.55	0.131
399.76	0.131
399.96	0.131
400.17	0.131
400.37	0.131
400.58	0.131
400.79	0.131
400.99	0.131
401.20	0.131
401.41	0.131
401.61	0.131
401.82	0.131
402.02	0.131
402.23	0.131
402.44	0.131
402.64	0.131
402.85	0.131
403.05	0.131
403.26	0.131
403.47	0.131
403.67	0.131
403.88	0.131
404.08	0.131
404.29	0.131
404.50	0.131
404.70	0.131
404.91	0.131
405.11	0.131
405.32	0.131
405.52	0.130
405.73	0.130
405.94	0.130
406.14	0.130
406.35	0.130
406.55	0.130
406.76	0.130
406.97	0.130
407.17	0.130
407.38	0.130
407.58	0.130
407.79	0.130
407.99	0.130
408.20	0.130
408.41	0.130
408.61	0.130
408.82	0.130
409.02	0.130
409.23	0.130
409.43	0.130
409.64	0.130
409.84	0.130
410.05	0.130
410.26	0.130
410.46	0.130
410.67	0.130
410.87	0.130
411.08	0.130
411.28	0.130
411.49	0.130
411.69	0.130
411.90	0.130
412.11	0.130
412.31	0.130
412.52	0.130
412.72	0.130
412.93	0.130
413.13	0.130
413.34	0.130
413.54	0.130
413.75	0.130
413.95	0.130
414.16	0.130
414.37	0.130
414.57	0.130
414.78	0.130
414.98	0.130
415.19	0.130
415.39	0.130
415.60	0.130
415.80	0.130
416.01	0.130
416.21	0.130
416.42	0.130
416.62	0.130
416.83	0.130
417.03	0.130
417.24	0.130
417.44	0.129
417.65	0.129
417.86	0.129
418.06	0.129
418.27	0.129
418.47	0.129
418.68	0.129
418.88	0.129
419.09	0.129
419.29	0.129
419.50	0.129
419.70	0.129
419.91	0.129
420.11	0.129
420.32	0.129
420.52	0.129
420.73	0.129
420.93	0.129
421.14	0.129
421.34	0.129
421.55	0.129
421.75	0.129
421.96	0.129
422.16	0.129
422.37	0.129
422.57	0.129
422.78	0.129
422.98	0.129
423.19	0.130
423.39	0.130
423.60	0.130
423.80	0.130
424.01	0.130
424.21	0.130
424.42	0.130
424.62	0.130
424.83	0.130
425.03	0.130
425.23	0.130
425.44	0.130
425.64	0.130
425.85	0.130
426.05	0.130
426.26	0.130
426.46	0.130
426.67	0.129
426.87	0.129
427.08	0.129
427.28	0.129
427.49	0.129
427.69	0.129
427.90	0.129
428.10	0.129
428.31	0.129
428.51	0.129
428.71	0.129
428.92	0.129
429.12	0.129
429.33	0.129
429.53	0.129
429.74	0.129
429.94	0.129
430.15	0.129
430.35	0.129
430.56	0.129
430.76	0.130
430.96	0.130
431.17	0.130
431.37	0.130
431.58	0.130
431.78	0.130
431.99	0.130
432.19	0.130
432.40	0.130
432.60	0.130
432.80	0.130
433.01	0.130
433.21	0.130
433.42	0.130
433.62	0.130
433.83	0.130
434.03	0.130
434.23	0.130
434.44	0.129
434.64	0.129
434.85	0.129
435.05	0.129
435.26	0.129
435.46	0.129
435.66	0.129
435.87	0.129
436.07	0.129
436.28	0.129
436.48	0.129
436.69	0.129
436.89	0.129
437.09	0.129
437.30	0.129
437.50	0.129
437.71	0.129
437.91	0.129
438.11	0.129
438.32	0.129
438.52	0.129
438.73	0.129
438.93	0.129
439.13	0.129
439.34	0.129
439.54	0.129
439.75	0.129
439.95	0.129
440.15	0.129
440.36	0.129
440.56	0.129
440.77	0.129
440.97	0.129
441.17	0.129
441.38	0.129
441.58	0.129
441.79	0.129
441.99	0.129
442.19	0.129
442.40	0.129
442.60	0.129
442.81	0.129
443.01	0.129
443.21	0.129
443.42	0.129
443.62	0.129
443.82	0.129
444.03	0.129
444.23	0.129
444.44	0.129
444.64	0.129
444.84	0.129
445.05	0.129
445.25	0.129
445.45	0.129
445.66	0.129
445.86	0.129
446.06	0.129
446.27	0.129
446.47	0.129
446.68	0.129
446.88	0.129
447.08	0.129
447.29	0.129
447.49	0.129
447.69	0.129
447.90	0.129
448.10	0.129
448.30	0.129
448.51	0.129
448.71	0.129
448.91	0.129
449.12	0.129
449.32	0.129
449.52	0.129
449.73	0.130
449.93	0.130
450.14	0.129
450.34	0.129
450.54	0.129
450.75	0.129
450.95	0.129
451.15	0.129
451.36	0.129
451.56	0.129
451.76	0.129
451.97	0.129
452.17	0.129
452.37	0.129
452.58	0.129
452.78	0.129
452.98	0.129
453.19	0.129
453.39	0.129
453.59	0.129
453.79	0.129
454.00	0.129
454.20	0.129
454.40	0.128
454.61	0.128
454.81	0.128
455.01	0.128
455.22	0.128
455.42	0.129
455.62	0.128
455.83	0.129
456.03	0.129
456.23	0.129
456.44	0.129
456.64	0.129
456.84	0.129
457.04	0.129
457.25	0.129
457.45	0.129
457.65	0.129
457.86	0.129
458.06	0.129
458.26	0.129
458.47	0.129
458.67	0.128
458.87	0.128
459.07	0.129
459.28	0.129
459.48	0.129
459.68	0.129
459.89	0.129
460.09	0.129
460.29	0.129
460.49	0.129
460.70	0.129
460.90	0.129
461.10	0.129
461.31	0.129
461.51	0.129
461.71	0.129
461.91	0.129
462.12	0.129
462.32	0.129
462.52	0.129
462.72	0.129
462.93	0.129
463.13	0.129
463.33	0.129
463.53	0.128
463.74	0.128
463.94	0.128
464.14	0.128
464.35	0.128
464.55	0.128
464.75	0.128
464.95	0.128
465.16	0.128
465.36	0.128
465.56	0.128
465.76	0.128
465.97	0.128
466.17	0.128
466.37	0.128
466.57	0.129
466.78	0.129
466.98	0.129
467.18	0.129
467.38	0.129
467.59	0.129
467.79	0.129
467.99	0.129
468.19	0.129
468.39	0.129
468.60	0.129
468.80	0.129
469.00	0.129
469.20	0.128
469.41	0.128
469.61	0.128
469.81	0.128
470.01	0.128
470.22	0.128
470.42	0.128
470.62	0.128
470.82	0.128
471.02	0.128
471.23	0.128
471.43	0.128
471.63	0.128
471.83	0.128
472.04	0.128
472.24	0.128
472.44	0.127
472.64	0.127
472.84	0.127
473.05	0.128
473.25	0.127
473.45	0.127
473.65	0.128
473.85	0.128
474.06	0.128
474.26	0.128
474.46	0.128
474.66	0.128
474.86	0.128
475.07	0.128
475.27	0.128
475.47	0.128
475.67	0.128
475.87	0.128
476.08	0.129
476.28	0.128
476.48	0.129
476.68	0.129
476.88	0.129
477.09	0.129
477.29	0.129
477.49	0.129
477.69	0.129
477.89	0.129
478.09	0.128
478.30	0.128
478.50	0.128
478.70	0.128
478.90	0.128
479.10	0.128
479.31	0.127
479.51	0.128
479.71	0.127
479.91	0.127
480.11	0.127
480.31	0.127
480.52	0.127
480.72	0.127
480.92	0.127
481.12	0.127
481.32	0.128
481.52	0.128
481.72	0.127
481.93	0.128
482.13	0.128
482.33	0.128
482.53	0.127
482.73	0.127
482.93	0.127
483.14	0.127
483.34	0.127
483.54	0.127
483.74	0.127
483.94	0.127
484.14	0.127
484.34	0.127
484.55	0.127
484.75	0.127
484.95	0.127
485.15	0.127
485.35	0.127
485.55	0.127
485.75	0.127
485.96	0.127
486.16	0.127
486.36	0.127
486.56	0.127
486.76	0.127
486.96	0.128
487.16	0.128
487.36	0.128
487.57	0.128
487.77	0.128
487.97	0.128
488.17	0.128
488.37	0.128
488.57	0.128
488.77	0.128
488.97	0.128
489.18	0.128
489.38	0.128
489.58	0.128
489.78	0.128
489.98	0.128
490.18	0.128
490.38	0.128
490.58	0.128
490.78	0.128
490.98	0.128
491.19	0.128
491.39	0.128
491.59	0.128
491.79	0.128
491.99	0.128
492.19	0.128
492.39	0.128
492.59	0.128
492.79	0.128
492.99	0.128
493.20	0.128
493.40	0.128
493.60	0.128
493.80	0.128
494.00	0.127
494.20	0.127
494.40	0.127
494.60	0.127
494.80	0.128
495.00	0.127
495.20	0.128
495.40	0.128
495.61	0.128
495.81	0.128
496.01	0.128
496.21	0.128
496.41	0.128
496.61	0.128
496.81	0.128
497.01	0.128
497.21	0.128
497.41	0.128
497.61	0.128
497.81	0.128
498.01	0.128
498.21	0.128
498.41	0.128
498.61	0.128
498.82	0.128
499.02	0.128
499.22	0.128
499.42	0.128
499.62	0.128
499.82	0.128
500.02	0.128
500.22	0.128
500.42	0.128
500.62	0.128
500.82	0.128
501.02	0.128
501.22	0.128
501.42	0.128
501.62	0.128
501.82	0.128
502.02	0.128
502.22	0.128
502.42	0.128
502.62	0.128
502.82	0.128
503.02	0.128
503.22	0.128
503.42	0.128
503.63	0.128
503.83	0.128
504.03	0.128
504.23	0.128
504.43	0.128
504.63	0.128
504.83	0.128
505.03	0.128
505.23	0.128
505.43	0.128
505.63	0.128
505.83	0.128
506.03	0.128
506.23	0.128
506.43	0.128
506.63	0.128
506.83	0.128
507.03	0.128
507.23	0.128
507.43	0.128
507.63	0.128
507.83	0.128
508.03	0.128
508.23	0.128
508.43	0.128
508.63	0.128
508.83	0.128
509.03	0.129
509.23	0.129
509.43	0.128
509.63	0.128
509.83	0.129
510.03	0.128
510.23	0.128
510.43	0.128
510.63	0.128
510.83	0.128
511.03	0.128
511.23	0.128
511.43	0.128
511.63	0.128
511.83	0.128
512.03	0.128
512.22	0.128
512.42	0.128
512.62	0.128
512.82	0.128
513.02	0.128
513.22	0.128
513.42	0.128
513.62	0.128
513.82	0.128
514.02	0.128
514.22	0.128
514.42	0.128
514.62	0.128
514.82	0.128
515.02	0.128
515.22	0.128
515.42	0.128
515.62	0.128
515.82	0.128
516.02	0.128
516.22	0.128
516.42	0.128
516.62	0.128
516.82	0.128
517.01	0.128
517.21	0.128
517.41	0.128
517.61	0.128
517.81	0.128
518.01	0.128
518.21	0.128
518.41	0.128
518.61	0.128
518.81	0.128
519.01	0.128
519.21	0.128
519.41	0.128
519.61	0.128
519.81	0.128
520.00	0.128
520.20	0.128
520.40	0.128
520.60	0.128
520.80	0.129
521.00	0.129
521.20	0.129
521.40	0.128
521.60	0.129
521.80	0.129
522.00	0.129
522.20	0.129
522.39	0.129
522.59	0.128
522.79	0.128
522.99	0.128
523.19	0.128
523.39	0.128
523.59	0.128
523.79	0.128
523.99	0.128
524.19	0.128
524.38	0.128
524.58	0.128
524.78	0.128
524.98	0.128
525.18	0.128
525.38	0.128
525.58	0.128
525.78	0.128
525.98	0.128
526.18	0.128
526.37	0.128
526.57	0.128
526.77	0.128
526.97	0.128
527.17	0.127
527.37	0.127
527.57	0.127
527.77	0.127
527.96	0.127
528.16	0.128
528.36	0.128
528.56	0.128
528.76	0.128
528.96	0.128
529.16	0.128
529.36	0.128
529.55	0.128
529.75	0.128
529.95	0.128
530.15	0.128
530.35	0.128
530.55	0.128
530.75	0.128
530.94	0.128
531.14	0.128
531.34	0.128
531.54	0.128
531.74	0.128
531.94	0.128
532.13	0.128
532.33	0.128
532.53	0.128
532.73	0.128
532.93	0.128
533.13	0.128
533.33	0.128
533.52	0.128
533.72	0.128
533.92	0.128
534.12	0.128
534.32	0.128
534.52	0.128
534.71	0.128
534.91	0.128
535.11	0.128
535.31	0.128
535.51	0.128
535.71	0.128
535.90	0.128
536.10	0.128
536.30	0.128
536.50	0.127
536.70	0.127
536.89	0.128
537.09	0.127
537.29	0.127
537.49	0.127
537.69	0.127
537.89	0.127
538.08	0.127
538.28	0.127
538.48	0.127
538.68	0.128
538.88	0.128
539.07	0.128
539.27	0.128
539.47	0.128
539.67	0.128
539.87	0.128
540.06	0.128
540.26	0.128
540.46	0.128
540.66	0.128
540.86	0.128
541.05	0.128
541.25	0.128
541.45	0.128
541.65	0.128
541.84	0.128
542.04	0.128
542.24	0.128
542.44	0.128
542.64	0.127
542.83	0.127
543.03	0.127
543.23	0.127
543.43	0.127
543.62	0.127
543.82	0.127
544.02	0.127
544.22	0.127
544.42	0.127
544.61	0.127
544.81	0.127
545.01	0.127
545.21	0.127
545.40	0.127
545.60	0.127
545.80	0.128
546.00	0.128
546.19	0.128
546.39	0.128
546.59	0.128
546.79	0.128
546.98	0.128
547.18	0.128
547.38	0.128
547.58	0.128
547.77	0.128
547.97	0.128
548.17	0.128
548.37	0.128
548.56	0.127
548.76	0.127
548.96	0.127
549.16	0.128
549.35	0.128
549.55	0.128
549.75	0.128
549.95	0.128
550.14	0.128
550.34	0.128
550.54	0.128
550.73	0.128
550.93	0.128
551.13	0.128
551.33	0.128
551.52	0.127
551.72	0.127
551.92	0.127
552.12	0.127
552.31	0.127
552.51	0.127
552.71	0.127
552.90	0.127
553.10	0.127
553.30	0.127
553.50	0.127
553.69	0.127
553.89	0.127
554.09	0.127
554.28	0.127
554.48	0.127
554.68	0.127
554.87	0.128
555.07	0.128
555.27	0.128
555.47	0.128
555.66	0.128
555.86	0.128
556.06	0.128
556.25	0.128
556.45	0.128
556.65	0.128
556.84	0.128
557.04	0.128
557.24	0.128
557.43	0.128
557.63	0.128
557.83	0.128
558.02	0.128
558.22	0.128
558.42	0.127
558.61	0.127
558.81	0.127
559.01	0.127
559.21	0.127
559.40	0.127
559.60	0.127
559.80	0.127
559.99	0.127
560.19	0.126
560.39	0.126
560.58	0.127
560.78	0.127
560.97	0.127
561.17	0.127
561.37	0.127
561.56	0.127
561.76	0.127
561.96	0.127
562.15	0.127
562.35	0.128
562.55	0.128
562.74	0.128
562.94	0.128
563.14	0.128
563.33	0.128
563.53	0.128
563.73	0.128
563.92	0.127
564.12	0.127
564.31	0.127
564.51	0.127
564.71	0.127
564.90	0.127
565.10	0.127
565.30	0.127
565.49	0.127
565.69	0.127
565.89	0.126
566.08	0.126
566.28	0.126
566.47	0.126
566.67	0.126
566.87	0.126
567.06	0.126
567.26	0.126
567.46	0.126
567.65	0.126
567.85	0.126
568.04	0.126
568.24	0.126
568.44	0.125
568.63	0.125
568.83	0.125
569.02	0.125
569.22	0.125
569.42	0.125
569.61	0.125
569.81	0.125
570.00	0.125
570.20	0.125
570.40	0.125
570.59	0.125
570.79	0.125
570.98	0.125
571.18	0.124
571.38	0.124
571.57	0.124
571.77	0.124
571.96	0.124
572.16	0.125
572.35	0.125
572.55	0.125
572.75	0.125
572.94	0.125
573.14	0.126
573.33	0.126
573.53	0.126
573.73	0.126
573.92	0.126
574.12	0.126
574.31	0.126
574.51	0.126
574.70	0.125
574.90	0.123
575.09	0.121
575.29	0.119
575.49	0.117
575.68	0.114
575.88	0.112
576.07	0.109
576.27	0.107
576.46	0.105
576.66	0.103
576.86	0.101
577.05	0.099
577.25	0.098
577.44	0.098
577.64	0.097
577.83	0.097
578.03	0.096
578.22	0.094
578.42	0.091
578.61	0.088
578.81	0.085
579.00	0.082
579.20	0.080
579.40	0.077
579.59	0.075
579.79	0.073
579.98	0.071
580.18	0.069
580.37	0.069
580.57	0.070
580.76	0.071
580.96	0.072
581.15	0.074
581.35	0.075
581.54	0.076
581.74	0.077
581.93	0.078
582.13	0.078
582.32	0.078
582.52	0.079
582.71	0.080
582.91	0.081
583.10	0.083
583.30	0.085
583.49	0.088
583.69	0.090
583.88	0.094
584.08	0.097
584.27	0.101
584.47	0.104
584.66	0.107
584.86	0.109
585.05	0.111
585.25	0.111
585.44	0.111
585.64	0.111
585.83	0.110
586.03	0.110
586.22	0.111
586.42	0.112
586.61	0.113
586.81	0.115
587.00	0.116
587.20	0.117
587.39	0.119
587.59	0.121
587.78	0.123
587.98	0.125
588.17	0.126
588.37	0.127
588.56	0.126
588.76	0.126
588.95	0.126
589.15	0.126
589.34	0.125
589.54	0.125
589.73	0.125
589.92	0.125
590.12	0.124
590.31	0.124
590.51	0.124
590.70	0.124
590.90	0.124
591.09	0.124
591.29	0.123
591.48	0.124
591.68	0.124
591.87	0.124
592.06	0.124
592.26	0.124
592.45	0.124
592.65	0.124
592.84	0.124
593.04	0.124
593.23	0.124
593.43	0.125
593.62	0.125
593.81	0.125
594.01	0.125
594.20	0.125
594.40	0.126
594.59	0.126
594.79	0.126
594.98	0.126
595.17	0.126
595.37	0.126
595.56	0.126
595.76	0.125
595.95	0.125
596.14	0.125
596.34	0.124
596.53	0.124
596.73	0.123
596.92	0.123
597.12	0.123
597.31	0.122
597.50	0.122
597.70	0.122
597.89	0.122
598.09	0.122
598.28	0.122
598.47	0.122
598.67	0.122
598.86	0.123
599.06	0.123
599.25	0.123
599.44	0.123
599.64	0.124
599.83	0.124
600.03	0.124
600.22	0.124
600.41	0.125
600.61	0.125
600.80	0.125
601.00	0.125
601.19	0.125
601.38	0.125
601.58	0.125
601.77	0.125
601.96	0.125
602.16	0.125
602.35	0.125
602.55	0.124
602.74	0.124
602.93	0.124
603.13	0.124
603.32	0.123
603.51	0.123
603.71	0.123
603.90	0.123
604.09	0.122
604.29	0.122
604.48	0.122
604.68	0.122
604.87	0.122
605.06	0.122
605.26	0.122
605.45	0.123
605.64	0.123
605.84	0.123
606.03	0.123
606.22	0.123
606.42	0.123
606.61	0.124
606.80	0.124
607.00	0.124
607.19	0.124
607.38	0.124
607.58	0.124
607.77	0.124
607.96	0.125
608.16	0.125
608.35	0.125
608.54	0.125
608.74	0.125
608.93	0.125
609.12	0.125
609.32	0.125
609.51	0.125
609.70	0.125
609.90	0.125
610.09	0.125
610.28	0.124
610.48	0.124
610.67	0.124
610.86	0.124
611.06	0.124
611.25	0.124
611.44	0.124
611.64	0.124
611.83	0.124
612.02	0.124
612.21	0.124
612.41	0.124
612.60	0.124
612.79	0.124
612.99	0.124
613.18	0.124
613.37	0.124
613.57	0.124
613.76	0.124
613.95	0.125
614.14	0.125
614.34	0.125
614.53	0.125
614.72	0.125
614.92	0.125
615.11	0.125
615.30	0.125
615.49	0.125
615.69	0.125
615.88	0.125
616.07	0.125
616.26	0.125
616.46	0.125
616.65	0.125
616.84	0.125
617.04	0.126
617.23	0.126
617.42	0.126
617.61	0.126
617.81	0.126
618.00	0.126
618.19	0.126
618.38	0.126
618.58	0.125
618.77	0.125
618.96	0.126
619.15	0.125
619.35	0.125
619.54	0.125
619.73	0.126
619.92	0.125
620.12	0.125
620.31	0.125
620.50	0.125
620.69	0.125
620.89	0.125
621.08	0.126
621.27	0.125
621.46	0.125
621.66	0.125
621.85	0.125
622.04	0.125
622.23	0.125
622.43	0.125
622.62	0.125
622.81	0.125
623.00	0.125
623.19	0.125
623.39	0.125
623.58	0.125
623.77	0.125
623.96	0.125
624.16	0.125
624.35	0.125
624.54	0.125
624.73	0.125
624.92	0.125
625.12	0.126
625.31	0.126
625.50	0.126
625.69	0.126
625.88	0.126
626.08	0.126
626.27	0.126
626.46	0.126
626.65	0.126
626.84	0.127
627.04	0.127
627.23	0.127
627.42	0.127
627.61	0.127
627.80	0.127
628.00	0.127
628.19	0.127
628.38	0.127
628.57	0.127
628.76	0.127
628.96	0.127
629.15	0.127
629.34	0.127
629.53	0.127
629.72	0.127
629.91	0.127
630.11	0.127
630.30	0.127
630.49	0.127
630.68	0.127
630.87	0.127
631.06	0.127
631.26	0.127
631.45	0.127
631.64	0.127
631.83	0.127
632.02	0.127
632.21	0.127
632.41	0.128
632.60	0.128
632.79	0.128
632.98	0.128
633.17	0.127
633.36	0.127
633.55	0.128
633.75	0.128
633.94	0.128
634.13	0.128
634.32	0.128
634.51	0.128
634.70	0.128
634.89	0.128
635.09	0.128
635.28	0.128
635.47	0.128
635.66	0.128
635.85	0.129
636.04	0.129
636.23	0.129
636.43	0.129
636.62	0.128
636.81	0.128
637.00	0.129
637.19	0.128
637.38	0.128
637.57	0.128
637.76	0.128
637.95	0.128
638.15	0.128
638.34	0.128
638.53	0.128
638.72	0.128
638.91	0.128
639.10	0.128
639.29	0.128
639.48	0.128
639.67	0.128
639.87	0.128
640.06	0.128
640.25	0.128
640.44	0.128
640.63	0.128
640.82	0.128
641.01	0.128
641.20	0.128
641.39	0.128
641.58	0.128
641.78	0.129
641.97	0.129
642.16	0.129
642.35	0.129
642.54	0.129
642.73	0.129
642.92	0.129
643.11	0.129
643.30	0.129
643.49	0.129
643.68	0.129
643.87	0.129
644.06	0.129
644.25	0.129
644.45	0.128
644.64	0.129
644.83	0.129
645.02	0.129
645.21	0.128
645.40	0.128
645.59	0.128
645.78	0.128
645.97	0.128
646.16	0.128
646.35	0.127
646.54	0.127
646.73	0.127
646.92	0.127
647.11	0.126
647.30	0.126
647.49	0.126
647.68	0.126
647.88	0.126
648.07	0.126
648.26	0.126
648.45	0.127
648.64	0.127
648.83	0.126
649.02	0.127
649.21	0.127
649.40	0.127
649.59	0.127
649.78	0.127
649.97	0.127
650.16	0.128
650.35	0.128
650.54	0.128
650.73	0.128
650.92	0.128
651.11	0.128
651.30	0.128
651.49	0.128
651.68	0.128
651.87	0.128
652.06	0.128
652.25	0.128
652.44	0.128
652.63	0.126
652.82	0.125
653.01	0.124
653.20	0.123
653.39	0.122
653.58	0.121
653.77	0.121
653.96	0.120
654.15	0.120
654.34	0.120
654.53	0.120
654.72	0.120
654.91	0.121
655.10	0.121
655.29	0.121
655.48	0.122
655.67	0.122
655.86	0.122
656.05	0.122
656.24	0.122
656.43	0.122
656.62	0.122
656.81	0.123
657.00	0.124
657.19	0.125
657.38	0.126
657.57	0.127
657.76	0.127
657.95	0.128
658.14	0.129
658.33	0.129
658.51	0.130
658.70	0.130
658.89	0.131
659.08	0.130
659.27	0.129
659.46	0.129
659.65	0.128
659.84	0.128
660.03	0.128
660.22	0.128
660.41	0.128
660.60	0.128
660.79	0.128
660.98	0.128
661.17	0.128
661.36	0.128
661.55	0.127
661.74	0.127
661.92	0.127
662.11	0.127
662.30	0.127
662.49	0.127
662.68	0.127
662.87	0.127
663.06	0.127
663.25	0.127
663.44	0.127
663.63	0.127
663.82	0.127
664.01	0.127
664.20	0.127
664.38	0.127
664.57	0.127
664.76	0.127
664.95	0.127
665.14	0.127
665.33	0.127
665.52	0.127
665.71	0.127
665.90	0.127
666.09	0.127
666.28	0.127
666.46	0.127
666.65	0.127
666.84	0.127
667.03	0.128
667.22	0.128
667.41	0.128
667.60	0.128
667.79	0.127
667.98	0.127
668.16	0.128
668.35	0.127
668.54	0.127
668.73	0.127
668.92	0.127
669.11	0.127
669.30	0.127
669.49	0.127
669.67	0.127
669.86	0.126
670.05	0.126
670.24	0.126
670.43	0.126
670.62	0.126
670.81	0.125
671.00	0.125
671.18	0.125
671.37	0.125
671.56	0.125
671.75	0.125
671.94	0.125
672.13	0.125
672.32	0.125
672.50	0.125
672.69	0.126
672.88	0.126
673.07	0.126
673.26	0.126
673.45	0.126
673.63	0.127
673.82	0.127
674.01	0.127
674.20	0.127
674.39	0.127
674.58	0.127
674.76	0.127
674.95	0.127
675.14	0.127
675.33	0.127
675.52	0.127
675.71	0.127
675.89	0.127
676.08	0.127
676.27	0.127
676.46	0.127
676.65	0.127
676.84	0.127
677.02	0.127
677.21	0.127
677.40	0.127
677.59	0.127
677.78	0.127
677.96	0.127
678.15	0.126
678.34	0.126
678.53	0.126
678.72	0.126
678.90	0.126
679.09	0.126
679.28	0.125
679.47	0.125
679.66	0.125
679.84	0.125
680.03	0.125
680.22	0.125
680.41	0.125
680.60	0.125
680.78	0.125
680.97	0.125
681.16	0.125
681.35	0.125
681.53	0.126
681.72	0.125
681.91	0.125
682.10	0.125
682.29	0.125
682.47	0.125
682.66	0.125
682.85	0.125
683.04	0.125
683.22	0.125
683.41	0.125
683.60	0.125
683.79	0.125
683.97	0.125
684.16	0.125
684.35	0.126
684.54	0.126
684.72	0.126
684.91	0.126
685.10	0.126
685.29	0.126
685.47	0.126
685.66	0.126
685.85	0.126
686.04	0.126
686.22	0.126
686.41	0.126
686.60	0.126
686.79	0.126
686.97	0.126
687.16	0.126
687.35	0.126
687.54	0.126
687.72	0.126
687.91	0.126
688.10	0.126
688.29	0.126
688.47	0.125
688.66	0.125
688.85	0.125
689.03	0.125
689.22	0.125
689.41	0.125
689.60	0.125
689.78	0.125
689.97	0.125
690.16	0.125
690.34	0.125
690.53	0.125
690.72	0.125
690.91	0.125
691.09	0.125
691.28	0.125
691.47	0.125
691.65	0.125
691.84	0.125
692.03	0.125
692.21	0.125
692.40	0.125
692.59	0.125
692.77	0.126
692.96	0.125
693.15	0.126
693.34	0.126
693.52	0.126
693.71	0.126
693.90	0.126
694.08	0.126
694.27	0.126
694.46	0.126
694.64	0.126
694.83	0.126
695.02	0.126
695.20	0.125
695.39	0.125
695.58	0.125
695.76	0.125
695.95	0.125
696.14	0.125
696.32	0.125
696.51	0.125
696.70	0.125
696.88	0.125
697.07	0.124
697.26	0.124
697.44	0.124
697.63	0.124
697.81	0.124
698.00	0.125
698.19	0.125
698.37	0.125
698.56	0.125
698.75	0.125
698.93	0.125
699.12	0.125
699.31	0.125
699.49	0.126
699.68	0.125
699.87	0.125
700.05	0.125
700.24	0.125
700.42	0.125
700.61	0.125
700.80	0.125
700.98	0.125
701.17	0.125
701.36	0.125
701.54	0.125
701.73	0.126
701.91	0.126
702.10	0.126
702.29	0.126
702.47	0.126
702.66	0.126
702.84	0.126
703.03	0.126
703.22	0.126
703.40	0.126
703.59	0.126
703.77	0.126
703.96	0.126
704.15	0.126
704.33	0.125
704.52	0.125
704.70	0.125
704.89	0.125
705.08	0.125
705.26	0.125
705.45	0.125
705.63	0.125
705.82	0.124
706.00	0.124
706.19	0.124
706.38	0.124
706.56	0.124
706.75	0.124
706.93	0.124
707.12	0.123
707.30	0.123
707.49	0.123
707.68	0.123
707.86	0.123
708.05	0.123
708.23	0.123
708.42	0.123
708.60	0.123
708.79	0.123
708.98	0.123
709.16	0.123
709.35	0.123
709.53	0.123
709.72	0.124
709.90	0.124
710.09	0.124
710.27	0.124
710.46	0.124
710.64	0.124
710.83	0.124
711.02	0.124
711.20	0.124
711.39	0.123
711.57	0.123
711.76	0.123
711.94	0.123
712.13	0.124
712.31	0.123
712.50	0.123
712.68	0.123
712.87	0.123
713.05	0.123
713.24	0.123
713.42	0.123
713.61	0.123
713.79	0.123
713.98	0.123
714.16	0.123
714.35	0.123
714.54	0.123
714.72	0.123
714.91	0.123
715.09	0.123
715.28	0.122
715.46	0.123
715.65	0.122
715.83	0.122
716.02	0.122
716.20	0.122
716.39	0.121
716.57	0.121
716.76	0.121
716.94	0.121
717.12	0.121
717.31	0.121
717.49	0.121
717.68	0.121
717.86	0.120
718.05	0.120
718.23	0.120
718.42	0.120
718.60	0.120
718.79	0.120
718.97	0.120
719.16	0.120
719.34	0.120
719.53	0.120
719.71	0.120
719.90	0.120
720.08	0.120
720.27	0.120
720.45	0.120
720.63	0.121
720.82	0.121
721.00	0.121
721.19	0.121
721.37	0.121
721.56	0.120
721.74	0.121
721.93	0.120
722.11	0.120
722.30	0.120
722.48	0.120
722.66	0.120
722.85	0.120
723.03	0.120
723.22	0.119
723.40	0.119
723.59	0.119
723.77	0.119
723.95	0.119
724.14	0.119
724.32	0.119
724.51	0.118
724.69	0.118
724.88	0.118
725.06	0.118
725.24	0.118
725.43	0.118
725.61	0.118
725.80	0.117
725.98	0.117
726.16	0.117
726.35	0.117
726.53	0.116
726.72	0.116
726.90	0.116
727.09	0.116
727.27	0.116
727.45	0.116
727.64	0.116
727.82	0.116
728.01	0.115
728.19	0.116
728.37	0.115
728.56	0.115
728.74	0.115
728.92	0.115
729.11	0.115
729.29	0.115
729.48	0.115
729.66	0.115
729.84	0.115
730.03	0.114
730.21	0.114
730.40	0.114
730.58	0.114
730.76	0.114
730.95	0.114
731.13	0.114
731.31	0.113
731.50	0.113
731.68	0.113
731.86	0.113
732.05	0.113
732.23	0.113
732.42	0.113
732.60	0.112
732.78	0.112
732.97	0.111
733.15	0.111
733.33	0.111
733.52	0.110
733.70	0.109
733.88	0.109
734.07	0.108
734.25	0.108
734.43	0.108
734.62	0.107
734.80	0.107
734.98	0.106
735.17	0.107
735.35	0.107
735.53	0.107
735.72	0.107
735.90	0.107
736.08	0.107
736.27	0.107
736.45	0.106
736.63	0.106
736.82	0.107
737.00	0.107
737.18	0.107
737.37	0.107
737.55	0.106
737.73	0.106
737.92	0.106
738.10	0.105
738.28	0.105
738.46	0.106
738.65	0.105
738.83	0.105
739.01	0.106
739.20	0.105
739.38	0.105
739.56	0.106
739.75	0.106
739.93	0.106
740.11	0.106
740.29	0.106
740.48	0.107
740.66	0.107
740.84	0.107
741.03	0.107
741.21	0.108
741.39	0.107
741.57	0.107
741.76	0.107
741.94	0.106
742.12	0.107
742.31	0.107
742.49	0.106
742.67	0.107
742.85	0.107
743.04	0.106
743.22	0.106
743.40	0.106
743.58	0.106
743.77	0.106
743.95	0.107
744.13	0.106
744.31	0.106
744.50	0.106
744.68	0.106
744.86	0.106
745.04	0.106
745.23	0.106
745.41	0.106
745.59	0.106
745.77	0.107
745.96	0.107
746.14	0.107
746.32	0.107
746.50	0.107
746.69	0.108
746.87	0.107
747.05	0.108
747.23	0.107
747.42	0.108
747.60	0.108
747.78	0.108
747.96	0.108
748.14	0.110
748.33	0.110
748.51	0.110
748.69	0.111
748.87	0.111
749.06	0.111
749.24	0.112
749.42	0.112
749.60	0.111
749.78	0.111
749.97	0.111
750.15	0.111
750.33	0.111
750.51	0.111
750.69	0.110
750.88	0.109
751.06	0.108
751.24	0.109
751.42	0.109
751.60	0.110
751.79	0.110
751.97	0.110
752.15	0.109
752.33	0.109
752.51	0.108
752.69	0.108
752.88	0.109
753.06	0.109
753.24	0.109
753.42	0.108
753.60	0.108
753.78	0.107
753.97	0.107
754.15	0.108
754.33	0.107
754.51	0.107
754.69	0.107
754.87	0.107
755.06	0.107
755.24	0.107
755.42	0.107
755.60	0.107
755.78	0.108
755.96	0.109
756.15	0.109
756.33	0.109
756.51	0.110
756.69	0.111
756.87	0.111
757.05	0.111
757.23	0.110
757.42	0.110
757.60	0.110
757.78	0.110
757.96	0.110
758.14	0.110
758.32	0.111
758.50	0.111
758.69	0.111
758.87	0.111
759.05	0.112
759.23	0.112
759.41	0.113
759.59	0.114
759.77	0.114
759.95	0.115
760.13	0.115
760.32	0.115
760.50	0.115
760.68	0.115
760.86	0.115
761.04	0.114
761.22	0.115
761.40	0.114
761.58	0.114
761.76	0.114
761.95	0.114
762.13	0.114
762.31	0.114
762.49	0.114
762.67	0.114
762.85	0.114
763.03	0.114
763.21	0.114
763.39	0.114
763.57	0.115
763.75	0.115
763.94	0.114
764.12	0.114
764.30	0.114
764.48	0.114
764.66	0.114
764.84	0.114
765.02	0.113
765.20	0.113
765.38	0.113
765.56	0.113
765.74	0.113
765.92	0.113
766.10	0.113
766.28	0.113
766.46	0.114
766.65	0.114
766.83	0.114
767.01	0.115
767.19	0.115
767.37	0.115
767.55	0.115
767.73	0.116
767.91	0.116
768.09	0.116
768.27	0.116
768.45	0.116
768.63	0.116
768.81	0.115
768.99	0.116
769.17	0.116
769.35	0.116
769.53	0.116
769.71	0.116
769.89	0.117
770.07	0.117
770.25	0.117
770.43	0.117
770.61	0.118
770.79	0.119
770.97	0.119
771.15	0.119
771.33	0.120
771.51	0.120
771.69	0.120
771.87	0.120
772.05	0.120
772.24	0.120
772.42	0.120
772.60	0.120
772.78	0.120
772.96	0.121
773.14	0.121
773.32	0.120
773.49	0.120
773.67	0.120
773.85	0.120
774.03	0.119
774.21	0.119
774.39	0.119
774.57	0.119
774.75	0.119
774.93	0.118
775.11	0.118
775.29	0.118
775.47	0.118
775.65	0.118
775.83	0.118
776.01	0.118
776.19	0.119
776.37	0.118
776.55	0.119
776.73	0.118
776.91	0.119
777.09	0.119
777.27	0.119
777.45	0.119
777.63	0.120
777.81	0.120
777.99	0.120
778.17	0.120
778.35	0.121
778.53	0.121
778.71	0.121
778.89	0.121
779.07	0.121
779.24	0.120
779.42	0.120
779.60	0.120
779.78	0.119
779.96	0.119
780.14	0.119
780.32	0.119
780.50	0.119
780.68	0.119
780.86	0.119
781.04	0.120
781.22	0.121
781.40	0.122
781.58	0.122
781.75	0.122
781.93	0.123
782.11	0.123
782.29	0.124
782.47	0.124
782.65	0.125
782.83	0.124
783.01	0.125
783.19	0.125
783.37	0.124
783.55	0.124
783.72	0.124
783.90	0.124
784.08	0.124
784.26	0.124
784.44	0.123
784.62	0.123
784.80	0.123
784.98	0.122
785.16	0.122
785.33	0.122
785.51	0.122
785.69	0.121
785.87	0.121
786.05	0.121
786.23	0.121
786.41	0.120
786.59	0.120
786.77	0.120
786.94	0.120
787.12	0.120
787.30	0.119
787.48	0.120
787.66	0.120
787.84	0.120
788.02	0.120
788.19	0.120
788.37	0.121
788.55	0.121
788.73	0.121
788.91	0.122
789.09	0.122
789.27	0.123
789.44	0.123
789.62	0.123
789.80	0.123
789.98	0.123
790.16	0.123
790.34	0.123
790.51	0.123
790.69	0.123
790.87	0.123
791.05	0.122
791.23	0.123
791.41	0.123
791.58	0.122
791.76	0.122
791.94	0.122
792.12	0.122
792.30	0.122
792.48	0.122
792.65	0.123
792.83	0.123
793.01	0.123
793.19	0.123
793.37	0.123
793.54	0.123
793.72	0.123
793.90	0.123
794.08	0.123
794.26	0.124
794.43	0.124
794.61	0.124
794.79	0.125
794.97	0.125
795.15	0.125
795.32	0.125
795.50	0.126
795.68	0.126
795.86	0.126
796.04	0.126
796.21	0.126
796.39	0.126
796.57	0.125
796.75	0.125
796.92	0.125
797.10	0.125
797.28	0.125
797.46	0.124
797.64	0.124
797.81	0.124
797.99	0.124
798.17	0.123
798.35	0.124
798.52	0.124
798.70	0.124
798.88	0.124
799.06	0.124
799.23	0.124
799.41	0.124
799.59	0.124
799.77	0.124
799.94	0.125
800.12	0.125
800.30	0.124
800.48	0.124
800.65	0.124
800.83	0.124
801.01	0.124
801.19	0.124
801.36	0.124
801.54	0.124
801.72	0.124
801.90	0.124
802.07	0.124
802.25	0.124
802.43	0.124
802.60	0.125
802.78	0.125
802.96	0.125
803.14	0.124
803.31	0.124
803.49	0.124
803.67	0.124
803.84	0.124
804.02	0.124
804.20	0.124
804.38	0.124
804.55	0.124
804.73	0.123
804.91	0.123
805.08	0.123
805.26	0.124
805.44	0.124
805.61	0.124
805.79	0.124
805.97	0.124
806.15	0.124
806.32	0.124
806.50	0.124
806.68	0.124
806.85	0.124
807.03	0.125
807.21	0.124
807.38	0.124
807.56	0.125
807.74	0.124
807.91	0.124
808.09	0.123
808.27	0.123
808.44	0.123
808.62	0.123
808.80	0.123
808.97	0.123
809.15	0.123
809.33	0.122
809.50	0.121
809.68	0.122
809.86	0.121
810.03	0.122
810.21	0.121
810.39	0.121
810.56	0.120
810.74	0.120
810.91	0.120
811.09	0.120
811.27	0.119
811.44	0.120
811.62	0.119
811.80	0.119
811.97	0.119
812.15	0.120
812.33	0.121
812.50	0.121
812.68	0.121
812.85	0.121
813.03	0.121
813.21	0.121
813.38	0.121
813.56	0.121
813.74	0.121
813.91	0.120
814.09	0.120
814.26	0.120
814.44	0.120
814.62	0.120
814.79	0.119
814.97	0.120
815.14	0.120
815.32	0.120
815.50	0.120
815.67	0.120
815.85	0.121
816.02	0.121
816.20	0.121
816.38	0.121
816.55	0.121
816.73	0.121
816.90	0.121
817.08	0.120
817.26	0.121
817.43	0.120
817.61	0.120
817.78	0.119
817.96	0.119
818.13	0.119
818.31	0.120
818.49	0.120
818.66	0.120
818.84	0.120
819.01	0.121
819.19	0.120
819.36	0.121
819.54	0.121
819.71	0.122
819.89	0.121
820.07	0.121
820.24	0.121
820.42	0.121
820.59	0.121
820.77	0.120
820.94	0.119
821.12	0.120
821.29	0.119
821.47	0.119
821.64	0.119
821.82	0.119
822.00	0.118
822.17	0.118
822.35	0.117
822.52	0.117
822.70	0.117
822.87	0.117
823.05	0.116
823.22	0.116
823.40	0.115
823.57	0.115
823.75	0.115
823.92	0.115
824.10	0.114
824.27	0.114
824.45	0.114
824.62	0.113
824.80	0.114
824.97	0.114
825.15	0.114
825.32	0.114
825.50	0.114
825.67	0.114
825.85	0.114
826.02	0.114
826.20	0.114
826.37	0.115
826.55	0.115
826.72	0.115
826.90	0.115
827.07	0.115
827.25	0.115
827.42	0.114
827.60	0.114
827.77	0.115
827.95	0.114
828.12	0.114
828.30	0.114
828.47	0.113
828.65	0.113
828.82	0.113
829.00	0.113
829.17	0.113
829.34	0.114
829.52	0.114
829.69	0.114
829.87	0.113
830.04	0.113
830.22	0.113
830.39	0.112
830.57	0.112
830.74	0.112
830.92	0.112
831.09	0.111
831.26	0.112
831.44	0.112
831.61	0.112
831.79	0.113
831.96	0.111
832.14	0.111
832.31	0.110
832.49	0.110
832.66	0.109
832.83	0.109
833.01	0.107
833.18	0.105
833.36	0.103
833.53	0.102
833.70	0.100
833.88	0.101
834.05	0.100
834.23	0.099
834.40	0.098
834.58	0.098
834.75	0.097
834.92	0.096
835.10	0.095
835.27	0.095
835.45	0.094
835.62	0.094
835.79	0.095
835.97	0.093
836.14	0.093
836.32	0.093
836.49	0.093
836.66	0.092
836.84	0.094
837.01	0.093
837.18	0.094
837.36	0.095
837.53	0.095
837.71	0.095
837.88	0.098
838.05	0.097
838.23	0.099
838.40	0.100
838.58	0.099
838.75	0.099
838.92	0.098
839.10	0.097
839.27	0.096
839.44	0.096
839.62	0.097
839.79	0.095
839.96	0.097
840.14	0.096
840.31	0.095
840.48	0.097
840.66	0.099
840.83	0.100
841.01	0.102
841.18	0.104
841.35	0.102
841.53	0.100
841.70	0.100
841.87	0.098
842.05	0.098
842.22	0.099
842.39	0.098
842.57	0.097
842.74	0.098
842.91	0.102
843.09	0.101
843.26	0.105
843.43	0.106
843.60	0.106
843.78	0.107
843.95	0.107
844.12	0.105
844.30	0.109
844.47	0.108
844.64	0.109
844.82	0.105
844.99	0.104
845.16	0.105
845.34	0.101
845.51	0.102
845.68	0.104
845.85	0.104
846.03	0.104
846.20	0.103
846.37	0.106
846.55	0.108
846.72	0.110
846.89	0.107
847.06	0.103
847.24	0.103
847.41	0.101
847.58	0.100
847.76	0.099
847.93	0.098
848.10	0.095
848.27	0.092
848.45	0.092
848.62	0.091
848.79	0.092
848.97	0.093
849.14	0.094
849.31	0.098
849.48	0.096
849.66	0.097
849.83	0.095
850.00	0.095
850.17	0.096
850.35	0.093
850.52	0.092
850.69	0.093
850.86	0.093
851.04	0.093
851.21	0.092
851.38	0.091
851.55	0.090
851.72	0.092
851.90	0.094
852.07	0.094
852.24	0.096
852.41	0.097
852.59	0.097
852.76	0.099
852.93	0.098
853.10	0.099
853.28	0.102
853.45	0.102
853.62	0.104
853.79	0.103
853.96	0.100
854.14	0.101
854.31	0.103
854.48	0.104
854.65	0.104
854.82	0.106
855.00	0.106
855.17	0.105
855.34	0.106
855.51	0.104
855.68	0.103
855.86	0.105
856.03	0.102
856.20	0.097
856.37	0.095
856.54	0.095
856.72	0.093
856.89	0.090
857.06	0.092
857.23	0.092
857.40	0.092
857.57	0.092
857.75	0.096
857.92	0.100
858.09	0.106
858.26	0.106
858.43	0.103
858.60	0.107
858.78	0.109
858.95	0.108
859.12	0.109
859.29	0.107
859.46	0.108
859.63	0.110
859.81	0.109
859.98	0.107
860.15	0.108
860.32	0.114
860.49	0.111
860.66	0.111
860.83	0.110
861.01	0.111
861.18	0.111
861.35	0.109
861.52	0.107
861.69	0.104
861.86	0.100
862.03	0.100
862.21	0.099
862.38	0.098
862.55	0.096
862.72	0.099
862.89	0.099
863.06	0.098
863.23	0.101
863.40	0.095
863.58	0.093
863.75	0.095
863.92	0.092
864.09	0.088
864.26	0.085
864.43	0.088
864.60	0.084
864.77	0.082
864.94	0.087
865.11	0.085
865.29	0.091
865.46	0.095
865.63	0.095
865.80	0.097
865.97	0.099
866.14	0.104
866.31	0.102
866.48	0.103
866.65	0.106
866.82	0.104
866.99	0.104
867.16	0.096
867.34	0.097
867.51	0.103
867.68	0.105
867.85	0.101
868.02	0.095
868.19	0.095
868.36	0.094
868.53	0.088
868.70	0.089
868.87	0.085
869.04	0.094
869.21	0.093
869.38	0.091
869.55	0.087
869.72	0.089
869.89	0.100
870.06	0.099
870.24	0.099
870.41	0.102
870.58	0.100
870.75	0.109
870.92	0.114
871.09	0.111
871.26	0.110
871.43	0.116
871.60	0.119
871.77	0.111
871.94	0.116
872.11	0.119
872.28	0.121
872.45	0.123
872.62	0.118
872.79	0.109
872.96	0.111
873.13	0.111
873.30	0.103
873.47	0.101
873.64	0.098
873.81	0.096
873.98	0.095
874.15	0.097
874.32	0.093
874.49	0.099
874.66	0.099
874.83	0.104
875.00	0.101
875.17	0.105
875.34	0.105
875.51	0.112
875.68	0.112
875.85	0.108
876.02	0.111
876.19	0.111
876.36	0.104
876.53	0.106
876.70	0.101
876.87	0.098
877.04	0.097
877.21	0.099
877.38	0.096
877.55	0.100
877.72	0.104
877.89	0.100
878.06	0.093
878.23	0.094
878.39	0.090
878.56	0.090
878.73	0.093
878.90	0.091
879.07	0.090
879.24	0.090
879.41	0.090
879.58	0.087
879.75	0.089
879.92	0.091
880.09	0.089
880.26	0.090
880.43	0.090
880.60	0.097
880.77	0.099
880.94	0.102
881.11	0.103
881.27	0.100
881.44	0.099
881.61	0.099
881.78	0.103
881.95	0.106
882.12	0.106
882.29	0.105
882.46	0.099
882.63	0.103
882.80	0.094
882.97	0.095
883.14	0.086
883.30	0.091
883.47	0.094
883.64	0.091
883.81	0.094
883.98	0.096
884.15	0.099
884.32	0.100
884.49	0.098
884.66	0.099
884.82	0.098
884.99	0.106
885.16	0.105
885.33	0.092
885.50	0.098
885.67	0.110
885.84	0.114
886.01	0.099
886.17	0.096
886.34	0.101
886.51	0.108
886.68	0.109
886.85	0.107
887.02	0.113
887.19	0.118
887.36	0.105
887.52	0.097
887.69	0.096
887.86	0.105
888.03	0.110
888.20	0.105
888.37	0.102
888.54	0.102
888.70	0.105
888.87	0.095
889.04	0.092
889.21	0.089
889.38	0.087
889.55	0.078
889.71	0.093
889.88	0.036
890.05	-0.046
890.22	0.121
890.39	0.023
>>>>>End Processed Spectral Data<<<<<
