SpectraSuite Data File
++++++++++++++++++++++++++++++++++++
Date: Mon Jun 15 05:28:09 PDT 2015
User: introlabs
Dark Spectrum Present: Yes
Reference Spectrum Present: Yes
Number of Sampled Component Spectra: 1
Spectrometers: USB4H08886
Integration Time (usec): 99009 (USB4H08886)
Spectra Averaged: 20 (USB4H08886)
Boxcar Smoothing: 5 (USB4H08886)
Correct for Electrical Dark: Yes (USB4H08886)
Strobe/Lamp Enabled: No (USB4H08886)
Correct for Detector Non-linearity: Yes (USB4H08886)
Correct for Stray Light: Yes (USB4H08886)
Number of Pixels in Processed Spectrum: 3648
>>>>>Begin Processed Spectral Data<<<<<
178.14	-0.000
178.36	-0.000
178.57	-0.000
178.79	-0.471
179.01	0.107
179.22	-0.489
179.44	-0.309
179.65	-0.211
179.87	-0.154
180.08	-0.249
180.30	-0.400
180.52	-0.496
180.73	-1.182
180.95	2.303
181.16	-0.288
181.38	-0.291
181.59	-0.278
181.81	-0.301
182.03	-0.325
182.24	-0.336
182.46	-0.347
182.67	-0.360
182.89	-0.361
183.10	-0.368
183.32	-0.356
183.54	-0.354
183.75	-0.366
183.97	-0.369
184.18	-0.362
184.40	-0.361
184.61	-0.368
184.83	-0.387
185.04	-0.386
185.26	-0.402
185.48	-0.381
185.69	-0.392
185.91	-0.394
186.12	-0.396
186.34	-0.402
186.55	-0.398
186.77	-0.386
186.98	-0.381
187.20	-0.372
187.42	-0.383
187.63	-0.392
187.85	-0.413
188.06	-0.419
188.28	-0.414
188.49	-0.409
188.71	-0.406
188.92	-0.411
189.14	-0.413
189.36	-0.406
189.57	-0.415
189.79	-0.396
190.00	-0.370
190.22	-0.355
190.43	-0.352
190.65	-0.361
190.86	-0.355
191.08	-0.348
191.29	-0.341
191.51	-0.359
191.72	-0.352
191.94	-0.337
192.16	-0.348
192.37	-0.341
192.59	-0.341
192.80	-0.350
193.02	-0.330
193.23	-0.335
193.45	-0.341
193.66	-0.350
193.88	-0.340
194.09	-0.349
194.31	-0.351
194.52	-0.346
194.74	-0.367
194.95	-0.368
195.17	-0.368
195.38	-0.389
195.60	-0.387
195.81	-0.380
196.03	-0.381
196.25	-0.377
196.46	-0.384
196.68	-0.393
196.89	-0.389
197.11	-0.383
197.32	-0.391
197.54	-0.387
197.75	-0.390
197.97	-0.383
198.18	-0.378
198.40	-0.381
198.61	-0.383
198.83	-0.375
199.04	-0.371
199.26	-0.366
199.47	-0.363
199.69	-0.359
199.90	-0.363
200.12	-0.349
200.33	-0.352
200.55	-0.361
200.76	-0.362
200.98	-0.355
201.19	-0.357
201.41	-0.364
201.62	-0.378
201.84	-0.380
202.05	-0.379
202.27	-0.363
202.48	-0.377
202.70	-0.376
202.91	-0.382
203.13	-0.379
203.34	-0.384
203.56	-0.388
203.77	-0.379
203.99	-0.373
204.20	-0.361
204.42	-0.368
204.63	-0.368
204.85	-0.362
205.06	-0.366
205.28	-0.359
205.49	-0.360
205.71	-0.364
205.92	-0.368
206.14	-0.368
206.35	-0.366
206.56	-0.363
206.78	-0.347
206.99	-0.344
207.21	-0.352
207.42	-0.354
207.64	-0.362
207.85	-0.348
208.07	-0.341
208.28	-0.341
208.50	-0.332
208.71	-0.328
208.93	-0.334
209.14	-0.350
209.36	-0.367
209.57	-0.362
209.79	-0.362
210.00	-0.354
210.22	-0.365
210.43	-0.365
210.64	-0.364
210.86	-0.374
211.07	-0.380
211.29	-0.389
211.50	-0.386
211.72	-0.374
211.93	-0.376
212.15	-0.375
212.36	-0.367
212.58	-0.362
212.79	-0.364
213.01	-0.350
213.22	-0.353
213.43	-0.353
213.65	-0.349
213.86	-0.344
214.08	-0.349
214.29	-0.339
214.51	-0.338
214.72	-0.349
214.94	-0.356
215.15	-0.351
215.36	-0.368
215.58	-0.368
215.79	-0.370
216.01	-0.376
216.22	-0.373
216.44	-0.383
216.65	-0.390
216.87	-0.391
217.08	-0.385
217.29	-0.379
217.51	-0.384
217.72	-0.374
217.94	-0.376
218.15	-0.376
218.37	-0.376
218.58	-0.386
218.80	-0.374
219.01	-0.373
219.22	-0.376
219.44	-0.377
219.65	-0.373
219.87	-0.369
220.08	-0.373
220.30	-0.374
220.51	-0.376
220.72	-0.373
220.94	-0.374
221.15	-0.387
221.37	-0.392
221.58	-0.377
221.79	-0.382
222.01	-0.389
222.22	-0.389
222.44	-0.395
222.65	-0.385
222.87	-0.385
223.08	-0.386
223.29	-0.384
223.51	-0.374
223.72	-0.367
223.94	-0.379
224.15	-0.379
224.36	-0.383
224.58	-0.402
224.79	-0.393
225.01	-0.410
225.22	-0.410
225.44	-0.423
225.65	-0.419
225.86	-0.413
226.08	-0.418
226.29	-0.412
226.51	-0.414
226.72	-0.413
226.93	-0.414
227.15	-0.418
227.36	-0.409
227.58	-0.409
227.79	-0.406
228.00	-0.409
228.22	-0.422
228.43	-0.422
228.65	-0.431
228.86	-0.436
229.07	-0.430
229.29	-0.414
229.50	-0.419
229.72	-0.424
229.93	-0.429
230.14	-0.430
230.36	-0.431
230.57	-0.424
230.78	-0.434
231.00	-0.433
231.21	-0.430
231.43	-0.440
231.64	-0.447
231.85	-0.442
232.07	-0.442
232.28	-0.438
232.50	-0.440
232.71	-0.442
232.92	-0.444
233.14	-0.437
233.35	-0.439
233.56	-0.440
233.78	-0.435
233.99	-0.439
234.21	-0.443
234.42	-0.442
234.63	-0.450
234.85	-0.452
235.06	-0.454
235.27	-0.457
235.49	-0.465
235.70	-0.468
235.91	-0.472
236.13	-0.473
236.34	-0.473
236.56	-0.474
236.77	-0.478
236.98	-0.475
237.20	-0.474
237.41	-0.476
237.62	-0.475
237.84	-0.472
238.05	-0.472
238.26	-0.469
238.48	-0.471
238.69	-0.470
238.91	-0.469
239.12	-0.468
239.33	-0.467
239.55	-0.465
239.76	-0.464
239.97	-0.463
240.19	-0.463
240.40	-0.462
240.61	-0.464
240.83	-0.463
241.04	-0.463
241.25	-0.464
241.47	-0.463
241.68	-0.462
241.89	-0.461
242.11	-0.461
242.32	-0.460
242.53	-0.460
242.75	-0.459
242.96	-0.459
243.17	-0.459
243.39	-0.457
243.60	-0.456
243.81	-0.455
244.03	-0.454
244.24	-0.454
244.45	-0.452
244.67	-0.452
244.88	-0.450
245.09	-0.450
245.31	-0.450
245.52	-0.449
245.73	-0.449
245.95	-0.449
246.16	-0.449
246.37	-0.449
246.59	-0.448
246.80	-0.448
247.01	-0.448
247.23	-0.449
247.44	-0.448
247.65	-0.447
247.87	-0.447
248.08	-0.447
248.29	-0.447
248.51	-0.446
248.72	-0.446
248.93	-0.446
249.15	-0.445
249.36	-0.445
249.57	-0.444
249.78	-0.445
250.00	-0.444
250.21	-0.444
250.42	-0.444
250.64	-0.444
250.85	-0.443
251.06	-0.443
251.28	-0.443
251.49	-0.443
251.70	-0.444
251.92	-0.443
252.13	-0.442
252.34	-0.443
252.55	-0.442
252.77	-0.442
252.98	-0.441
253.19	-0.441
253.41	-0.441
253.62	-0.441
253.83	-0.441
254.05	-0.440
254.26	-0.440
254.47	-0.440
254.68	-0.440
254.90	-0.440
255.11	-0.439
255.32	-0.440
255.54	-0.439
255.75	-0.440
255.96	-0.439
256.17	-0.440
256.39	-0.440
256.60	-0.440
256.81	-0.440
257.03	-0.440
257.24	-0.441
257.45	-0.441
257.66	-0.441
257.88	-0.441
258.09	-0.441
258.30	-0.441
258.51	-0.441
258.73	-0.441
258.94	-0.442
259.15	-0.441
259.37	-0.441
259.58	-0.441
259.79	-0.441
260.00	-0.441
260.22	-0.441
260.43	-0.441
260.64	-0.441
260.85	-0.441
261.07	-0.441
261.28	-0.441
261.49	-0.441
261.71	-0.440
261.92	-0.440
262.13	-0.440
262.34	-0.440
262.56	-0.440
262.77	-0.440
262.98	-0.439
263.19	-0.439
263.41	-0.439
263.62	-0.439
263.83	-0.439
264.04	-0.439
264.26	-0.439
264.47	-0.439
264.68	-0.439
264.89	-0.438
265.11	-0.438
265.32	-0.438
265.53	-0.438
265.74	-0.438
265.96	-0.438
266.17	-0.438
266.38	-0.437
266.59	-0.438
266.81	-0.438
267.02	-0.437
267.23	-0.438
267.44	-0.438
267.65	-0.438
267.87	-0.437
268.08	-0.437
268.29	-0.437
268.50	-0.436
268.72	-0.436
268.93	-0.436
269.14	-0.436
269.35	-0.436
269.57	-0.436
269.78	-0.435
269.99	-0.435
270.20	-0.436
270.41	-0.435
270.63	-0.435
270.84	-0.435
271.05	-0.435
271.26	-0.434
271.48	-0.433
271.69	-0.433
271.90	-0.432
272.11	-0.432
272.32	-0.431
272.54	-0.431
272.75	-0.431
272.96	-0.430
273.17	-0.430
273.39	-0.430
273.60	-0.429
273.81	-0.429
274.02	-0.429
274.23	-0.429
274.45	-0.428
274.66	-0.428
274.87	-0.428
275.08	-0.427
275.29	-0.427
275.51	-0.427
275.72	-0.426
275.93	-0.426
276.14	-0.425
276.35	-0.424
276.57	-0.423
276.78	-0.423
276.99	-0.422
277.20	-0.422
277.41	-0.421
277.63	-0.420
277.84	-0.420
278.05	-0.419
278.26	-0.419
278.47	-0.419
278.69	-0.418
278.90	-0.418
279.11	-0.417
279.32	-0.417
279.53	-0.416
279.74	-0.415
279.96	-0.415
280.17	-0.414
280.38	-0.414
280.59	-0.413
280.80	-0.412
281.02	-0.412
281.23	-0.411
281.44	-0.411
281.65	-0.410
281.86	-0.410
282.07	-0.410
282.29	-0.409
282.50	-0.408
282.71	-0.408
282.92	-0.408
283.13	-0.407
283.35	-0.407
283.56	-0.406
283.77	-0.405
283.98	-0.405
284.19	-0.404
284.40	-0.404
284.62	-0.403
284.83	-0.402
285.04	-0.402
285.25	-0.401
285.46	-0.401
285.67	-0.400
285.88	-0.400
286.10	-0.399
286.31	-0.399
286.52	-0.398
286.73	-0.397
286.94	-0.397
287.15	-0.397
287.37	-0.396
287.58	-0.396
287.79	-0.395
288.00	-0.394
288.21	-0.394
288.42	-0.394
288.63	-0.393
288.85	-0.392
289.06	-0.392
289.27	-0.391
289.48	-0.391
289.69	-0.390
289.90	-0.390
290.11	-0.390
290.33	-0.389
290.54	-0.388
290.75	-0.388
290.96	-0.388
291.17	-0.387
291.38	-0.387
291.59	-0.386
291.81	-0.386
292.02	-0.386
292.23	-0.385
292.44	-0.385
292.65	-0.385
292.86	-0.385
293.07	-0.384
293.28	-0.384
293.50	-0.383
293.71	-0.383
293.92	-0.382
294.13	-0.382
294.34	-0.382
294.55	-0.382
294.76	-0.381
294.97	-0.381
295.19	-0.380
295.40	-0.380
295.61	-0.380
295.82	-0.380
296.03	-0.380
296.24	-0.379
296.45	-0.379
296.66	-0.379
296.87	-0.379
297.09	-0.378
297.30	-0.378
297.51	-0.378
297.72	-0.378
297.93	-0.378
298.14	-0.377
298.35	-0.377
298.56	-0.377
298.77	-0.377
298.99	-0.377
299.20	-0.376
299.41	-0.376
299.62	-0.376
299.83	-0.376
300.04	-0.376
300.25	-0.376
300.46	-0.375
300.67	-0.375
300.88	-0.375
301.10	-0.375
301.31	-0.375
301.52	-0.375
301.73	-0.375
301.94	-0.374
302.15	-0.374
302.36	-0.374
302.57	-0.374
302.78	-0.374
302.99	-0.374
303.20	-0.373
303.41	-0.373
303.63	-0.373
303.84	-0.373
304.05	-0.373
304.26	-0.373
304.47	-0.372
304.68	-0.372
304.89	-0.372
305.10	-0.372
305.31	-0.372
305.52	-0.372
305.73	-0.371
305.94	-0.371
306.15	-0.371
306.37	-0.371
306.58	-0.371
306.79	-0.371
307.00	-0.371
307.21	-0.371
307.42	-0.370
307.63	-0.371
307.84	-0.370
308.05	-0.370
308.26	-0.370
308.47	-0.370
308.68	-0.370
308.89	-0.370
309.10	-0.370
309.31	-0.370
309.52	-0.369
309.73	-0.369
309.95	-0.369
310.16	-0.369
310.37	-0.369
310.58	-0.369
310.79	-0.369
311.00	-0.368
311.21	-0.368
311.42	-0.368
311.63	-0.368
311.84	-0.368
312.05	-0.367
312.26	-0.367
312.47	-0.367
312.68	-0.367
312.89	-0.367
313.10	-0.367
313.31	-0.367
313.52	-0.367
313.73	-0.366
313.94	-0.366
314.15	-0.366
314.36	-0.366
314.57	-0.366
314.78	-0.366
314.99	-0.365
315.21	-0.365
315.42	-0.365
315.63	-0.365
315.84	-0.365
316.05	-0.365
316.26	-0.365
316.47	-0.365
316.68	-0.364
316.89	-0.364
317.10	-0.364
317.31	-0.364
317.52	-0.364
317.73	-0.364
317.94	-0.364
318.15	-0.364
318.36	-0.364
318.57	-0.364
318.78	-0.364
318.99	-0.364
319.20	-0.364
319.41	-0.363
319.62	-0.363
319.83	-0.363
320.04	-0.363
320.25	-0.363
320.46	-0.363
320.67	-0.363
320.88	-0.363
321.09	-0.363
321.30	-0.363
321.51	-0.363
321.72	-0.363
321.93	-0.363
322.14	-0.363
322.35	-0.362
322.56	-0.362
322.77	-0.362
322.98	-0.362
323.19	-0.362
323.40	-0.362
323.61	-0.361
323.82	-0.361
324.03	-0.361
324.24	-0.361
324.45	-0.361
324.66	-0.361
324.87	-0.361
325.08	-0.361
325.29	-0.361
325.50	-0.361
325.71	-0.360
325.92	-0.360
326.13	-0.360
326.34	-0.360
326.55	-0.360
326.76	-0.360
326.97	-0.360
327.18	-0.360
327.39	-0.360
327.60	-0.360
327.80	-0.360
328.01	-0.360
328.22	-0.360
328.43	-0.360
328.64	-0.360
328.85	-0.360
329.06	-0.360
329.27	-0.360
329.48	-0.360
329.69	-0.360
329.90	-0.360
330.11	-0.359
330.32	-0.359
330.53	-0.359
330.74	-0.359
330.95	-0.359
331.16	-0.359
331.37	-0.359
331.58	-0.359
331.79	-0.358
332.00	-0.358
332.21	-0.358
332.42	-0.358
332.63	-0.358
332.83	-0.358
333.04	-0.358
333.25	-0.358
333.46	-0.358
333.67	-0.358
333.88	-0.358
334.09	-0.358
334.30	-0.358
334.51	-0.358
334.72	-0.358
334.93	-0.357
335.14	-0.357
335.35	-0.357
335.56	-0.357
335.77	-0.357
335.98	-0.357
336.18	-0.357
336.39	-0.357
336.60	-0.357
336.81	-0.357
337.02	-0.357
337.23	-0.357
337.44	-0.357
337.65	-0.357
337.86	-0.357
338.07	-0.357
338.28	-0.357
338.49	-0.357
338.70	-0.357
338.91	-0.356
339.11	-0.357
339.32	-0.357
339.53	-0.357
339.74	-0.357
339.95	-0.357
340.16	-0.356
340.37	-0.356
340.58	-0.356
340.79	-0.356
341.00	-0.356
341.21	-0.356
341.41	-0.356
341.62	-0.356
341.83	-0.356
342.04	-0.356
342.25	-0.355
342.46	-0.355
342.67	-0.355
342.88	-0.355
343.09	-0.355
343.30	-0.355
343.50	-0.355
343.71	-0.355
343.92	-0.355
344.13	-0.355
344.34	-0.355
344.55	-0.355
344.76	-0.355
344.97	-0.355
345.18	-0.355
345.38	-0.355
345.59	-0.355
345.80	-0.355
346.01	-0.355
346.22	-0.355
346.43	-0.355
346.64	-0.355
346.85	-0.355
347.06	-0.355
347.26	-0.355
347.47	-0.355
347.68	-0.354
347.89	-0.354
348.10	-0.354
348.31	-0.354
348.52	-0.354
348.73	-0.354
348.93	-0.354
349.14	-0.354
349.35	-0.354
349.56	-0.354
349.77	-0.354
349.98	-0.354
350.19	-0.354
350.39	-0.354
350.60	-0.354
350.81	-0.354
351.02	-0.354
351.23	-0.354
351.44	-0.354
351.65	-0.354
351.86	-0.354
352.06	-0.354
352.27	-0.354
352.48	-0.354
352.69	-0.354
352.90	-0.354
353.11	-0.353
353.31	-0.353
353.52	-0.353
353.73	-0.353
353.94	-0.353
354.15	-0.353
354.36	-0.353
354.57	-0.353
354.77	-0.353
354.98	-0.353
355.19	-0.353
355.40	-0.353
355.61	-0.353
355.82	-0.353
356.02	-0.353
356.23	-0.353
356.44	-0.353
356.65	-0.353
356.86	-0.353
357.07	-0.352
357.27	-0.353
357.48	-0.352
357.69	-0.352
357.90	-0.352
358.11	-0.352
358.32	-0.352
358.52	-0.352
358.73	-0.352
358.94	-0.352
359.15	-0.352
359.36	-0.352
359.56	-0.352
359.77	-0.352
359.98	-0.352
360.19	-0.352
360.40	-0.352
360.61	-0.352
360.81	-0.351
361.02	-0.351
361.23	-0.352
361.44	-0.351
361.65	-0.351
361.85	-0.351
362.06	-0.351
362.27	-0.351
362.48	-0.351
362.69	-0.351
362.89	-0.350
363.10	-0.350
363.31	-0.350
363.52	-0.350
363.73	-0.350
363.93	-0.350
364.14	-0.350
364.35	-0.349
364.56	-0.348
364.77	-0.348
364.97	-0.348
365.18	-0.347
365.39	-0.347
365.60	-0.346
365.81	-0.346
366.01	-0.345
366.22	-0.345
366.43	-0.344
366.64	-0.344
366.84	-0.344
367.05	-0.343
367.26	-0.343
367.47	-0.343
367.68	-0.342
367.88	-0.342
368.09	-0.342
368.30	-0.342
368.51	-0.342
368.71	-0.342
368.92	-0.342
369.13	-0.342
369.34	-0.343
369.55	-0.343
369.75	-0.343
369.96	-0.344
370.17	-0.344
370.38	-0.345
370.58	-0.345
370.79	-0.345
371.00	-0.346
371.21	-0.346
371.41	-0.346
371.62	-0.346
371.83	-0.346
372.04	-0.346
372.24	-0.347
372.45	-0.346
372.66	-0.346
372.87	-0.347
373.07	-0.346
373.28	-0.346
373.49	-0.346
373.70	-0.346
373.90	-0.346
374.11	-0.346
374.32	-0.346
374.53	-0.346
374.73	-0.346
374.94	-0.346
375.15	-0.346
375.36	-0.346
375.56	-0.346
375.77	-0.346
375.98	-0.345
376.19	-0.345
376.39	-0.345
376.60	-0.345
376.81	-0.344
377.02	-0.344
377.22	-0.343
377.43	-0.343
377.64	-0.343
377.84	-0.342
378.05	-0.342
378.26	-0.341
378.47	-0.341
378.67	-0.340
378.88	-0.340
379.09	-0.339
379.30	-0.339
379.50	-0.339
379.71	-0.338
379.92	-0.338
380.12	-0.338
380.33	-0.338
380.54	-0.338
380.75	-0.338
380.95	-0.339
381.16	-0.339
381.37	-0.340
381.57	-0.340
381.78	-0.340
381.99	-0.341
382.20	-0.341
382.40	-0.342
382.61	-0.343
382.82	-0.343
383.02	-0.343
383.23	-0.344
383.44	-0.344
383.64	-0.344
383.85	-0.344
384.06	-0.345
384.27	-0.345
384.47	-0.345
384.68	-0.345
384.89	-0.345
385.09	-0.345
385.30	-0.345
385.51	-0.344
385.71	-0.344
385.92	-0.345
386.13	-0.344
386.33	-0.344
386.54	-0.344
386.75	-0.344
386.95	-0.343
387.16	-0.343
387.37	-0.343
387.58	-0.343
387.78	-0.343
387.99	-0.343
388.20	-0.343
388.40	-0.343
388.61	-0.343
388.82	-0.343
389.02	-0.343
389.23	-0.343
389.44	-0.343
389.64	-0.343
389.85	-0.342
390.06	-0.342
390.26	-0.342
390.47	-0.341
390.68	-0.341
390.88	-0.340
391.09	-0.339
391.30	-0.338
391.50	-0.337
391.71	-0.336
391.92	-0.335
392.12	-0.334
392.33	-0.333
392.53	-0.332
392.74	-0.332
392.95	-0.332
393.15	-0.331
393.36	-0.331
393.57	-0.331
393.77	-0.332
393.98	-0.332
394.19	-0.333
394.39	-0.334
394.60	-0.335
394.81	-0.335
395.01	-0.337
395.22	-0.338
395.43	-0.338
395.63	-0.339
395.84	-0.339
396.04	-0.340
396.25	-0.339
396.46	-0.339
396.66	-0.337
396.87	-0.336
397.08	-0.335
397.28	-0.333
397.49	-0.332
397.69	-0.330
397.90	-0.329
398.11	-0.328
398.31	-0.326
398.52	-0.325
398.73	-0.325
398.93	-0.324
399.14	-0.325
399.34	-0.325
399.55	-0.325
399.76	-0.325
399.96	-0.326
400.17	-0.328
400.37	-0.329
400.58	-0.331
400.79	-0.332
400.99	-0.333
401.20	-0.335
401.41	-0.336
401.61	-0.337
401.82	-0.339
402.02	-0.339
402.23	-0.340
402.44	-0.341
402.64	-0.341
402.85	-0.341
403.05	-0.341
403.26	-0.341
403.47	-0.341
403.67	-0.341
403.88	-0.340
404.08	-0.340
404.29	-0.340
404.50	-0.339
404.70	-0.339
404.91	-0.339
405.11	-0.339
405.32	-0.339
405.52	-0.339
405.73	-0.339
405.94	-0.339
406.14	-0.339
406.35	-0.339
406.55	-0.339
406.76	-0.339
406.97	-0.339
407.17	-0.339
407.38	-0.339
407.58	-0.339
407.79	-0.339
407.99	-0.340
408.20	-0.340
408.41	-0.341
408.61	-0.341
408.82	-0.341
409.02	-0.341
409.23	-0.341
409.43	-0.341
409.64	-0.341
409.84	-0.341
410.05	-0.341
410.26	-0.341
410.46	-0.341
410.67	-0.341
410.87	-0.341
411.08	-0.341
411.28	-0.341
411.49	-0.341
411.69	-0.341
411.90	-0.341
412.11	-0.341
412.31	-0.341
412.52	-0.341
412.72	-0.341
412.93	-0.341
413.13	-0.341
413.34	-0.341
413.54	-0.341
413.75	-0.341
413.95	-0.341
414.16	-0.341
414.37	-0.341
414.57	-0.342
414.78	-0.342
414.98	-0.342
415.19	-0.342
415.39	-0.342
415.60	-0.342
415.80	-0.342
416.01	-0.342
416.21	-0.342
416.42	-0.342
416.62	-0.342
416.83	-0.342
417.03	-0.342
417.24	-0.342
417.44	-0.342
417.65	-0.342
417.86	-0.342
418.06	-0.342
418.27	-0.342
418.47	-0.342
418.68	-0.342
418.88	-0.342
419.09	-0.342
419.29	-0.341
419.50	-0.341
419.70	-0.340
419.91	-0.340
420.11	-0.339
420.32	-0.339
420.52	-0.338
420.73	-0.337
420.93	-0.336
421.14	-0.335
421.34	-0.334
421.55	-0.333
421.75	-0.332
421.96	-0.332
422.16	-0.331
422.37	-0.330
422.57	-0.330
422.78	-0.330
422.98	-0.330
423.19	-0.331
423.39	-0.331
423.60	-0.332
423.80	-0.333
424.01	-0.334
424.21	-0.335
424.42	-0.337
424.62	-0.338
424.83	-0.339
425.03	-0.339
425.23	-0.340
425.44	-0.340
425.64	-0.341
425.85	-0.341
426.05	-0.341
426.26	-0.341
426.46	-0.341
426.67	-0.341
426.87	-0.341
427.08	-0.341
427.28	-0.341
427.49	-0.340
427.69	-0.339
427.90	-0.338
428.10	-0.338
428.31	-0.337
428.51	-0.336
428.71	-0.334
428.92	-0.332
429.12	-0.331
429.33	-0.329
429.53	-0.327
429.74	-0.326
429.94	-0.325
430.15	-0.323
430.35	-0.322
430.56	-0.322
430.76	-0.321
430.96	-0.321
431.17	-0.322
431.37	-0.323
431.58	-0.324
431.78	-0.326
431.99	-0.328
432.19	-0.330
432.40	-0.332
432.60	-0.334
432.80	-0.335
433.01	-0.337
433.21	-0.338
433.42	-0.339
433.62	-0.340
433.83	-0.341
434.03	-0.340
434.23	-0.340
434.44	-0.340
434.64	-0.340
434.85	-0.340
435.05	-0.340
435.26	-0.340
435.46	-0.340
435.66	-0.340
435.87	-0.340
436.07	-0.340
436.28	-0.340
436.48	-0.339
436.69	-0.339
436.89	-0.339
437.09	-0.339
437.30	-0.339
437.50	-0.339
437.71	-0.339
437.91	-0.339
438.11	-0.339
438.32	-0.339
438.52	-0.340
438.73	-0.340
438.93	-0.340
439.13	-0.340
439.34	-0.340
439.54	-0.340
439.75	-0.340
439.95	-0.340
440.15	-0.340
440.36	-0.340
440.56	-0.340
440.77	-0.340
440.97	-0.340
441.17	-0.340
441.38	-0.340
441.58	-0.340
441.79	-0.340
441.99	-0.340
442.19	-0.340
442.40	-0.340
442.60	-0.340
442.81	-0.340
443.01	-0.340
443.21	-0.340
443.42	-0.340
443.62	-0.340
443.82	-0.340
444.03	-0.340
444.23	-0.340
444.44	-0.340
444.64	-0.340
444.84	-0.339
445.05	-0.339
445.25	-0.339
445.45	-0.339
445.66	-0.339
445.86	-0.339
446.06	-0.339
446.27	-0.339
446.47	-0.339
446.68	-0.339
446.88	-0.340
447.08	-0.340
447.29	-0.340
447.49	-0.340
447.69	-0.340
447.90	-0.340
448.10	-0.340
448.30	-0.340
448.51	-0.340
448.71	-0.340
448.91	-0.340
449.12	-0.340
449.32	-0.340
449.52	-0.340
449.73	-0.340
449.93	-0.340
450.14	-0.340
450.34	-0.340
450.54	-0.339
450.75	-0.339
450.95	-0.339
451.15	-0.339
451.36	-0.339
451.56	-0.339
451.76	-0.339
451.97	-0.339
452.17	-0.339
452.37	-0.339
452.58	-0.339
452.78	-0.339
452.98	-0.339
453.19	-0.339
453.39	-0.339
453.59	-0.339
453.79	-0.339
454.00	-0.339
454.20	-0.338
454.40	-0.339
454.61	-0.339
454.81	-0.339
455.01	-0.339
455.22	-0.339
455.42	-0.339
455.62	-0.339
455.83	-0.339
456.03	-0.339
456.23	-0.339
456.44	-0.339
456.64	-0.339
456.84	-0.339
457.04	-0.339
457.25	-0.338
457.45	-0.338
457.65	-0.338
457.86	-0.338
458.06	-0.338
458.26	-0.338
458.47	-0.338
458.67	-0.338
458.87	-0.338
459.07	-0.338
459.28	-0.338
459.48	-0.338
459.68	-0.339
459.89	-0.339
460.09	-0.339
460.29	-0.339
460.49	-0.339
460.70	-0.339
460.90	-0.339
461.10	-0.339
461.31	-0.339
461.51	-0.339
461.71	-0.339
461.91	-0.339
462.12	-0.339
462.32	-0.338
462.52	-0.338
462.72	-0.338
462.93	-0.338
463.13	-0.338
463.33	-0.338
463.53	-0.338
463.74	-0.338
463.94	-0.338
464.14	-0.338
464.35	-0.338
464.55	-0.338
464.75	-0.338
464.95	-0.338
465.16	-0.338
465.36	-0.338
465.56	-0.338
465.76	-0.338
465.97	-0.338
466.17	-0.338
466.37	-0.338
466.57	-0.338
466.78	-0.339
466.98	-0.339
467.18	-0.339
467.38	-0.339
467.59	-0.339
467.79	-0.339
467.99	-0.339
468.19	-0.339
468.39	-0.339
468.60	-0.339
468.80	-0.339
469.00	-0.338
469.20	-0.338
469.41	-0.338
469.61	-0.338
469.81	-0.338
470.01	-0.338
470.22	-0.338
470.42	-0.338
470.62	-0.338
470.82	-0.338
471.02	-0.338
471.23	-0.338
471.43	-0.338
471.63	-0.338
471.83	-0.338
472.04	-0.338
472.24	-0.338
472.44	-0.338
472.64	-0.338
472.84	-0.338
473.05	-0.338
473.25	-0.338
473.45	-0.338
473.65	-0.337
473.85	-0.337
474.06	-0.335
474.26	-0.334
474.46	-0.333
474.66	-0.331
474.86	-0.330
475.07	-0.328
475.27	-0.325
475.47	-0.324
475.67	-0.321
475.87	-0.319
476.08	-0.318
476.28	-0.317
476.48	-0.316
476.68	-0.314
476.88	-0.313
477.09	-0.312
477.29	-0.312
477.49	-0.311
477.69	-0.310
477.89	-0.309
478.09	-0.308
478.30	-0.307
478.50	-0.306
478.70	-0.304
478.90	-0.302
479.10	-0.300
479.31	-0.298
479.51	-0.295
479.71	-0.292
479.91	-0.290
480.11	-0.287
480.31	-0.284
480.52	-0.281
480.72	-0.279
480.92	-0.276
481.12	-0.273
481.32	-0.270
481.52	-0.268
481.72	-0.265
481.93	-0.263
482.13	-0.260
482.33	-0.257
482.53	-0.254
482.73	-0.251
482.93	-0.248
483.14	-0.244
483.34	-0.241
483.54	-0.238
483.74	-0.234
483.94	-0.230
484.14	-0.226
484.34	-0.222
484.55	-0.218
484.75	-0.214
484.95	-0.210
485.15	-0.207
485.35	-0.204
485.55	-0.201
485.75	-0.198
485.96	-0.196
486.16	-0.195
486.36	-0.193
486.56	-0.192
486.76	-0.192
486.96	-0.192
487.16	-0.193
487.36	-0.194
487.57	-0.195
487.77	-0.197
487.97	-0.200
488.17	-0.202
488.37	-0.205
488.57	-0.208
488.77	-0.211
488.97	-0.214
489.18	-0.217
489.38	-0.219
489.58	-0.222
489.78	-0.224
489.98	-0.226
490.18	-0.227
490.38	-0.229
490.58	-0.230
490.78	-0.231
490.98	-0.231
491.19	-0.232
491.39	-0.232
491.59	-0.232
491.79	-0.232
491.99	-0.232
492.19	-0.232
492.39	-0.232
492.59	-0.231
492.79	-0.230
492.99	-0.230
493.20	-0.229
493.40	-0.228
493.60	-0.227
493.80	-0.225
494.00	-0.224
494.20	-0.222
494.40	-0.220
494.60	-0.219
494.80	-0.217
495.00	-0.216
495.20	-0.215
495.40	-0.214
495.61	-0.213
495.81	-0.213
496.01	-0.213
496.21	-0.213
496.41	-0.213
496.61	-0.213
496.81	-0.214
497.01	-0.214
497.21	-0.215
497.41	-0.216
497.61	-0.217
497.81	-0.219
498.01	-0.220
498.21	-0.222
498.41	-0.224
498.61	-0.226
498.82	-0.228
499.02	-0.229
499.22	-0.231
499.42	-0.233
499.62	-0.234
499.82	-0.235
500.02	-0.235
500.22	-0.235
500.42	-0.235
500.62	-0.235
500.82	-0.235
501.02	-0.234
501.22	-0.234
501.42	-0.233
501.62	-0.233
501.82	-0.232
502.02	-0.232
502.22	-0.231
502.42	-0.231
502.62	-0.230
502.82	-0.230
503.02	-0.230
503.22	-0.231
503.42	-0.231
503.63	-0.231
503.83	-0.232
504.03	-0.233
504.23	-0.234
504.43	-0.236
504.63	-0.237
504.83	-0.239
505.03	-0.240
505.23	-0.242
505.43	-0.243
505.63	-0.245
505.83	-0.247
506.03	-0.249
506.23	-0.250
506.43	-0.252
506.63	-0.254
506.83	-0.256
507.03	-0.258
507.23	-0.260
507.43	-0.261
507.63	-0.263
507.83	-0.265
508.03	-0.266
508.23	-0.268
508.43	-0.269
508.63	-0.270
508.83	-0.271
509.03	-0.272
509.23	-0.273
509.43	-0.274
509.63	-0.275
509.83	-0.277
510.03	-0.278
510.23	-0.279
510.43	-0.280
510.63	-0.281
510.83	-0.282
511.03	-0.283
511.23	-0.284
511.43	-0.285
511.63	-0.286
511.83	-0.288
512.03	-0.289
512.22	-0.290
512.42	-0.292
512.62	-0.293
512.82	-0.295
513.02	-0.297
513.22	-0.299
513.42	-0.301
513.62	-0.302
513.82	-0.304
514.02	-0.306
514.22	-0.307
514.42	-0.308
514.62	-0.309
514.82	-0.310
515.02	-0.311
515.22	-0.312
515.42	-0.313
515.62	-0.314
515.82	-0.315
516.02	-0.316
516.22	-0.317
516.42	-0.318
516.62	-0.318
516.82	-0.318
517.01	-0.318
517.21	-0.318
517.41	-0.318
517.61	-0.318
517.81	-0.319
518.01	-0.318
518.21	-0.319
518.41	-0.320
518.61	-0.320
518.81	-0.321
519.01	-0.322
519.21	-0.323
519.41	-0.325
519.61	-0.325
519.81	-0.327
520.00	-0.328
520.20	-0.329
520.40	-0.329
520.60	-0.331
520.80	-0.332
521.00	-0.333
521.20	-0.334
521.40	-0.335
521.60	-0.335
521.80	-0.336
522.00	-0.336
522.20	-0.337
522.39	-0.338
522.59	-0.338
522.79	-0.338
522.99	-0.339
523.19	-0.339
523.39	-0.339
523.59	-0.339
523.79	-0.339
523.99	-0.340
524.19	-0.340
524.38	-0.340
524.58	-0.341
524.78	-0.341
524.98	-0.341
525.18	-0.341
525.38	-0.341
525.58	-0.342
525.78	-0.342
525.98	-0.342
526.18	-0.342
526.37	-0.342
526.57	-0.342
526.77	-0.342
526.97	-0.342
527.17	-0.343
527.37	-0.343
527.57	-0.342
527.77	-0.342
527.96	-0.342
528.16	-0.342
528.36	-0.342
528.56	-0.343
528.76	-0.343
528.96	-0.343
529.16	-0.343
529.36	-0.343
529.55	-0.343
529.75	-0.343
529.95	-0.343
530.15	-0.343
530.35	-0.343
530.55	-0.343
530.75	-0.343
530.94	-0.344
531.14	-0.344
531.34	-0.344
531.54	-0.344
531.74	-0.344
531.94	-0.344
532.13	-0.343
532.33	-0.343
532.53	-0.343
532.73	-0.342
532.93	-0.342
533.13	-0.341
533.33	-0.341
533.52	-0.340
533.72	-0.340
533.92	-0.340
534.12	-0.340
534.32	-0.339
534.52	-0.339
534.71	-0.339
534.91	-0.339
535.11	-0.339
535.31	-0.339
535.51	-0.339
535.71	-0.338
535.90	-0.338
536.10	-0.338
536.30	-0.338
536.50	-0.337
536.70	-0.337
536.89	-0.337
537.09	-0.336
537.29	-0.336
537.49	-0.335
537.69	-0.335
537.89	-0.334
538.08	-0.334
538.28	-0.333
538.48	-0.333
538.68	-0.332
538.88	-0.332
539.07	-0.331
539.27	-0.331
539.47	-0.331
539.67	-0.331
539.87	-0.330
540.06	-0.331
540.26	-0.331
540.46	-0.332
540.66	-0.333
540.86	-0.334
541.05	-0.335
541.25	-0.336
541.45	-0.337
541.65	-0.338
541.84	-0.339
542.04	-0.339
542.24	-0.340
542.44	-0.340
542.64	-0.340
542.83	-0.340
543.03	-0.340
543.23	-0.340
543.43	-0.340
543.62	-0.340
543.82	-0.340
544.02	-0.340
544.22	-0.339
544.42	-0.339
544.61	-0.339
544.81	-0.338
545.01	-0.337
545.21	-0.336
545.40	-0.335
545.60	-0.334
545.80	-0.333
546.00	-0.332
546.19	-0.331
546.39	-0.330
546.59	-0.330
546.79	-0.330
546.98	-0.331
547.18	-0.331
547.38	-0.332
547.58	-0.333
547.77	-0.334
547.97	-0.335
548.17	-0.336
548.37	-0.338
548.56	-0.339
548.76	-0.340
548.96	-0.341
549.16	-0.342
549.35	-0.344
549.55	-0.345
549.75	-0.346
549.95	-0.347
550.14	-0.348
550.34	-0.348
550.54	-0.349
550.73	-0.349
550.93	-0.349
551.13	-0.349
551.33	-0.349
551.52	-0.349
551.72	-0.349
551.92	-0.349
552.12	-0.348
552.31	-0.347
552.51	-0.347
552.71	-0.346
552.90	-0.345
553.10	-0.344
553.30	-0.343
553.50	-0.343
553.69	-0.342
553.89	-0.341
554.09	-0.341
554.28	-0.342
554.48	-0.342
554.68	-0.343
554.87	-0.344
555.07	-0.345
555.27	-0.347
555.47	-0.348
555.66	-0.349
555.86	-0.350
556.06	-0.351
556.25	-0.352
556.45	-0.352
556.65	-0.352
556.84	-0.353
557.04	-0.353
557.24	-0.353
557.43	-0.353
557.63	-0.353
557.83	-0.353
558.02	-0.353
558.22	-0.352
558.42	-0.352
558.61	-0.352
558.81	-0.352
559.01	-0.352
559.21	-0.352
559.40	-0.352
559.60	-0.352
559.80	-0.352
559.99	-0.352
560.19	-0.352
560.39	-0.352
560.58	-0.351
560.78	-0.350
560.97	-0.349
561.17	-0.348
561.37	-0.347
561.56	-0.346
561.76	-0.346
561.96	-0.345
562.15	-0.344
562.35	-0.344
562.55	-0.344
562.74	-0.344
562.94	-0.345
563.14	-0.346
563.33	-0.347
563.53	-0.348
563.73	-0.349
563.92	-0.350
564.12	-0.351
564.31	-0.352
564.51	-0.353
564.71	-0.353
564.90	-0.354
565.10	-0.354
565.30	-0.354
565.49	-0.355
565.69	-0.355
565.89	-0.355
566.08	-0.355
566.28	-0.355
566.47	-0.355
566.67	-0.354
566.87	-0.352
567.06	-0.351
567.26	-0.348
567.46	-0.345
567.65	-0.342
567.85	-0.337
568.04	-0.332
568.24	-0.326
568.44	-0.320
568.63	-0.313
568.83	-0.305
569.02	-0.298
569.22	-0.290
569.42	-0.282
569.61	-0.275
569.81	-0.268
570.00	-0.261
570.20	-0.254
570.40	-0.248
570.59	-0.242
570.79	-0.236
570.98	-0.231
571.18	-0.226
571.38	-0.221
571.57	-0.216
571.77	-0.211
571.96	-0.206
572.16	-0.201
572.35	-0.197
572.55	-0.192
572.75	-0.189
572.94	-0.186
573.14	-0.183
573.33	-0.181
573.53	-0.179
573.73	-0.176
573.92	-0.175
574.12	-0.173
574.31	-0.172
574.51	-0.171
574.70	-0.169
574.90	-0.166
575.09	-0.163
575.29	-0.159
575.49	-0.156
575.68	-0.152
575.88	-0.149
576.07	-0.146
576.27	-0.143
576.46	-0.141
576.66	-0.138
576.86	-0.136
577.05	-0.134
577.25	-0.134
577.44	-0.133
577.64	-0.133
577.83	-0.132
578.03	-0.132
578.22	-0.130
578.42	-0.127
578.61	-0.124
578.81	-0.121
579.00	-0.118
579.20	-0.116
579.40	-0.113
579.59	-0.110
579.79	-0.108
579.98	-0.106
580.18	-0.104
580.37	-0.104
580.57	-0.104
580.76	-0.105
580.96	-0.107
581.15	-0.108
581.35	-0.110
581.54	-0.111
581.74	-0.112
581.93	-0.113
582.13	-0.113
582.32	-0.114
582.52	-0.114
582.71	-0.116
582.91	-0.117
583.10	-0.119
583.30	-0.121
583.49	-0.123
583.69	-0.126
583.88	-0.129
584.08	-0.133
584.27	-0.137
584.47	-0.141
584.66	-0.144
584.86	-0.146
585.05	-0.148
585.25	-0.149
585.44	-0.149
585.64	-0.148
585.83	-0.148
586.03	-0.147
586.22	-0.148
586.42	-0.149
586.61	-0.150
586.81	-0.153
587.00	-0.156
587.20	-0.160
587.39	-0.164
587.59	-0.169
587.78	-0.175
587.98	-0.182
588.17	-0.188
588.37	-0.194
588.56	-0.200
588.76	-0.206
588.95	-0.212
589.15	-0.217
589.34	-0.222
589.54	-0.227
589.73	-0.232
589.92	-0.235
590.12	-0.238
590.31	-0.240
590.51	-0.240
590.70	-0.240
590.90	-0.239
591.09	-0.238
591.29	-0.236
591.48	-0.233
591.68	-0.231
591.87	-0.228
592.06	-0.226
592.26	-0.224
592.45	-0.222
592.65	-0.221
592.84	-0.220
593.04	-0.220
593.23	-0.220
593.43	-0.220
593.62	-0.220
593.81	-0.221
594.01	-0.223
594.20	-0.226
594.40	-0.229
594.59	-0.233
594.79	-0.237
594.98	-0.242
595.17	-0.247
595.37	-0.252
595.56	-0.257
595.76	-0.260
595.95	-0.263
596.14	-0.265
596.34	-0.266
596.53	-0.266
596.73	-0.265
596.92	-0.262
597.12	-0.258
597.31	-0.254
597.50	-0.248
597.70	-0.243
597.89	-0.238
598.09	-0.233
598.28	-0.228
598.47	-0.224
598.67	-0.220
598.86	-0.217
599.06	-0.215
599.25	-0.213
599.44	-0.213
599.64	-0.213
599.83	-0.215
600.03	-0.217
600.22	-0.221
600.41	-0.225
600.61	-0.229
600.80	-0.235
601.00	-0.240
601.19	-0.245
601.38	-0.252
601.58	-0.258
601.77	-0.265
601.96	-0.271
602.16	-0.277
602.35	-0.282
602.55	-0.287
602.74	-0.291
602.93	-0.294
603.13	-0.296
603.32	-0.298
603.51	-0.297
603.71	-0.297
603.90	-0.295
604.09	-0.292
604.29	-0.288
604.48	-0.284
604.68	-0.280
604.87	-0.275
605.06	-0.271
605.26	-0.268
605.45	-0.265
605.64	-0.262
605.84	-0.259
606.03	-0.258
606.22	-0.257
606.42	-0.257
606.61	-0.258
606.80	-0.259
607.00	-0.261
607.19	-0.263
607.38	-0.265
607.58	-0.269
607.77	-0.273
607.96	-0.277
608.16	-0.282
608.35	-0.287
608.54	-0.293
608.74	-0.298
608.93	-0.305
609.12	-0.312
609.32	-0.318
609.51	-0.324
609.70	-0.330
609.90	-0.336
610.09	-0.341
610.28	-0.346
610.48	-0.350
610.67	-0.353
610.86	-0.356
611.06	-0.357
611.25	-0.358
611.44	-0.359
611.64	-0.359
611.83	-0.358
612.02	-0.357
612.21	-0.354
612.41	-0.352
612.60	-0.349
612.79	-0.347
612.99	-0.344
613.18	-0.342
613.37	-0.339
613.57	-0.336
613.76	-0.335
613.95	-0.333
614.14	-0.332
614.34	-0.332
614.53	-0.332
614.72	-0.334
614.92	-0.335
615.11	-0.337
615.30	-0.338
615.49	-0.340
615.69	-0.343
615.88	-0.346
616.07	-0.349
616.26	-0.353
616.46	-0.357
616.65	-0.361
616.84	-0.365
617.04	-0.369
617.23	-0.373
617.42	-0.376
617.61	-0.380
617.81	-0.383
618.00	-0.387
618.19	-0.390
618.38	-0.392
618.58	-0.394
618.77	-0.393
618.96	-0.394
619.15	-0.392
619.35	-0.393
619.54	-0.390
619.73	-0.389
619.92	-0.386
620.12	-0.383
620.31	-0.380
620.50	-0.378
620.69	-0.375
620.89	-0.374
621.08	-0.372
621.27	-0.372
621.46	-0.369
621.66	-0.369
621.85	-0.368
622.04	-0.368
622.23	-0.368
622.43	-0.368
622.62	-0.368
622.81	-0.368
623.00	-0.368
623.19	-0.368
623.39	-0.368
623.58	-0.368
623.77	-0.369
623.96	-0.369
624.16	-0.369
624.35	-0.369
624.54	-0.370
624.73	-0.370
624.92	-0.370
625.12	-0.371
625.31	-0.371
625.50	-0.371
625.69	-0.371
625.88	-0.372
626.08	-0.372
626.27	-0.372
626.46	-0.372
626.65	-0.373
626.84	-0.373
627.04	-0.373
627.23	-0.373
627.42	-0.373
627.61	-0.374
627.80	-0.374
628.00	-0.374
628.19	-0.374
628.38	-0.374
628.57	-0.374
628.76	-0.375
628.96	-0.375
629.15	-0.375
629.34	-0.375
629.53	-0.376
629.72	-0.376
629.91	-0.376
630.11	-0.377
630.30	-0.377
630.49	-0.377
630.68	-0.378
630.87	-0.378
631.06	-0.378
631.26	-0.379
631.45	-0.379
631.64	-0.380
631.83	-0.380
632.02	-0.380
632.21	-0.381
632.41	-0.381
632.60	-0.382
632.79	-0.382
632.98	-0.382
633.17	-0.383
633.36	-0.383
633.55	-0.383
633.75	-0.383
633.94	-0.383
634.13	-0.383
634.32	-0.383
634.51	-0.383
634.70	-0.383
634.89	-0.383
635.09	-0.383
635.28	-0.383
635.47	-0.383
635.66	-0.383
635.85	-0.383
636.04	-0.383
636.23	-0.383
636.43	-0.383
636.62	-0.383
636.81	-0.383
637.00	-0.384
637.19	-0.384
637.38	-0.384
637.57	-0.384
637.76	-0.384
637.95	-0.384
638.15	-0.385
638.34	-0.385
638.53	-0.385
638.72	-0.385
638.91	-0.385
639.10	-0.385
639.29	-0.386
639.48	-0.386
639.67	-0.386
639.87	-0.387
640.06	-0.387
640.25	-0.387
640.44	-0.387
640.63	-0.388
640.82	-0.388
641.01	-0.388
641.20	-0.388
641.39	-0.388
641.58	-0.388
641.78	-0.388
641.97	-0.388
642.16	-0.388
642.35	-0.388
642.54	-0.388
642.73	-0.388
642.92	-0.388
643.11	-0.388
643.30	-0.389
643.49	-0.389
643.68	-0.388
643.87	-0.389
644.06	-0.389
644.25	-0.389
644.45	-0.389
644.64	-0.389
644.83	-0.389
645.02	-0.389
645.21	-0.389
645.40	-0.389
645.59	-0.390
645.78	-0.390
645.97	-0.390
646.16	-0.389
646.35	-0.389
646.54	-0.389
646.73	-0.389
646.92	-0.388
647.11	-0.388
647.30	-0.388
647.49	-0.388
647.68	-0.387
647.88	-0.387
648.07	-0.387
648.26	-0.386
648.45	-0.386
648.64	-0.386
648.83	-0.386
649.02	-0.386
649.21	-0.386
649.40	-0.386
649.59	-0.386
649.78	-0.386
649.97	-0.386
650.16	-0.386
650.35	-0.386
650.54	-0.386
650.73	-0.386
650.92	-0.386
651.11	-0.386
651.30	-0.387
651.49	-0.387
651.68	-0.387
651.87	-0.387
652.06	-0.387
652.25	-0.387
652.44	-0.387
652.63	-0.387
652.82	-0.386
653.01	-0.384
653.20	-0.381
653.39	-0.377
653.58	-0.371
653.77	-0.364
653.96	-0.357
654.15	-0.349
654.34	-0.340
654.53	-0.332
654.72	-0.324
654.91	-0.316
655.10	-0.308
655.29	-0.300
655.48	-0.294
655.67	-0.288
655.86	-0.284
656.05	-0.280
656.24	-0.277
656.43	-0.275
656.62	-0.273
656.81	-0.273
657.00	-0.275
657.19	-0.280
657.38	-0.289
657.57	-0.299
657.76	-0.311
657.95	-0.322
658.14	-0.332
658.33	-0.343
658.51	-0.354
658.70	-0.366
658.89	-0.378
659.08	-0.387
659.27	-0.393
659.46	-0.395
659.65	-0.394
659.84	-0.391
660.03	-0.390
660.22	-0.390
660.41	-0.391
660.60	-0.391
660.79	-0.392
660.98	-0.392
661.17	-0.392
661.36	-0.393
661.55	-0.393
661.74	-0.393
661.92	-0.393
662.11	-0.393
662.30	-0.393
662.49	-0.393
662.68	-0.393
662.87	-0.393
663.06	-0.393
663.25	-0.393
663.44	-0.393
663.63	-0.393
663.82	-0.393
664.01	-0.393
664.20	-0.393
664.38	-0.393
664.57	-0.393
664.76	-0.394
664.95	-0.394
665.14	-0.394
665.33	-0.394
665.52	-0.394
665.71	-0.394
665.90	-0.394
666.09	-0.394
666.28	-0.394
666.46	-0.395
666.65	-0.395
666.84	-0.395
667.03	-0.395
667.22	-0.395
667.41	-0.395
667.60	-0.395
667.79	-0.395
667.98	-0.395
668.16	-0.395
668.35	-0.395
668.54	-0.395
668.73	-0.394
668.92	-0.394
669.11	-0.394
669.30	-0.393
669.49	-0.393
669.67	-0.393
669.86	-0.392
670.05	-0.392
670.24	-0.391
670.43	-0.391
670.62	-0.391
670.81	-0.391
671.00	-0.391
671.18	-0.390
671.37	-0.390
671.56	-0.390
671.75	-0.390
671.94	-0.390
672.13	-0.391
672.32	-0.391
672.50	-0.391
672.69	-0.391
672.88	-0.391
673.07	-0.391
673.26	-0.391
673.45	-0.391
673.63	-0.391
673.82	-0.391
674.01	-0.391
674.20	-0.392
674.39	-0.392
674.58	-0.392
674.76	-0.392
674.95	-0.392
675.14	-0.393
675.33	-0.393
675.52	-0.393
675.71	-0.392
675.89	-0.392
676.08	-0.392
676.27	-0.392
676.46	-0.392
676.65	-0.392
676.84	-0.391
677.02	-0.391
677.21	-0.391
677.40	-0.391
677.59	-0.391
677.78	-0.391
677.96	-0.390
678.15	-0.390
678.34	-0.390
678.53	-0.390
678.72	-0.390
678.90	-0.390
679.09	-0.390
679.28	-0.390
679.47	-0.390
679.66	-0.390
679.84	-0.390
680.03	-0.390
680.22	-0.390
680.41	-0.390
680.60	-0.390
680.78	-0.390
680.97	-0.391
681.16	-0.391
681.35	-0.391
681.53	-0.391
681.72	-0.391
681.91	-0.391
682.10	-0.391
682.29	-0.391
682.47	-0.391
682.66	-0.391
682.85	-0.391
683.04	-0.390
683.22	-0.390
683.41	-0.390
683.60	-0.390
683.79	-0.390
683.97	-0.389
684.16	-0.389
684.35	-0.389
684.54	-0.389
684.72	-0.389
684.91	-0.388
685.10	-0.388
685.29	-0.388
685.47	-0.388
685.66	-0.388
685.85	-0.389
686.04	-0.389
686.22	-0.389
686.41	-0.389
686.60	-0.389
686.79	-0.389
686.97	-0.389
687.16	-0.390
687.35	-0.390
687.54	-0.390
687.72	-0.390
687.91	-0.390
688.10	-0.390
688.29	-0.391
688.47	-0.390
688.66	-0.391
688.85	-0.391
689.03	-0.391
689.22	-0.391
689.41	-0.391
689.60	-0.391
689.78	-0.391
689.97	-0.392
690.16	-0.391
690.34	-0.392
690.53	-0.391
690.72	-0.391
690.91	-0.391
691.09	-0.391
691.28	-0.391
691.47	-0.391
691.65	-0.391
691.84	-0.391
692.03	-0.392
692.21	-0.392
692.40	-0.392
692.59	-0.392
692.77	-0.392
692.96	-0.392
693.15	-0.392
693.34	-0.393
693.52	-0.393
693.71	-0.393
693.90	-0.393
694.08	-0.393
694.27	-0.393
694.46	-0.393
694.64	-0.393
694.83	-0.393
695.02	-0.392
695.20	-0.392
695.39	-0.392
695.58	-0.392
695.76	-0.392
695.95	-0.391
696.14	-0.391
696.32	-0.391
696.51	-0.391
696.70	-0.391
696.88	-0.391
697.07	-0.391
697.26	-0.391
697.44	-0.391
697.63	-0.391
697.81	-0.391
698.00	-0.391
698.19	-0.391
698.37	-0.392
698.56	-0.392
698.75	-0.392
698.93	-0.393
699.12	-0.393
699.31	-0.393
699.49	-0.394
699.68	-0.394
699.87	-0.394
700.05	-0.395
700.24	-0.395
700.42	-0.395
700.61	-0.395
700.80	-0.395
700.98	-0.395
701.17	-0.395
701.36	-0.395
701.54	-0.395
701.73	-0.395
701.91	-0.395
702.10	-0.395
702.29	-0.395
702.47	-0.395
702.66	-0.395
702.84	-0.395
703.03	-0.395
703.22	-0.395
703.40	-0.395
703.59	-0.395
703.77	-0.395
703.96	-0.396
704.15	-0.395
704.33	-0.396
704.52	-0.396
704.70	-0.396
704.89	-0.395
705.08	-0.395
705.26	-0.395
705.45	-0.395
705.63	-0.394
705.82	-0.394
706.00	-0.394
706.19	-0.394
706.38	-0.393
706.56	-0.393
706.75	-0.393
706.93	-0.392
707.12	-0.392
707.30	-0.392
707.49	-0.391
707.68	-0.391
707.86	-0.391
708.05	-0.391
708.23	-0.391
708.42	-0.391
708.60	-0.391
708.79	-0.391
708.98	-0.392
709.16	-0.392
709.35	-0.392
709.53	-0.393
709.72	-0.393
709.90	-0.394
710.09	-0.394
710.27	-0.394
710.46	-0.395
710.64	-0.395
710.83	-0.395
711.02	-0.395
711.20	-0.395
711.39	-0.395
711.57	-0.395
711.76	-0.395
711.94	-0.395
712.13	-0.394
712.31	-0.394
712.50	-0.394
712.68	-0.394
712.87	-0.394
713.05	-0.394
713.24	-0.394
713.42	-0.393
713.61	-0.393
713.79	-0.393
713.98	-0.393
714.16	-0.393
714.35	-0.393
714.54	-0.393
714.72	-0.393
714.91	-0.394
715.09	-0.394
715.28	-0.394
715.46	-0.394
715.65	-0.394
715.83	-0.394
716.02	-0.394
716.20	-0.395
716.39	-0.395
716.57	-0.395
716.76	-0.395
716.94	-0.395
717.12	-0.395
717.31	-0.395
717.49	-0.395
717.68	-0.395
717.86	-0.395
718.05	-0.395
718.23	-0.395
718.42	-0.396
718.60	-0.395
718.79	-0.395
718.97	-0.395
719.16	-0.396
719.34	-0.396
719.53	-0.396
719.71	-0.396
719.90	-0.396
720.08	-0.396
720.27	-0.396
720.45	-0.396
720.63	-0.397
720.82	-0.397
721.00	-0.397
721.19	-0.397
721.37	-0.397
721.56	-0.397
721.74	-0.397
721.93	-0.397
722.11	-0.398
722.30	-0.398
722.48	-0.398
722.66	-0.397
722.85	-0.397
723.03	-0.397
723.22	-0.397
723.40	-0.397
723.59	-0.397
723.77	-0.397
723.95	-0.397
724.14	-0.397
724.32	-0.397
724.51	-0.397
724.69	-0.397
724.88	-0.397
725.06	-0.397
725.24	-0.397
725.43	-0.397
725.61	-0.396
725.80	-0.396
725.98	-0.396
726.16	-0.395
726.35	-0.395
726.53	-0.395
726.72	-0.395
726.90	-0.395
727.09	-0.394
727.27	-0.394
727.45	-0.395
727.64	-0.395
727.82	-0.395
728.01	-0.395
728.19	-0.395
728.37	-0.395
728.56	-0.395
728.74	-0.395
728.92	-0.395
729.11	-0.395
729.29	-0.395
729.48	-0.395
729.66	-0.394
729.84	-0.394
730.03	-0.394
730.21	-0.393
730.40	-0.393
730.58	-0.393
730.76	-0.393
730.95	-0.392
731.13	-0.392
731.31	-0.392
731.50	-0.391
731.68	-0.391
731.86	-0.391
732.05	-0.391
732.23	-0.392
732.42	-0.391
732.60	-0.392
732.78	-0.392
732.97	-0.392
733.15	-0.392
733.33	-0.391
733.52	-0.391
733.70	-0.392
733.88	-0.392
734.07	-0.392
734.25	-0.391
734.43	-0.392
734.62	-0.391
734.80	-0.391
734.98	-0.391
735.17	-0.391
735.35	-0.392
735.53	-0.392
735.72	-0.392
735.90	-0.392
736.08	-0.392
736.27	-0.392
736.45	-0.392
736.63	-0.393
736.82	-0.393
737.00	-0.393
737.18	-0.393
737.37	-0.393
737.55	-0.392
737.73	-0.392
737.92	-0.393
738.10	-0.393
738.28	-0.393
738.46	-0.393
738.65	-0.393
738.83	-0.393
739.01	-0.394
739.20	-0.394
739.38	-0.394
739.56	-0.395
739.75	-0.395
739.93	-0.395
740.11	-0.396
740.29	-0.396
740.48	-0.397
740.66	-0.396
740.84	-0.396
741.03	-0.396
741.21	-0.396
741.39	-0.397
741.57	-0.397
741.76	-0.397
741.94	-0.398
742.12	-0.398
742.31	-0.398
742.49	-0.398
742.67	-0.398
742.85	-0.399
743.04	-0.399
743.22	-0.399
743.40	-0.399
743.58	-0.400
743.77	-0.400
743.95	-0.400
744.13	-0.401
744.31	-0.401
744.50	-0.401
744.68	-0.401
744.86	-0.401
745.04	-0.402
745.23	-0.403
745.41	-0.403
745.59	-0.403
745.77	-0.402
745.96	-0.402
746.14	-0.402
746.32	-0.403
746.50	-0.403
746.69	-0.403
746.87	-0.404
747.05	-0.403
747.23	-0.403
747.42	-0.403
747.60	-0.404
747.78	-0.405
747.96	-0.405
748.14	-0.405
748.33	-0.405
748.51	-0.405
748.69	-0.405
748.87	-0.404
749.06	-0.405
749.24	-0.406
749.42	-0.406
749.60	-0.405
749.78	-0.404
749.97	-0.404
750.15	-0.403
750.33	-0.403
750.51	-0.402
750.69	-0.402
750.88	-0.402
751.06	-0.402
751.24	-0.401
751.42	-0.401
751.60	-0.401
751.79	-0.401
751.97	-0.401
752.15	-0.401
752.33	-0.401
752.51	-0.401
752.69	-0.400
752.88	-0.400
753.06	-0.400
753.24	-0.401
753.42	-0.400
753.60	-0.400
753.78	-0.400
753.97	-0.401
754.15	-0.401
754.33	-0.401
754.51	-0.401
754.69	-0.401
754.87	-0.401
755.06	-0.400
755.24	-0.400
755.42	-0.399
755.60	-0.399
755.78	-0.399
755.96	-0.398
756.15	-0.398
756.33	-0.397
756.51	-0.397
756.69	-0.396
756.87	-0.396
757.05	-0.396
757.23	-0.396
757.42	-0.396
757.60	-0.395
757.78	-0.395
757.96	-0.395
758.14	-0.395
758.32	-0.396
758.50	-0.396
758.69	-0.397
758.87	-0.397
759.05	-0.397
759.23	-0.397
759.41	-0.398
759.59	-0.399
759.77	-0.399
759.95	-0.399
760.13	-0.399
760.32	-0.399
760.50	-0.399
760.68	-0.398
760.86	-0.398
761.04	-0.398
761.22	-0.398
761.40	-0.397
761.58	-0.397
761.76	-0.397
761.95	-0.397
762.13	-0.397
762.31	-0.397
762.49	-0.396
762.67	-0.396
762.85	-0.396
763.03	-0.397
763.21	-0.396
763.39	-0.396
763.57	-0.396
763.75	-0.396
763.94	-0.397
764.12	-0.397
764.30	-0.397
764.48	-0.398
764.66	-0.398
764.84	-0.398
765.02	-0.397
765.20	-0.398
765.38	-0.398
765.56	-0.398
765.74	-0.399
765.92	-0.398
766.10	-0.398
766.28	-0.399
766.46	-0.399
766.65	-0.400
766.83	-0.400
767.01	-0.400
767.19	-0.400
767.37	-0.401
767.55	-0.401
767.73	-0.401
767.91	-0.402
768.09	-0.402
768.27	-0.402
768.45	-0.402
768.63	-0.402
768.81	-0.403
768.99	-0.403
769.17	-0.403
769.35	-0.403
769.53	-0.402
769.71	-0.402
769.89	-0.402
770.07	-0.402
770.25	-0.402
770.43	-0.401
770.61	-0.401
770.79	-0.401
770.97	-0.402
771.15	-0.402
771.33	-0.402
771.51	-0.403
771.69	-0.403
771.87	-0.404
772.05	-0.404
772.24	-0.404
772.42	-0.405
772.60	-0.405
772.78	-0.405
772.96	-0.405
773.14	-0.406
773.32	-0.406
773.49	-0.406
773.67	-0.406
773.85	-0.406
774.03	-0.406
774.21	-0.406
774.39	-0.406
774.57	-0.407
774.75	-0.407
774.93	-0.407
775.11	-0.407
775.29	-0.407
775.47	-0.407
775.65	-0.407
775.83	-0.407
776.01	-0.408
776.19	-0.408
776.37	-0.408
776.55	-0.408
776.73	-0.408
776.91	-0.408
777.09	-0.408
777.27	-0.408
777.45	-0.408
777.63	-0.408
777.81	-0.407
777.99	-0.407
778.17	-0.406
778.35	-0.406
778.53	-0.405
778.71	-0.405
778.89	-0.406
779.07	-0.405
779.24	-0.405
779.42	-0.405
779.60	-0.404
779.78	-0.405
779.96	-0.404
780.14	-0.405
780.32	-0.405
780.50	-0.405
780.68	-0.404
780.86	-0.404
781.04	-0.404
781.22	-0.404
781.40	-0.403
781.58	-0.404
781.75	-0.404
781.93	-0.404
782.11	-0.404
782.29	-0.403
782.47	-0.403
782.65	-0.402
782.83	-0.402
783.01	-0.403
783.19	-0.402
783.37	-0.402
783.55	-0.402
783.72	-0.402
783.90	-0.403
784.08	-0.402
784.26	-0.403
784.44	-0.403
784.62	-0.404
784.80	-0.404
784.98	-0.404
785.16	-0.404
785.33	-0.404
785.51	-0.405
785.69	-0.404
785.87	-0.404
786.05	-0.404
786.23	-0.404
786.41	-0.403
786.59	-0.402
786.77	-0.402
786.94	-0.402
787.12	-0.402
787.30	-0.401
787.48	-0.400
787.66	-0.401
787.84	-0.401
788.02	-0.401
788.19	-0.401
788.37	-0.402
788.55	-0.402
788.73	-0.402
788.91	-0.402
789.09	-0.403
789.27	-0.404
789.44	-0.404
789.62	-0.404
789.80	-0.404
789.98	-0.404
790.16	-0.404
790.34	-0.404
790.51	-0.404
790.69	-0.404
790.87	-0.404
791.05	-0.403
791.23	-0.403
791.41	-0.403
791.58	-0.402
791.76	-0.402
791.94	-0.401
792.12	-0.401
792.30	-0.400
792.48	-0.400
792.65	-0.400
792.83	-0.400
793.01	-0.399
793.19	-0.399
793.37	-0.399
793.54	-0.399
793.72	-0.399
793.90	-0.399
794.08	-0.400
794.26	-0.400
794.43	-0.400
794.61	-0.400
794.79	-0.400
794.97	-0.400
795.15	-0.401
795.32	-0.401
795.50	-0.401
795.68	-0.401
795.86	-0.401
796.04	-0.402
796.21	-0.402
796.39	-0.402
796.57	-0.402
796.75	-0.403
796.92	-0.404
797.10	-0.404
797.28	-0.405
797.46	-0.405
797.64	-0.405
797.81	-0.406
797.99	-0.406
798.17	-0.406
798.35	-0.406
798.52	-0.406
798.70	-0.406
798.88	-0.406
799.06	-0.407
799.23	-0.407
799.41	-0.407
799.59	-0.407
799.77	-0.408
799.94	-0.407
800.12	-0.408
800.30	-0.409
800.48	-0.409
800.65	-0.409
800.83	-0.409
801.01	-0.409
801.19	-0.409
801.36	-0.409
801.54	-0.409
801.72	-0.409
801.90	-0.410
802.07	-0.409
802.25	-0.409
802.43	-0.409
802.60	-0.409
802.78	-0.409
802.96	-0.409
803.14	-0.409
803.31	-0.409
803.49	-0.409
803.67	-0.409
803.84	-0.409
804.02	-0.409
804.20	-0.408
804.38	-0.408
804.55	-0.408
804.73	-0.408
804.91	-0.408
805.08	-0.408
805.26	-0.407
805.44	-0.407
805.61	-0.407
805.79	-0.407
805.97	-0.407
806.15	-0.407
806.32	-0.407
806.50	-0.407
806.68	-0.406
806.85	-0.406
807.03	-0.406
807.21	-0.406
807.38	-0.406
807.56	-0.406
807.74	-0.406
807.91	-0.405
808.09	-0.405
808.27	-0.406
808.44	-0.406
808.62	-0.406
808.80	-0.406
808.97	-0.406
809.15	-0.406
809.33	-0.407
809.50	-0.406
809.68	-0.406
809.86	-0.407
810.03	-0.407
810.21	-0.408
810.39	-0.407
810.56	-0.408
810.74	-0.408
810.91	-0.408
811.09	-0.408
811.27	-0.409
811.44	-0.409
811.62	-0.409
811.80	-0.409
811.97	-0.409
812.15	-0.409
812.33	-0.409
812.50	-0.409
812.68	-0.409
812.85	-0.409
813.03	-0.409
813.21	-0.408
813.38	-0.408
813.56	-0.408
813.74	-0.407
813.91	-0.407
814.09	-0.407
814.26	-0.407
814.44	-0.407
814.62	-0.407
814.79	-0.407
814.97	-0.406
815.14	-0.406
815.32	-0.406
815.50	-0.407
815.67	-0.407
815.85	-0.407
816.02	-0.408
816.20	-0.408
816.38	-0.408
816.55	-0.408
816.73	-0.409
816.90	-0.409
817.08	-0.409
817.26	-0.409
817.43	-0.410
817.61	-0.409
817.78	-0.409
817.96	-0.409
818.13	-0.409
818.31	-0.409
818.49	-0.409
818.66	-0.409
818.84	-0.409
819.01	-0.409
819.19	-0.409
819.36	-0.409
819.54	-0.408
819.71	-0.408
819.89	-0.408
820.07	-0.408
820.24	-0.408
820.42	-0.408
820.59	-0.408
820.77	-0.407
820.94	-0.407
821.12	-0.407
821.29	-0.407
821.47	-0.408
821.64	-0.408
821.82	-0.408
822.00	-0.409
822.17	-0.409
822.35	-0.408
822.52	-0.409
822.70	-0.410
822.87	-0.410
823.05	-0.410
823.22	-0.410
823.40	-0.410
823.57	-0.409
823.75	-0.409
823.92	-0.409
824.10	-0.409
824.27	-0.409
824.45	-0.409
824.62	-0.409
824.80	-0.409
824.97	-0.410
825.15	-0.410
825.32	-0.409
825.50	-0.410
825.67	-0.410
825.85	-0.411
826.02	-0.410
826.20	-0.410
826.37	-0.410
826.55	-0.410
826.72	-0.409
826.90	-0.409
827.07	-0.410
827.25	-0.411
827.42	-0.411
827.60	-0.410
827.77	-0.411
827.95	-0.410
828.12	-0.410
828.30	-0.410
828.47	-0.410
828.65	-0.410
828.82	-0.411
829.00	-0.410
829.17	-0.410
829.34	-0.409
829.52	-0.411
829.69	-0.410
829.87	-0.411
830.04	-0.412
830.22	-0.412
830.39	-0.412
830.57	-0.414
830.74	-0.413
830.92	-0.413
831.09	-0.413
831.26	-0.412
831.44	-0.411
831.61	-0.411
831.79	-0.412
831.96	-0.411
832.14	-0.411
832.31	-0.411
832.49	-0.411
832.66	-0.410
832.83	-0.410
833.01	-0.409
833.18	-0.411
833.36	-0.412
833.53	-0.413
833.70	-0.412
833.88	-0.412
834.05	-0.411
834.23	-0.412
834.40	-0.413
834.58	-0.413
834.75	-0.413
834.92	-0.414
835.10	-0.413
835.27	-0.414
835.45	-0.414
835.62	-0.415
835.79	-0.414
835.97	-0.413
836.14	-0.412
836.32	-0.413
836.49	-0.414
836.66	-0.416
836.84	-0.417
837.01	-0.418
837.18	-0.418
837.36	-0.419
837.53	-0.418
837.71	-0.420
837.88	-0.419
838.05	-0.420
838.23	-0.419
838.40	-0.416
838.58	-0.417
838.75	-0.416
838.92	-0.414
839.10	-0.416
839.27	-0.413
839.44	-0.415
839.62	-0.413
839.79	-0.415
839.96	-0.412
840.14	-0.412
840.31	-0.412
840.48	-0.411
840.66	-0.412
840.83	-0.412
841.01	-0.411
841.18	-0.411
841.35	-0.409
841.53	-0.410
841.70	-0.410
841.87	-0.415
842.05	-0.415
842.22	-0.416
842.39	-0.416
842.57	-0.416
842.74	-0.416
842.91	-0.416
843.09	-0.416
843.26	-0.418
843.43	-0.415
843.60	-0.415
843.78	-0.415
843.95	-0.415
844.12	-0.415
844.30	-0.415
844.47	-0.412
844.64	-0.412
844.82	-0.412
844.99	-0.412
845.16	-0.415
845.34	-0.414
845.51	-0.412
845.68	-0.412
845.85	-0.412
846.03	-0.412
846.20	-0.414
846.37	-0.413
846.55	-0.411
846.72	-0.411
846.89	-0.409
847.06	-0.403
847.24	-0.407
847.41	-0.412
847.58	-0.410
847.76	-0.410
847.93	-0.405
848.10	-0.404
848.27	-0.409
848.45	-0.409
848.62	-0.409
848.79	-0.410
848.97	-0.414
849.14	-0.410
849.31	-0.408
849.48	-0.406
849.66	-0.407
849.83	-0.409
850.00	-0.408
850.17	-0.404
850.35	-0.408
850.52	-0.408
850.69	-0.411
850.86	-0.407
851.04	-0.410
851.21	-0.413
851.38	-0.415
851.55	-0.416
851.72	-0.416
851.90	-0.414
852.07	-0.414
852.24	-0.415
852.41	-0.414
852.59	-0.411
852.76	-0.414
852.93	-0.414
853.10	-0.414
853.28	-0.415
853.45	-0.415
853.62	-0.421
853.79	-0.421
853.96	-0.427
854.14	-0.424
854.31	-0.426
854.48	-0.426
854.65	-0.423
854.82	-0.422
855.00	-0.418
855.17	-0.417
855.34	-0.415
855.51	-0.411
855.68	-0.407
855.86	-0.400
856.03	-0.399
856.20	-0.397
856.37	-0.397
856.54	-0.400
856.72	-0.400
856.89	-0.399
857.06	-0.396
857.23	-0.401
857.40	-0.398
857.57	-0.401
857.75	-0.402
857.92	-0.401
858.09	-0.402
858.26	-0.402
858.43	-0.401
858.60	-0.403
858.78	-0.401
858.95	-0.407
859.12	-0.408
859.29	-0.409
859.46	-0.402
859.63	-0.404
859.81	-0.411
859.98	-0.407
860.15	-0.407
860.32	-0.408
860.49	-0.405
860.66	-0.409
860.83	-0.405
861.01	-0.401
861.18	-0.406
861.35	-0.417
861.52	-0.417
861.69	-0.412
861.86	-0.416
862.03	-0.417
862.21	-0.415
862.38	-0.414
862.55	-0.414
862.72	-0.415
862.89	-0.411
863.06	-0.407
863.23	-0.402
863.40	-0.398
863.58	-0.399
863.75	-0.401
863.92	-0.404
864.09	-0.404
864.26	-0.403
864.43	-0.402
864.60	-0.405
864.77	-0.411
864.94	-0.412
865.11	-0.410
865.29	-0.411
865.46	-0.409
865.63	-0.407
865.80	-0.405
865.97	-0.402
866.14	-0.407
866.31	-0.404
866.48	-0.399
866.65	-0.398
866.82	-0.398
866.99	-0.403
867.16	-0.407
867.34	-0.408
867.51	-0.413
867.68	-0.414
867.85	-0.415
868.02	-0.415
868.19	-0.418
868.36	-0.421
868.53	-0.422
868.70	-0.423
868.87	-0.422
869.04	-0.413
869.21	-0.415
869.38	-0.411
869.55	-0.409
869.72	-0.410
869.89	-0.412
870.06	-0.409
870.24	-0.412
870.41	-0.413
870.58	-0.413
870.75	-0.416
870.92	-0.424
871.09	-0.419
871.26	-0.417
871.43	-0.416
871.60	-0.418
871.77	-0.410
871.94	-0.412
872.11	-0.413
872.28	-0.407
872.45	-0.406
872.62	-0.409
872.79	-0.409
872.96	-0.407
873.13	-0.409
873.30	-0.404
873.47	-0.411
873.64	-0.419
873.81	-0.426
873.98	-0.426
874.15	-0.427
874.32	-0.430
874.49	-0.425
874.66	-0.421
874.83	-0.427
875.00	-0.426
875.17	-0.428
875.34	-0.411
875.51	-0.408
875.68	-0.402
875.85	-0.389
876.02	-0.396
876.19	-0.393
876.36	-0.385
876.53	-0.381
876.70	-0.382
876.87	-0.380
877.04	-0.396
877.21	-0.412
877.38	-0.409
877.55	-0.409
877.72	-0.411
877.89	-0.413
878.06	-0.412
878.23	-0.416
878.39	-0.429
878.56	-0.432
878.73	-0.431
878.90	-0.415
879.07	-0.404
879.24	-0.413
879.41	-0.410
879.58	-0.408
879.75	-0.405
879.92	-0.404
880.09	-0.412
880.26	-0.418
880.43	-0.417
880.60	-0.414
880.77	-0.406
880.94	-0.408
881.11	-0.405
881.27	-0.402
881.44	-0.408
881.61	-0.399
881.78	-0.406
881.95	-0.392
882.12	-0.383
882.29	-0.375
882.46	-0.380
882.63	-0.383
882.80	-0.391
882.97	-0.385
883.14	-0.384
883.30	-0.380
883.47	-0.382
883.64	-0.382
883.81	-0.393
883.98	-0.387
884.15	-0.385
884.32	-0.385
884.49	-0.393
884.66	-0.382
884.82	-0.387
884.99	-0.387
885.16	-0.390
885.33	-0.390
885.50	-0.385
885.67	-0.376
885.84	-0.387
886.01	-0.376
886.17	-0.365
886.34	-0.363
886.51	-0.352
886.68	-0.345
886.85	-0.357
887.02	-0.357
887.19	-0.354
887.36	-0.351
887.52	-0.341
887.69	-0.339
887.86	-0.344
888.03	-0.353
888.20	-0.353
888.37	-0.374
888.54	-0.372
888.70	-0.371
888.87	-0.365
889.04	-0.363
889.21	-0.366
889.38	-0.363
889.55	-0.369
889.71	-0.297
889.88	-0.329
890.05	-0.408
890.22	-0.234
890.39	-0.483
>>>>>End Processed Spectral Data<<<<<
