SpectraSuite Data File
++++++++++++++++++++++++++++++++++++
Date: Mon Jun 15 05:24:02 PDT 2015
User: introlabs
Dark Spectrum Present: Yes
Reference Spectrum Present: Yes
Number of Sampled Component Spectra: 1
Spectrometers: USB4H08886
Integration Time (usec): 99009 (USB4H08886)
Spectra Averaged: 20 (USB4H08886)
Boxcar Smoothing: 5 (USB4H08886)
Correct for Electrical Dark: Yes (USB4H08886)
Strobe/Lamp Enabled: No (USB4H08886)
Correct for Detector Non-linearity: Yes (USB4H08886)
Correct for Stray Light: Yes (USB4H08886)
Number of Pixels in Processed Spectrum: 3648
>>>>>Begin Processed Spectral Data<<<<<
178.14	-0.000
178.36	-0.000
178.57	-0.000
178.79	-0.692
179.01	0.218
179.22	-0.477
179.44	-0.213
179.65	-0.087
179.87	0.072
180.08	0.075
180.30	-0.108
180.52	-0.146
180.73	-0.754
180.95	-0.207
181.16	-0.467
181.38	-0.386
181.59	-0.365
181.81	-0.360
182.03	-0.373
182.24	-0.374
182.46	-0.378
182.67	-0.388
182.89	-0.382
183.10	-0.391
183.32	-0.382
183.54	-0.370
183.75	-0.378
183.97	-0.380
184.18	-0.375
184.40	-0.373
184.61	-0.382
184.83	-0.405
185.04	-0.408
185.26	-0.422
185.48	-0.399
185.69	-0.410
185.91	-0.413
186.12	-0.415
186.34	-0.417
186.55	-0.413
186.77	-0.403
186.98	-0.390
187.20	-0.381
187.42	-0.384
187.63	-0.392
187.85	-0.412
188.06	-0.409
188.28	-0.396
188.49	-0.396
188.71	-0.388
188.92	-0.391
189.14	-0.390
189.36	-0.378
189.57	-0.388
189.79	-0.376
190.00	-0.358
190.22	-0.346
190.43	-0.342
190.65	-0.356
190.86	-0.344
191.08	-0.341
191.29	-0.334
191.51	-0.357
191.72	-0.359
191.94	-0.343
192.16	-0.346
192.37	-0.336
192.59	-0.339
192.80	-0.354
193.02	-0.335
193.23	-0.345
193.45	-0.353
193.66	-0.367
193.88	-0.354
194.09	-0.369
194.31	-0.369
194.52	-0.373
194.74	-0.398
194.95	-0.390
195.17	-0.392
195.38	-0.414
195.60	-0.413
195.81	-0.406
196.03	-0.405
196.25	-0.398
196.46	-0.402
196.68	-0.414
196.89	-0.404
197.11	-0.391
197.32	-0.406
197.54	-0.402
197.75	-0.404
197.97	-0.394
198.18	-0.389
198.40	-0.392
198.61	-0.402
198.83	-0.387
199.04	-0.384
199.26	-0.384
199.47	-0.381
199.69	-0.373
199.90	-0.368
200.12	-0.354
200.33	-0.361
200.55	-0.371
200.76	-0.375
200.98	-0.363
201.19	-0.363
201.41	-0.364
201.62	-0.372
201.84	-0.378
202.05	-0.379
202.27	-0.371
202.48	-0.384
202.70	-0.377
202.91	-0.380
203.13	-0.376
203.34	-0.382
203.56	-0.396
203.77	-0.388
203.99	-0.381
204.20	-0.364
204.42	-0.365
204.63	-0.363
204.85	-0.357
205.06	-0.360
205.28	-0.352
205.49	-0.350
205.71	-0.356
205.92	-0.358
206.14	-0.361
206.35	-0.359
206.56	-0.360
206.78	-0.351
206.99	-0.350
207.21	-0.355
207.42	-0.362
207.64	-0.370
207.85	-0.360
208.07	-0.356
208.28	-0.353
208.50	-0.346
208.71	-0.344
208.93	-0.349
209.14	-0.359
209.36	-0.376
209.57	-0.381
209.79	-0.386
210.00	-0.375
210.22	-0.386
210.43	-0.379
210.64	-0.378
210.86	-0.387
211.07	-0.394
211.29	-0.398
211.50	-0.401
211.72	-0.391
211.93	-0.384
212.15	-0.374
212.36	-0.370
212.58	-0.366
212.79	-0.367
213.01	-0.354
213.22	-0.357
213.43	-0.356
213.65	-0.354
213.86	-0.349
214.08	-0.351
214.29	-0.344
214.51	-0.342
214.72	-0.356
214.94	-0.361
215.15	-0.365
215.36	-0.384
215.58	-0.380
215.79	-0.383
216.01	-0.392
216.22	-0.391
216.44	-0.401
216.65	-0.407
216.87	-0.408
217.08	-0.399
217.29	-0.392
217.51	-0.393
217.72	-0.380
217.94	-0.390
218.15	-0.389
218.37	-0.384
218.58	-0.393
218.80	-0.381
219.01	-0.378
219.22	-0.384
219.44	-0.390
219.65	-0.387
219.87	-0.380
220.08	-0.384
220.30	-0.377
220.51	-0.378
220.72	-0.377
220.94	-0.375
221.15	-0.388
221.37	-0.396
221.58	-0.385
221.79	-0.384
222.01	-0.393
222.22	-0.397
222.44	-0.400
222.65	-0.393
222.87	-0.397
223.08	-0.394
223.29	-0.394
223.51	-0.387
223.72	-0.375
223.94	-0.385
224.15	-0.385
224.36	-0.383
224.58	-0.398
224.79	-0.389
225.01	-0.407
225.22	-0.404
225.44	-0.418
225.65	-0.411
225.86	-0.404
226.08	-0.416
226.29	-0.410
226.51	-0.416
226.72	-0.417
226.93	-0.418
227.15	-0.431
227.36	-0.417
227.58	-0.417
227.79	-0.416
228.00	-0.418
228.22	-0.430
228.43	-0.428
228.65	-0.433
228.86	-0.436
229.07	-0.428
229.29	-0.414
229.50	-0.416
229.72	-0.420
229.93	-0.426
230.14	-0.426
230.36	-0.427
230.57	-0.422
230.78	-0.432
231.00	-0.432
231.21	-0.430
231.43	-0.442
231.64	-0.451
231.85	-0.445
232.07	-0.446
232.28	-0.442
232.50	-0.444
232.71	-0.445
232.92	-0.443
233.14	-0.437
233.35	-0.439
233.56	-0.438
233.78	-0.434
233.99	-0.435
234.21	-0.440
234.42	-0.441
234.63	-0.449
234.85	-0.451
235.06	-0.453
235.27	-0.457
235.49	-0.463
235.70	-0.466
235.91	-0.471
236.13	-0.471
236.34	-0.472
236.56	-0.472
236.77	-0.473
236.98	-0.470
237.20	-0.468
237.41	-0.471
237.62	-0.471
237.84	-0.470
238.05	-0.470
238.26	-0.465
238.48	-0.468
238.69	-0.466
238.91	-0.466
239.12	-0.466
239.33	-0.466
239.55	-0.464
239.76	-0.463
239.97	-0.461
240.19	-0.461
240.40	-0.460
240.61	-0.462
240.83	-0.461
241.04	-0.461
241.25	-0.462
241.47	-0.461
241.68	-0.460
241.89	-0.460
242.11	-0.461
242.32	-0.460
242.53	-0.461
242.75	-0.461
242.96	-0.461
243.17	-0.460
243.39	-0.459
243.60	-0.458
243.81	-0.457
244.03	-0.456
244.24	-0.457
244.45	-0.455
244.67	-0.454
244.88	-0.452
245.09	-0.452
245.31	-0.452
245.52	-0.451
245.73	-0.451
245.95	-0.450
246.16	-0.450
246.37	-0.450
246.59	-0.450
246.80	-0.450
247.01	-0.450
247.23	-0.451
247.44	-0.450
247.65	-0.449
247.87	-0.449
248.08	-0.448
248.29	-0.449
248.51	-0.448
248.72	-0.448
248.93	-0.447
249.15	-0.447
249.36	-0.448
249.57	-0.447
249.78	-0.447
250.00	-0.446
250.21	-0.446
250.42	-0.447
250.64	-0.446
250.85	-0.446
251.06	-0.446
251.28	-0.447
251.49	-0.446
251.70	-0.446
251.92	-0.446
252.13	-0.446
252.34	-0.447
252.55	-0.447
252.77	-0.446
252.98	-0.447
253.19	-0.447
253.41	-0.446
253.62	-0.446
253.83	-0.446
254.05	-0.446
254.26	-0.445
254.47	-0.445
254.68	-0.445
254.90	-0.444
255.11	-0.444
255.32	-0.443
255.54	-0.443
255.75	-0.444
255.96	-0.444
256.17	-0.444
256.39	-0.444
256.60	-0.444
256.81	-0.444
257.03	-0.444
257.24	-0.444
257.45	-0.445
257.66	-0.445
257.88	-0.445
258.09	-0.445
258.30	-0.444
258.51	-0.444
258.73	-0.444
258.94	-0.444
259.15	-0.444
259.37	-0.444
259.58	-0.444
259.79	-0.444
260.00	-0.444
260.22	-0.444
260.43	-0.444
260.64	-0.444
260.85	-0.445
261.07	-0.445
261.28	-0.445
261.49	-0.445
261.71	-0.444
261.92	-0.444
262.13	-0.444
262.34	-0.444
262.56	-0.444
262.77	-0.444
262.98	-0.443
263.19	-0.443
263.41	-0.443
263.62	-0.442
263.83	-0.442
264.04	-0.443
264.26	-0.443
264.47	-0.442
264.68	-0.442
264.89	-0.441
265.11	-0.441
265.32	-0.441
265.53	-0.441
265.74	-0.441
265.96	-0.442
266.17	-0.441
266.38	-0.441
266.59	-0.441
266.81	-0.441
267.02	-0.441
267.23	-0.441
267.44	-0.441
267.65	-0.440
267.87	-0.440
268.08	-0.440
268.29	-0.440
268.50	-0.439
268.72	-0.439
268.93	-0.439
269.14	-0.439
269.35	-0.439
269.57	-0.439
269.78	-0.438
269.99	-0.439
270.20	-0.439
270.41	-0.439
270.63	-0.439
270.84	-0.438
271.05	-0.438
271.26	-0.437
271.48	-0.437
271.69	-0.436
271.90	-0.436
272.11	-0.436
272.32	-0.436
272.54	-0.435
272.75	-0.435
272.96	-0.434
273.17	-0.434
273.39	-0.434
273.60	-0.433
273.81	-0.433
274.02	-0.432
274.23	-0.432
274.45	-0.431
274.66	-0.431
274.87	-0.430
275.08	-0.430
275.29	-0.429
275.51	-0.429
275.72	-0.428
275.93	-0.428
276.14	-0.427
276.35	-0.427
276.57	-0.426
276.78	-0.425
276.99	-0.425
277.20	-0.425
277.41	-0.424
277.63	-0.423
277.84	-0.423
278.05	-0.423
278.26	-0.422
278.47	-0.422
278.69	-0.422
278.90	-0.421
279.11	-0.421
279.32	-0.421
279.53	-0.420
279.74	-0.420
279.96	-0.419
280.17	-0.419
280.38	-0.418
280.59	-0.417
280.80	-0.417
281.02	-0.416
281.23	-0.416
281.44	-0.415
281.65	-0.415
281.86	-0.414
282.07	-0.414
282.29	-0.413
282.50	-0.413
282.71	-0.412
282.92	-0.412
283.13	-0.412
283.35	-0.411
283.56	-0.411
283.77	-0.410
283.98	-0.410
284.19	-0.409
284.40	-0.409
284.62	-0.408
284.83	-0.408
285.04	-0.407
285.25	-0.406
285.46	-0.406
285.67	-0.406
285.88	-0.405
286.10	-0.405
286.31	-0.404
286.52	-0.404
286.73	-0.403
286.94	-0.402
287.15	-0.402
287.37	-0.401
287.58	-0.401
287.79	-0.400
288.00	-0.400
288.21	-0.399
288.42	-0.399
288.63	-0.398
288.85	-0.398
289.06	-0.397
289.27	-0.397
289.48	-0.396
289.69	-0.396
289.90	-0.395
290.11	-0.395
290.33	-0.395
290.54	-0.394
290.75	-0.394
290.96	-0.393
291.17	-0.393
291.38	-0.392
291.59	-0.392
291.81	-0.392
292.02	-0.391
292.23	-0.391
292.44	-0.391
292.65	-0.390
292.86	-0.390
293.07	-0.390
293.28	-0.390
293.50	-0.389
293.71	-0.389
293.92	-0.389
294.13	-0.388
294.34	-0.388
294.55	-0.388
294.76	-0.388
294.97	-0.387
295.19	-0.387
295.40	-0.387
295.61	-0.386
295.82	-0.386
296.03	-0.386
296.24	-0.385
296.45	-0.385
296.66	-0.385
296.87	-0.385
297.09	-0.385
297.30	-0.385
297.51	-0.384
297.72	-0.384
297.93	-0.384
298.14	-0.384
298.35	-0.384
298.56	-0.384
298.77	-0.384
298.99	-0.383
299.20	-0.383
299.41	-0.383
299.62	-0.383
299.83	-0.383
300.04	-0.383
300.25	-0.382
300.46	-0.382
300.67	-0.382
300.88	-0.382
301.10	-0.381
301.31	-0.381
301.52	-0.381
301.73	-0.381
301.94	-0.381
302.15	-0.380
302.36	-0.380
302.57	-0.380
302.78	-0.380
302.99	-0.380
303.20	-0.379
303.41	-0.379
303.63	-0.379
303.84	-0.379
304.05	-0.379
304.26	-0.379
304.47	-0.379
304.68	-0.378
304.89	-0.378
305.10	-0.378
305.31	-0.378
305.52	-0.378
305.73	-0.378
305.94	-0.377
306.15	-0.377
306.37	-0.377
306.58	-0.377
306.79	-0.377
307.00	-0.377
307.21	-0.377
307.42	-0.376
307.63	-0.376
307.84	-0.376
308.05	-0.376
308.26	-0.376
308.47	-0.376
308.68	-0.376
308.89	-0.376
309.10	-0.375
309.31	-0.375
309.52	-0.375
309.73	-0.375
309.95	-0.375
310.16	-0.375
310.37	-0.375
310.58	-0.374
310.79	-0.374
311.00	-0.374
311.21	-0.374
311.42	-0.374
311.63	-0.374
311.84	-0.374
312.05	-0.373
312.26	-0.373
312.47	-0.373
312.68	-0.373
312.89	-0.373
313.10	-0.373
313.31	-0.373
313.52	-0.373
313.73	-0.372
313.94	-0.372
314.15	-0.372
314.36	-0.372
314.57	-0.372
314.78	-0.372
314.99	-0.371
315.21	-0.371
315.42	-0.371
315.63	-0.371
315.84	-0.371
316.05	-0.371
316.26	-0.371
316.47	-0.371
316.68	-0.371
316.89	-0.371
317.10	-0.371
317.31	-0.370
317.52	-0.370
317.73	-0.370
317.94	-0.370
318.15	-0.370
318.36	-0.370
318.57	-0.370
318.78	-0.370
318.99	-0.369
319.20	-0.369
319.41	-0.369
319.62	-0.369
319.83	-0.369
320.04	-0.369
320.25	-0.369
320.46	-0.369
320.67	-0.369
320.88	-0.369
321.09	-0.369
321.30	-0.369
321.51	-0.369
321.72	-0.369
321.93	-0.369
322.14	-0.369
322.35	-0.369
322.56	-0.368
322.77	-0.368
322.98	-0.368
323.19	-0.368
323.40	-0.368
323.61	-0.368
323.82	-0.368
324.03	-0.367
324.24	-0.367
324.45	-0.367
324.66	-0.367
324.87	-0.367
325.08	-0.367
325.29	-0.367
325.50	-0.367
325.71	-0.367
325.92	-0.367
326.13	-0.366
326.34	-0.366
326.55	-0.366
326.76	-0.366
326.97	-0.366
327.18	-0.366
327.39	-0.366
327.60	-0.366
327.80	-0.366
328.01	-0.366
328.22	-0.366
328.43	-0.366
328.64	-0.366
328.85	-0.366
329.06	-0.366
329.27	-0.366
329.48	-0.366
329.69	-0.365
329.90	-0.365
330.11	-0.365
330.32	-0.365
330.53	-0.365
330.74	-0.365
330.95	-0.365
331.16	-0.365
331.37	-0.365
331.58	-0.364
331.79	-0.364
332.00	-0.364
332.21	-0.364
332.42	-0.364
332.63	-0.364
332.83	-0.364
333.04	-0.364
333.25	-0.364
333.46	-0.364
333.67	-0.364
333.88	-0.364
334.09	-0.364
334.30	-0.364
334.51	-0.364
334.72	-0.363
334.93	-0.363
335.14	-0.363
335.35	-0.363
335.56	-0.363
335.77	-0.363
335.98	-0.363
336.18	-0.363
336.39	-0.363
336.60	-0.363
336.81	-0.363
337.02	-0.363
337.23	-0.363
337.44	-0.363
337.65	-0.363
337.86	-0.363
338.07	-0.363
338.28	-0.363
338.49	-0.362
338.70	-0.362
338.91	-0.362
339.11	-0.362
339.32	-0.362
339.53	-0.363
339.74	-0.363
339.95	-0.363
340.16	-0.362
340.37	-0.362
340.58	-0.362
340.79	-0.362
341.00	-0.362
341.21	-0.362
341.41	-0.362
341.62	-0.362
341.83	-0.362
342.04	-0.362
342.25	-0.362
342.46	-0.362
342.67	-0.362
342.88	-0.362
343.09	-0.361
343.30	-0.361
343.50	-0.361
343.71	-0.361
343.92	-0.361
344.13	-0.361
344.34	-0.361
344.55	-0.361
344.76	-0.361
344.97	-0.361
345.18	-0.361
345.38	-0.361
345.59	-0.361
345.80	-0.361
346.01	-0.361
346.22	-0.361
346.43	-0.361
346.64	-0.361
346.85	-0.361
347.06	-0.361
347.26	-0.361
347.47	-0.361
347.68	-0.361
347.89	-0.360
348.10	-0.360
348.31	-0.360
348.52	-0.360
348.73	-0.360
348.93	-0.360
349.14	-0.361
349.35	-0.361
349.56	-0.361
349.77	-0.361
349.98	-0.361
350.19	-0.361
350.39	-0.361
350.60	-0.361
350.81	-0.361
351.02	-0.361
351.23	-0.361
351.44	-0.360
351.65	-0.360
351.86	-0.360
352.06	-0.360
352.27	-0.360
352.48	-0.360
352.69	-0.360
352.90	-0.360
353.11	-0.360
353.31	-0.360
353.52	-0.360
353.73	-0.359
353.94	-0.359
354.15	-0.359
354.36	-0.359
354.57	-0.360
354.77	-0.359
354.98	-0.359
355.19	-0.359
355.40	-0.359
355.61	-0.359
355.82	-0.359
356.02	-0.359
356.23	-0.359
356.44	-0.359
356.65	-0.359
356.86	-0.359
357.07	-0.358
357.27	-0.358
357.48	-0.358
357.69	-0.358
357.90	-0.358
358.11	-0.358
358.32	-0.358
358.52	-0.358
358.73	-0.358
358.94	-0.357
359.15	-0.357
359.36	-0.358
359.56	-0.358
359.77	-0.357
359.98	-0.357
360.19	-0.357
360.40	-0.357
360.61	-0.357
360.81	-0.357
361.02	-0.356
361.23	-0.356
361.44	-0.356
361.65	-0.356
361.85	-0.355
362.06	-0.355
362.27	-0.355
362.48	-0.355
362.69	-0.355
362.89	-0.354
363.10	-0.354
363.31	-0.354
363.52	-0.354
363.73	-0.354
363.93	-0.353
364.14	-0.353
364.35	-0.352
364.56	-0.351
364.77	-0.351
364.97	-0.350
365.18	-0.349
365.39	-0.349
365.60	-0.348
365.81	-0.348
366.01	-0.347
366.22	-0.346
366.43	-0.345
366.64	-0.345
366.84	-0.345
367.05	-0.344
367.26	-0.343
367.47	-0.344
367.68	-0.343
367.88	-0.343
368.09	-0.343
368.30	-0.343
368.51	-0.343
368.71	-0.342
368.92	-0.342
369.13	-0.343
369.34	-0.343
369.55	-0.343
369.75	-0.344
369.96	-0.345
370.17	-0.346
370.38	-0.346
370.58	-0.346
370.79	-0.347
371.00	-0.348
371.21	-0.348
371.41	-0.349
371.62	-0.349
371.83	-0.349
372.04	-0.349
372.24	-0.349
372.45	-0.349
372.66	-0.349
372.87	-0.349
373.07	-0.349
373.28	-0.349
373.49	-0.349
373.70	-0.349
373.90	-0.348
374.11	-0.349
374.32	-0.349
374.53	-0.349
374.73	-0.348
374.94	-0.349
375.15	-0.349
375.36	-0.348
375.56	-0.348
375.77	-0.348
375.98	-0.348
376.19	-0.348
376.39	-0.347
376.60	-0.347
376.81	-0.346
377.02	-0.346
377.22	-0.345
377.43	-0.345
377.64	-0.344
377.84	-0.344
378.05	-0.343
378.26	-0.342
378.47	-0.341
378.67	-0.341
378.88	-0.340
379.09	-0.339
379.30	-0.339
379.50	-0.339
379.71	-0.338
379.92	-0.338
380.12	-0.338
380.33	-0.338
380.54	-0.338
380.75	-0.339
380.95	-0.339
381.16	-0.340
381.37	-0.340
381.57	-0.341
381.78	-0.342
381.99	-0.342
382.20	-0.343
382.40	-0.344
382.61	-0.345
382.82	-0.345
383.02	-0.346
383.23	-0.347
383.44	-0.347
383.64	-0.347
383.85	-0.347
384.06	-0.347
384.27	-0.348
384.47	-0.348
384.68	-0.348
384.89	-0.348
385.09	-0.348
385.30	-0.348
385.51	-0.348
385.71	-0.348
385.92	-0.348
386.13	-0.347
386.33	-0.347
386.54	-0.347
386.75	-0.346
386.95	-0.346
387.16	-0.346
387.37	-0.346
387.58	-0.346
387.78	-0.346
387.99	-0.346
388.20	-0.345
388.40	-0.346
388.61	-0.345
388.82	-0.345
389.02	-0.345
389.23	-0.345
389.44	-0.345
389.64	-0.345
389.85	-0.345
390.06	-0.344
390.26	-0.344
390.47	-0.343
390.68	-0.342
390.88	-0.341
391.09	-0.340
391.30	-0.339
391.50	-0.337
391.71	-0.337
391.92	-0.335
392.12	-0.334
392.33	-0.333
392.53	-0.333
392.74	-0.332
392.95	-0.332
393.15	-0.331
393.36	-0.331
393.57	-0.331
393.77	-0.332
393.98	-0.332
394.19	-0.333
394.39	-0.334
394.60	-0.335
394.81	-0.336
395.01	-0.337
395.22	-0.339
395.43	-0.340
395.63	-0.340
395.84	-0.340
396.04	-0.341
396.25	-0.340
396.46	-0.340
396.66	-0.338
396.87	-0.337
397.08	-0.336
397.28	-0.334
397.49	-0.332
397.69	-0.331
397.90	-0.329
398.11	-0.328
398.31	-0.327
398.52	-0.326
398.73	-0.325
398.93	-0.324
399.14	-0.325
399.34	-0.325
399.55	-0.325
399.76	-0.325
399.96	-0.326
400.17	-0.328
400.37	-0.330
400.58	-0.331
400.79	-0.332
400.99	-0.334
401.20	-0.335
401.41	-0.337
401.61	-0.338
401.82	-0.340
402.02	-0.341
402.23	-0.342
402.44	-0.343
402.64	-0.343
402.85	-0.343
403.05	-0.343
403.26	-0.343
403.47	-0.343
403.67	-0.343
403.88	-0.342
404.08	-0.342
404.29	-0.342
404.50	-0.341
404.70	-0.341
404.91	-0.340
405.11	-0.340
405.32	-0.340
405.52	-0.340
405.73	-0.340
405.94	-0.340
406.14	-0.340
406.35	-0.340
406.55	-0.340
406.76	-0.341
406.97	-0.341
407.17	-0.341
407.38	-0.341
407.58	-0.341
407.79	-0.342
407.99	-0.342
408.20	-0.343
408.41	-0.343
408.61	-0.344
408.82	-0.344
409.02	-0.344
409.23	-0.344
409.43	-0.344
409.64	-0.344
409.84	-0.344
410.05	-0.344
410.26	-0.344
410.46	-0.345
410.67	-0.345
410.87	-0.344
411.08	-0.344
411.28	-0.344
411.49	-0.344
411.69	-0.344
411.90	-0.344
412.11	-0.344
412.31	-0.344
412.52	-0.344
412.72	-0.344
412.93	-0.344
413.13	-0.344
413.34	-0.345
413.54	-0.345
413.75	-0.345
413.95	-0.345
414.16	-0.345
414.37	-0.345
414.57	-0.345
414.78	-0.346
414.98	-0.346
415.19	-0.347
415.39	-0.347
415.60	-0.347
415.80	-0.347
416.01	-0.347
416.21	-0.347
416.42	-0.348
416.62	-0.348
416.83	-0.348
417.03	-0.348
417.24	-0.348
417.44	-0.348
417.65	-0.348
417.86	-0.348
418.06	-0.349
418.27	-0.348
418.47	-0.348
418.68	-0.348
418.88	-0.348
419.09	-0.347
419.29	-0.347
419.50	-0.346
419.70	-0.345
419.91	-0.344
420.11	-0.343
420.32	-0.342
420.52	-0.340
420.73	-0.339
420.93	-0.337
421.14	-0.336
421.34	-0.335
421.55	-0.334
421.75	-0.332
421.96	-0.332
422.16	-0.331
422.37	-0.330
422.57	-0.330
422.78	-0.330
422.98	-0.331
423.19	-0.332
423.39	-0.332
423.60	-0.333
423.80	-0.334
424.01	-0.335
424.21	-0.337
424.42	-0.339
424.62	-0.340
424.83	-0.342
425.03	-0.343
425.23	-0.344
425.44	-0.345
425.64	-0.346
425.85	-0.346
426.05	-0.346
426.26	-0.347
426.46	-0.347
426.67	-0.347
426.87	-0.347
427.08	-0.347
427.28	-0.346
427.49	-0.345
427.69	-0.344
427.90	-0.342
428.10	-0.341
428.31	-0.340
428.51	-0.338
428.71	-0.336
428.92	-0.334
429.12	-0.332
429.33	-0.329
429.53	-0.327
429.74	-0.326
429.94	-0.325
430.15	-0.323
430.35	-0.322
430.56	-0.322
430.76	-0.321
430.96	-0.321
431.17	-0.322
431.37	-0.323
431.58	-0.324
431.78	-0.327
431.99	-0.329
432.19	-0.331
432.40	-0.333
432.60	-0.335
432.80	-0.338
433.01	-0.340
433.21	-0.341
433.42	-0.343
433.62	-0.344
433.83	-0.345
434.03	-0.345
434.23	-0.346
434.44	-0.345
434.64	-0.346
434.85	-0.345
435.05	-0.345
435.26	-0.345
435.46	-0.345
435.66	-0.344
435.87	-0.344
436.07	-0.344
436.28	-0.344
436.48	-0.343
436.69	-0.343
436.89	-0.343
437.09	-0.343
437.30	-0.342
437.50	-0.343
437.71	-0.342
437.91	-0.343
438.11	-0.343
438.32	-0.344
438.52	-0.344
438.73	-0.344
438.93	-0.345
439.13	-0.345
439.34	-0.346
439.54	-0.346
439.75	-0.346
439.95	-0.346
440.15	-0.346
440.36	-0.346
440.56	-0.346
440.77	-0.347
440.97	-0.347
441.17	-0.347
441.38	-0.346
441.58	-0.346
441.79	-0.346
441.99	-0.346
442.19	-0.346
442.40	-0.346
442.60	-0.345
442.81	-0.345
443.01	-0.345
443.21	-0.345
443.42	-0.345
443.62	-0.345
443.82	-0.345
444.03	-0.344
444.23	-0.344
444.44	-0.345
444.64	-0.344
444.84	-0.344
445.05	-0.343
445.25	-0.344
445.45	-0.343
445.66	-0.343
445.86	-0.343
446.06	-0.343
446.27	-0.344
446.47	-0.344
446.68	-0.344
446.88	-0.344
447.08	-0.345
447.29	-0.345
447.49	-0.345
447.69	-0.346
447.90	-0.346
448.10	-0.346
448.30	-0.346
448.51	-0.346
448.71	-0.346
448.91	-0.346
449.12	-0.346
449.32	-0.346
449.52	-0.346
449.73	-0.346
449.93	-0.346
450.14	-0.346
450.34	-0.346
450.54	-0.346
450.75	-0.346
450.95	-0.346
451.15	-0.346
451.36	-0.346
451.56	-0.346
451.76	-0.346
451.97	-0.346
452.17	-0.345
452.37	-0.345
452.58	-0.345
452.78	-0.345
452.98	-0.345
453.19	-0.345
453.39	-0.345
453.59	-0.345
453.79	-0.345
454.00	-0.345
454.20	-0.345
454.40	-0.345
454.61	-0.345
454.81	-0.345
455.01	-0.345
455.22	-0.345
455.42	-0.345
455.62	-0.345
455.83	-0.345
456.03	-0.345
456.23	-0.345
456.44	-0.345
456.64	-0.345
456.84	-0.345
457.04	-0.345
457.25	-0.345
457.45	-0.345
457.65	-0.345
457.86	-0.344
458.06	-0.345
458.26	-0.345
458.47	-0.345
458.67	-0.344
458.87	-0.344
459.07	-0.344
459.28	-0.344
459.48	-0.345
459.68	-0.345
459.89	-0.345
460.09	-0.345
460.29	-0.345
460.49	-0.345
460.70	-0.345
460.90	-0.345
461.10	-0.345
461.31	-0.345
461.51	-0.345
461.71	-0.345
461.91	-0.345
462.12	-0.345
462.32	-0.345
462.52	-0.345
462.72	-0.344
462.93	-0.344
463.13	-0.344
463.33	-0.344
463.53	-0.344
463.74	-0.344
463.94	-0.344
464.14	-0.344
464.35	-0.344
464.55	-0.344
464.75	-0.344
464.95	-0.344
465.16	-0.344
465.36	-0.344
465.56	-0.344
465.76	-0.344
465.97	-0.344
466.17	-0.345
466.37	-0.345
466.57	-0.345
466.78	-0.345
466.98	-0.345
467.18	-0.345
467.38	-0.345
467.59	-0.345
467.79	-0.345
467.99	-0.345
468.19	-0.345
468.39	-0.345
468.60	-0.345
468.80	-0.345
469.00	-0.345
469.20	-0.344
469.41	-0.344
469.61	-0.345
469.81	-0.345
470.01	-0.345
470.22	-0.345
470.42	-0.345
470.62	-0.345
470.82	-0.345
471.02	-0.345
471.23	-0.345
471.43	-0.345
471.63	-0.345
471.83	-0.345
472.04	-0.345
472.24	-0.345
472.44	-0.345
472.64	-0.345
472.84	-0.345
473.05	-0.344
473.25	-0.344
473.45	-0.343
473.65	-0.342
473.85	-0.341
474.06	-0.339
474.26	-0.337
474.46	-0.336
474.66	-0.333
474.86	-0.331
475.07	-0.328
475.27	-0.326
475.47	-0.324
475.67	-0.322
475.87	-0.319
476.08	-0.318
476.28	-0.317
476.48	-0.316
476.68	-0.314
476.88	-0.313
477.09	-0.312
477.29	-0.312
477.49	-0.311
477.69	-0.310
477.89	-0.309
478.09	-0.308
478.30	-0.307
478.50	-0.306
478.70	-0.304
478.90	-0.302
479.10	-0.300
479.31	-0.298
479.51	-0.295
479.71	-0.292
479.91	-0.290
480.11	-0.287
480.31	-0.284
480.52	-0.281
480.72	-0.279
480.92	-0.276
481.12	-0.273
481.32	-0.270
481.52	-0.268
481.72	-0.265
481.93	-0.263
482.13	-0.260
482.33	-0.257
482.53	-0.254
482.73	-0.252
482.93	-0.248
483.14	-0.244
483.34	-0.241
483.54	-0.238
483.74	-0.234
483.94	-0.230
484.14	-0.226
484.34	-0.222
484.55	-0.218
484.75	-0.214
484.95	-0.210
485.15	-0.207
485.35	-0.204
485.55	-0.201
485.75	-0.198
485.96	-0.196
486.16	-0.195
486.36	-0.193
486.56	-0.192
486.76	-0.192
486.96	-0.192
487.16	-0.193
487.36	-0.194
487.57	-0.195
487.77	-0.197
487.97	-0.200
488.17	-0.202
488.37	-0.205
488.57	-0.208
488.77	-0.211
488.97	-0.214
489.18	-0.217
489.38	-0.219
489.58	-0.222
489.78	-0.224
489.98	-0.226
490.18	-0.227
490.38	-0.229
490.58	-0.230
490.78	-0.231
490.98	-0.231
491.19	-0.232
491.39	-0.232
491.59	-0.232
491.79	-0.232
491.99	-0.232
492.19	-0.232
492.39	-0.232
492.59	-0.231
492.79	-0.230
492.99	-0.230
493.20	-0.229
493.40	-0.228
493.60	-0.227
493.80	-0.225
494.00	-0.224
494.20	-0.222
494.40	-0.220
494.60	-0.219
494.80	-0.217
495.00	-0.216
495.20	-0.215
495.40	-0.214
495.61	-0.213
495.81	-0.213
496.01	-0.213
496.21	-0.213
496.41	-0.213
496.61	-0.213
496.81	-0.214
497.01	-0.214
497.21	-0.215
497.41	-0.216
497.61	-0.217
497.81	-0.219
498.01	-0.220
498.21	-0.222
498.41	-0.224
498.61	-0.226
498.82	-0.228
499.02	-0.229
499.22	-0.231
499.42	-0.233
499.62	-0.234
499.82	-0.235
500.02	-0.235
500.22	-0.235
500.42	-0.235
500.62	-0.235
500.82	-0.235
501.02	-0.234
501.22	-0.234
501.42	-0.233
501.62	-0.233
501.82	-0.232
502.02	-0.232
502.22	-0.231
502.42	-0.231
502.62	-0.231
502.82	-0.230
503.02	-0.230
503.22	-0.231
503.42	-0.231
503.63	-0.231
503.83	-0.232
504.03	-0.233
504.23	-0.234
504.43	-0.236
504.63	-0.237
504.83	-0.239
505.03	-0.240
505.23	-0.242
505.43	-0.243
505.63	-0.245
505.83	-0.247
506.03	-0.249
506.23	-0.251
506.43	-0.252
506.63	-0.254
506.83	-0.256
507.03	-0.258
507.23	-0.260
507.43	-0.261
507.63	-0.263
507.83	-0.265
508.03	-0.266
508.23	-0.268
508.43	-0.269
508.63	-0.270
508.83	-0.271
509.03	-0.272
509.23	-0.273
509.43	-0.274
509.63	-0.275
509.83	-0.277
510.03	-0.278
510.23	-0.279
510.43	-0.280
510.63	-0.281
510.83	-0.282
511.03	-0.283
511.23	-0.284
511.43	-0.285
511.63	-0.286
511.83	-0.288
512.03	-0.289
512.22	-0.290
512.42	-0.292
512.62	-0.293
512.82	-0.296
513.02	-0.297
513.22	-0.299
513.42	-0.301
513.62	-0.302
513.82	-0.304
514.02	-0.306
514.22	-0.307
514.42	-0.308
514.62	-0.309
514.82	-0.310
515.02	-0.311
515.22	-0.312
515.42	-0.313
515.62	-0.314
515.82	-0.315
516.02	-0.316
516.22	-0.317
516.42	-0.318
516.62	-0.318
516.82	-0.318
517.01	-0.318
517.21	-0.318
517.41	-0.318
517.61	-0.318
517.81	-0.319
518.01	-0.319
518.21	-0.319
518.41	-0.320
518.61	-0.320
518.81	-0.321
519.01	-0.322
519.21	-0.323
519.41	-0.325
519.61	-0.325
519.81	-0.327
520.00	-0.328
520.20	-0.329
520.40	-0.329
520.60	-0.331
520.80	-0.332
521.00	-0.333
521.20	-0.334
521.40	-0.335
521.60	-0.335
521.80	-0.336
522.00	-0.337
522.20	-0.338
522.39	-0.338
522.59	-0.339
522.79	-0.339
522.99	-0.340
523.19	-0.340
523.39	-0.340
523.59	-0.340
523.79	-0.341
523.99	-0.341
524.19	-0.342
524.38	-0.342
524.58	-0.342
524.78	-0.342
524.98	-0.343
525.18	-0.343
525.38	-0.344
525.58	-0.344
525.78	-0.344
525.98	-0.345
526.18	-0.345
526.37	-0.345
526.57	-0.345
526.77	-0.345
526.97	-0.345
527.17	-0.345
527.37	-0.345
527.57	-0.345
527.77	-0.344
527.96	-0.344
528.16	-0.344
528.36	-0.345
528.56	-0.345
528.76	-0.345
528.96	-0.345
529.16	-0.345
529.36	-0.345
529.55	-0.345
529.75	-0.345
529.95	-0.345
530.15	-0.346
530.35	-0.346
530.55	-0.346
530.75	-0.346
530.94	-0.346
531.14	-0.346
531.34	-0.346
531.54	-0.346
531.74	-0.346
531.94	-0.346
532.13	-0.346
532.33	-0.345
532.53	-0.345
532.73	-0.344
532.93	-0.343
533.13	-0.343
533.33	-0.342
533.52	-0.341
533.72	-0.341
533.92	-0.340
534.12	-0.340
534.32	-0.339
534.52	-0.339
534.71	-0.339
534.91	-0.339
535.11	-0.339
535.31	-0.339
535.51	-0.339
535.71	-0.339
535.90	-0.338
536.10	-0.338
536.30	-0.338
536.50	-0.338
536.70	-0.337
536.89	-0.337
537.09	-0.336
537.29	-0.336
537.49	-0.335
537.69	-0.335
537.89	-0.334
538.08	-0.334
538.28	-0.333
538.48	-0.333
538.68	-0.332
538.88	-0.332
539.07	-0.331
539.27	-0.331
539.47	-0.331
539.67	-0.331
539.87	-0.331
540.06	-0.331
540.26	-0.331
540.46	-0.332
540.66	-0.333
540.86	-0.334
541.05	-0.335
541.25	-0.336
541.45	-0.337
541.65	-0.338
541.84	-0.339
542.04	-0.340
542.24	-0.340
542.44	-0.340
542.64	-0.340
542.83	-0.341
543.03	-0.341
543.23	-0.341
543.43	-0.340
543.62	-0.340
543.82	-0.340
544.02	-0.340
544.22	-0.340
544.42	-0.339
544.61	-0.339
544.81	-0.338
545.01	-0.337
545.21	-0.336
545.40	-0.335
545.60	-0.334
545.80	-0.333
546.00	-0.332
546.19	-0.331
546.39	-0.330
546.59	-0.330
546.79	-0.330
546.98	-0.331
547.18	-0.331
547.38	-0.332
547.58	-0.333
547.77	-0.334
547.97	-0.335
548.17	-0.336
548.37	-0.338
548.56	-0.339
548.76	-0.340
548.96	-0.342
549.16	-0.343
549.35	-0.345
549.55	-0.346
549.75	-0.348
549.95	-0.349
550.14	-0.351
550.34	-0.352
550.54	-0.352
550.73	-0.353
550.93	-0.353
551.13	-0.353
551.33	-0.353
551.52	-0.353
551.72	-0.353
551.92	-0.352
552.12	-0.351
552.31	-0.350
552.51	-0.349
552.71	-0.348
552.90	-0.347
553.10	-0.345
553.30	-0.344
553.50	-0.343
553.69	-0.343
553.89	-0.342
554.09	-0.341
554.28	-0.342
554.48	-0.342
554.68	-0.344
554.87	-0.345
555.07	-0.346
555.27	-0.348
555.47	-0.350
555.66	-0.352
555.86	-0.353
556.06	-0.355
556.25	-0.356
556.45	-0.357
556.65	-0.358
556.84	-0.359
557.04	-0.359
557.24	-0.359
557.43	-0.360
557.63	-0.360
557.83	-0.359
558.02	-0.359
558.22	-0.359
558.42	-0.359
558.61	-0.359
558.81	-0.359
559.01	-0.359
559.21	-0.359
559.40	-0.359
559.60	-0.359
559.80	-0.359
559.99	-0.359
560.19	-0.358
560.39	-0.357
560.58	-0.356
560.78	-0.355
560.97	-0.353
561.17	-0.352
561.37	-0.350
561.56	-0.349
561.76	-0.347
561.96	-0.346
562.15	-0.345
562.35	-0.344
562.55	-0.344
562.74	-0.345
562.94	-0.346
563.14	-0.347
563.33	-0.349
563.53	-0.350
563.73	-0.352
563.92	-0.354
564.12	-0.355
564.31	-0.357
564.51	-0.358
564.71	-0.359
564.90	-0.360
565.10	-0.361
565.30	-0.361
565.49	-0.361
565.69	-0.362
565.89	-0.361
566.08	-0.361
566.28	-0.361
566.47	-0.361
566.67	-0.359
566.87	-0.357
567.06	-0.355
567.26	-0.352
567.46	-0.348
567.65	-0.344
567.85	-0.339
568.04	-0.334
568.24	-0.327
568.44	-0.320
568.63	-0.313
568.83	-0.305
569.02	-0.298
569.22	-0.290
569.42	-0.282
569.61	-0.275
569.81	-0.268
570.00	-0.261
570.20	-0.254
570.40	-0.248
570.59	-0.242
570.79	-0.236
570.98	-0.231
571.18	-0.226
571.38	-0.221
571.57	-0.216
571.77	-0.211
571.96	-0.206
572.16	-0.201
572.35	-0.197
572.55	-0.192
572.75	-0.189
572.94	-0.186
573.14	-0.183
573.33	-0.181
573.53	-0.179
573.73	-0.176
573.92	-0.175
574.12	-0.173
574.31	-0.172
574.51	-0.171
574.70	-0.169
574.90	-0.166
575.09	-0.163
575.29	-0.159
575.49	-0.156
575.68	-0.152
575.88	-0.149
576.07	-0.146
576.27	-0.143
576.46	-0.141
576.66	-0.138
576.86	-0.136
577.05	-0.135
577.25	-0.134
577.44	-0.133
577.64	-0.133
577.83	-0.132
578.03	-0.132
578.22	-0.130
578.42	-0.127
578.61	-0.124
578.81	-0.121
579.00	-0.118
579.20	-0.116
579.40	-0.113
579.59	-0.110
579.79	-0.108
579.98	-0.106
580.18	-0.104
580.37	-0.104
580.57	-0.104
580.76	-0.105
580.96	-0.107
581.15	-0.108
581.35	-0.110
581.54	-0.111
581.74	-0.112
581.93	-0.113
582.13	-0.113
582.32	-0.114
582.52	-0.114
582.71	-0.116
582.91	-0.117
583.10	-0.119
583.30	-0.121
583.49	-0.123
583.69	-0.126
583.88	-0.129
584.08	-0.133
584.27	-0.137
584.47	-0.141
584.66	-0.144
584.86	-0.146
585.05	-0.148
585.25	-0.149
585.44	-0.149
585.64	-0.148
585.83	-0.148
586.03	-0.147
586.22	-0.148
586.42	-0.149
586.61	-0.150
586.81	-0.153
587.00	-0.156
587.20	-0.160
587.39	-0.164
587.59	-0.169
587.78	-0.175
587.98	-0.182
588.17	-0.188
588.37	-0.194
588.56	-0.200
588.76	-0.206
588.95	-0.212
589.15	-0.217
589.34	-0.222
589.54	-0.227
589.73	-0.232
589.92	-0.235
590.12	-0.238
590.31	-0.240
590.51	-0.240
590.70	-0.240
590.90	-0.239
591.09	-0.238
591.29	-0.236
591.48	-0.233
591.68	-0.231
591.87	-0.228
592.06	-0.226
592.26	-0.224
592.45	-0.222
592.65	-0.221
592.84	-0.220
593.04	-0.220
593.23	-0.220
593.43	-0.220
593.62	-0.220
593.81	-0.221
594.01	-0.223
594.20	-0.226
594.40	-0.229
594.59	-0.233
594.79	-0.237
594.98	-0.242
595.17	-0.247
595.37	-0.252
595.56	-0.257
595.76	-0.261
595.95	-0.263
596.14	-0.265
596.34	-0.266
596.53	-0.266
596.73	-0.265
596.92	-0.262
597.12	-0.258
597.31	-0.254
597.50	-0.248
597.70	-0.243
597.89	-0.238
598.09	-0.233
598.28	-0.228
598.47	-0.224
598.67	-0.220
598.86	-0.217
599.06	-0.215
599.25	-0.214
599.44	-0.213
599.64	-0.213
599.83	-0.215
600.03	-0.217
600.22	-0.221
600.41	-0.225
600.61	-0.229
600.80	-0.235
601.00	-0.240
601.19	-0.245
601.38	-0.252
601.58	-0.258
601.77	-0.265
601.96	-0.271
602.16	-0.277
602.35	-0.282
602.55	-0.287
602.74	-0.291
602.93	-0.294
603.13	-0.296
603.32	-0.298
603.51	-0.297
603.71	-0.297
603.90	-0.295
604.09	-0.292
604.29	-0.288
604.48	-0.284
604.68	-0.280
604.87	-0.275
605.06	-0.272
605.26	-0.268
605.45	-0.265
605.64	-0.262
605.84	-0.260
606.03	-0.258
606.22	-0.257
606.42	-0.257
606.61	-0.258
606.80	-0.259
607.00	-0.261
607.19	-0.263
607.38	-0.266
607.58	-0.269
607.77	-0.273
607.96	-0.277
608.16	-0.282
608.35	-0.287
608.54	-0.293
608.74	-0.298
608.93	-0.305
609.12	-0.312
609.32	-0.318
609.51	-0.324
609.70	-0.330
609.90	-0.336
610.09	-0.341
610.28	-0.346
610.48	-0.350
610.67	-0.353
610.86	-0.356
611.06	-0.357
611.25	-0.359
611.44	-0.359
611.64	-0.359
611.83	-0.358
612.02	-0.357
612.21	-0.354
612.41	-0.352
612.60	-0.349
612.79	-0.347
612.99	-0.344
613.18	-0.342
613.37	-0.339
613.57	-0.337
613.76	-0.335
613.95	-0.333
614.14	-0.332
614.34	-0.332
614.53	-0.332
614.72	-0.334
614.92	-0.335
615.11	-0.337
615.30	-0.338
615.49	-0.341
615.69	-0.343
615.88	-0.346
616.07	-0.350
616.26	-0.355
616.46	-0.359
616.65	-0.365
616.84	-0.370
617.04	-0.375
617.23	-0.381
617.42	-0.386
617.61	-0.392
617.81	-0.398
618.00	-0.403
618.19	-0.408
618.38	-0.410
618.58	-0.414
618.77	-0.415
618.96	-0.416
619.15	-0.415
619.35	-0.415
619.54	-0.414
619.73	-0.413
619.92	-0.410
620.12	-0.409
620.31	-0.404
620.50	-0.403
620.69	-0.398
620.89	-0.397
621.08	-0.393
621.27	-0.391
621.46	-0.388
621.66	-0.386
621.85	-0.383
622.04	-0.382
622.23	-0.380
622.43	-0.379
622.62	-0.377
622.81	-0.377
623.00	-0.375
623.19	-0.376
623.39	-0.375
623.58	-0.375
623.77	-0.375
623.96	-0.376
624.16	-0.376
624.35	-0.376
624.54	-0.377
624.73	-0.377
624.92	-0.377
625.12	-0.378
625.31	-0.378
625.50	-0.378
625.69	-0.378
625.88	-0.379
626.08	-0.379
626.27	-0.379
626.46	-0.379
626.65	-0.380
626.84	-0.380
627.04	-0.380
627.23	-0.380
627.42	-0.380
627.61	-0.381
627.80	-0.381
628.00	-0.381
628.19	-0.381
628.38	-0.381
628.57	-0.381
628.76	-0.382
628.96	-0.382
629.15	-0.382
629.34	-0.382
629.53	-0.383
629.72	-0.383
629.91	-0.383
630.11	-0.384
630.30	-0.384
630.49	-0.384
630.68	-0.385
630.87	-0.385
631.06	-0.385
631.26	-0.386
631.45	-0.386
631.64	-0.387
631.83	-0.387
632.02	-0.388
632.21	-0.388
632.41	-0.388
632.60	-0.389
632.79	-0.389
632.98	-0.389
633.17	-0.390
633.36	-0.390
633.55	-0.390
633.75	-0.390
633.94	-0.390
634.13	-0.390
634.32	-0.390
634.51	-0.390
634.70	-0.390
634.89	-0.390
635.09	-0.390
635.28	-0.390
635.47	-0.390
635.66	-0.390
635.85	-0.390
636.04	-0.390
636.23	-0.390
636.43	-0.390
636.62	-0.390
636.81	-0.390
637.00	-0.390
637.19	-0.391
637.38	-0.391
637.57	-0.391
637.76	-0.391
637.95	-0.391
638.15	-0.391
638.34	-0.392
638.53	-0.392
638.72	-0.392
638.91	-0.393
639.10	-0.393
639.29	-0.393
639.48	-0.393
639.67	-0.394
639.87	-0.394
640.06	-0.394
640.25	-0.395
640.44	-0.395
640.63	-0.395
640.82	-0.395
641.01	-0.396
641.20	-0.396
641.39	-0.396
641.58	-0.396
641.78	-0.396
641.97	-0.396
642.16	-0.396
642.35	-0.396
642.54	-0.396
642.73	-0.396
642.92	-0.396
643.11	-0.396
643.30	-0.396
643.49	-0.396
643.68	-0.396
643.87	-0.396
644.06	-0.396
644.25	-0.396
644.45	-0.396
644.64	-0.396
644.83	-0.396
645.02	-0.397
645.21	-0.397
645.40	-0.397
645.59	-0.397
645.78	-0.397
645.97	-0.397
646.16	-0.397
646.35	-0.397
646.54	-0.396
646.73	-0.396
646.92	-0.396
647.11	-0.396
647.30	-0.395
647.49	-0.395
647.68	-0.395
647.88	-0.395
648.07	-0.394
648.26	-0.394
648.45	-0.394
648.64	-0.394
648.83	-0.394
649.02	-0.394
649.21	-0.393
649.40	-0.393
649.59	-0.393
649.78	-0.393
649.97	-0.393
650.16	-0.393
650.35	-0.393
650.54	-0.393
650.73	-0.394
650.92	-0.394
651.11	-0.394
651.30	-0.394
651.49	-0.394
651.68	-0.394
651.87	-0.394
652.06	-0.394
652.25	-0.395
652.44	-0.395
652.63	-0.394
652.82	-0.393
653.01	-0.391
653.20	-0.388
653.39	-0.383
653.58	-0.376
653.77	-0.369
653.96	-0.361
654.15	-0.352
654.34	-0.343
654.53	-0.334
654.72	-0.326
654.91	-0.317
655.10	-0.308
655.29	-0.300
655.48	-0.294
655.67	-0.288
655.86	-0.284
656.05	-0.280
656.24	-0.277
656.43	-0.275
656.62	-0.273
656.81	-0.273
657.00	-0.275
657.19	-0.280
657.38	-0.289
657.57	-0.299
657.76	-0.313
657.95	-0.326
658.14	-0.337
658.33	-0.348
658.51	-0.360
658.70	-0.372
658.89	-0.385
659.08	-0.396
659.27	-0.402
659.46	-0.405
659.65	-0.404
659.84	-0.401
660.03	-0.397
660.22	-0.398
660.41	-0.398
660.60	-0.399
660.79	-0.399
660.98	-0.399
661.17	-0.400
661.36	-0.400
661.55	-0.400
661.74	-0.400
661.92	-0.401
662.11	-0.400
662.30	-0.400
662.49	-0.400
662.68	-0.400
662.87	-0.400
663.06	-0.401
663.25	-0.401
663.44	-0.400
663.63	-0.400
663.82	-0.401
664.01	-0.401
664.20	-0.401
664.38	-0.401
664.57	-0.401
664.76	-0.401
664.95	-0.401
665.14	-0.401
665.33	-0.401
665.52	-0.402
665.71	-0.402
665.90	-0.402
666.09	-0.402
666.28	-0.402
666.46	-0.402
666.65	-0.402
666.84	-0.402
667.03	-0.402
667.22	-0.402
667.41	-0.403
667.60	-0.402
667.79	-0.402
667.98	-0.402
668.16	-0.402
668.35	-0.402
668.54	-0.402
668.73	-0.401
668.92	-0.401
669.11	-0.401
669.30	-0.400
669.49	-0.400
669.67	-0.400
669.86	-0.400
670.05	-0.399
670.24	-0.399
670.43	-0.398
670.62	-0.398
670.81	-0.398
671.00	-0.398
671.18	-0.398
671.37	-0.398
671.56	-0.398
671.75	-0.398
671.94	-0.398
672.13	-0.398
672.32	-0.398
672.50	-0.398
672.69	-0.398
672.88	-0.398
673.07	-0.398
673.26	-0.398
673.45	-0.398
673.63	-0.398
673.82	-0.399
674.01	-0.399
674.20	-0.399
674.39	-0.399
674.58	-0.400
674.76	-0.400
674.95	-0.400
675.14	-0.400
675.33	-0.400
675.52	-0.400
675.71	-0.400
675.89	-0.400
676.08	-0.400
676.27	-0.400
676.46	-0.400
676.65	-0.399
676.84	-0.399
677.02	-0.399
677.21	-0.399
677.40	-0.399
677.59	-0.398
677.78	-0.398
677.96	-0.398
678.15	-0.398
678.34	-0.398
678.53	-0.398
678.72	-0.397
678.90	-0.397
679.09	-0.397
679.28	-0.397
679.47	-0.397
679.66	-0.397
679.84	-0.397
680.03	-0.397
680.22	-0.397
680.41	-0.397
680.60	-0.397
680.78	-0.398
680.97	-0.398
681.16	-0.398
681.35	-0.398
681.53	-0.398
681.72	-0.398
681.91	-0.399
682.10	-0.399
682.29	-0.399
682.47	-0.398
682.66	-0.398
682.85	-0.398
683.04	-0.398
683.22	-0.398
683.41	-0.398
683.60	-0.397
683.79	-0.397
683.97	-0.397
684.16	-0.397
684.35	-0.397
684.54	-0.396
684.72	-0.396
684.91	-0.396
685.10	-0.396
685.29	-0.396
685.47	-0.396
685.66	-0.396
685.85	-0.396
686.04	-0.396
686.22	-0.396
686.41	-0.396
686.60	-0.396
686.79	-0.396
686.97	-0.397
687.16	-0.397
687.35	-0.397
687.54	-0.397
687.72	-0.398
687.91	-0.398
688.10	-0.398
688.29	-0.398
688.47	-0.398
688.66	-0.398
688.85	-0.398
689.03	-0.399
689.22	-0.399
689.41	-0.399
689.60	-0.399
689.78	-0.399
689.97	-0.399
690.16	-0.399
690.34	-0.399
690.53	-0.399
690.72	-0.399
690.91	-0.399
691.09	-0.399
691.28	-0.399
691.47	-0.399
691.65	-0.399
691.84	-0.399
692.03	-0.399
692.21	-0.399
692.40	-0.399
692.59	-0.399
692.77	-0.399
692.96	-0.400
693.15	-0.400
693.34	-0.400
693.52	-0.400
693.71	-0.400
693.90	-0.400
694.08	-0.400
694.27	-0.400
694.46	-0.400
694.64	-0.400
694.83	-0.400
695.02	-0.400
695.20	-0.399
695.39	-0.399
695.58	-0.399
695.76	-0.399
695.95	-0.399
696.14	-0.398
696.32	-0.398
696.51	-0.398
696.70	-0.398
696.88	-0.398
697.07	-0.398
697.26	-0.398
697.44	-0.398
697.63	-0.398
697.81	-0.398
698.00	-0.399
698.19	-0.399
698.37	-0.399
698.56	-0.399
698.75	-0.399
698.93	-0.400
699.12	-0.400
699.31	-0.401
699.49	-0.401
699.68	-0.401
699.87	-0.402
700.05	-0.402
700.24	-0.402
700.42	-0.403
700.61	-0.403
700.80	-0.403
700.98	-0.403
701.17	-0.403
701.36	-0.403
701.54	-0.403
701.73	-0.403
701.91	-0.403
702.10	-0.403
702.29	-0.403
702.47	-0.403
702.66	-0.403
702.84	-0.403
703.03	-0.403
703.22	-0.403
703.40	-0.403
703.59	-0.403
703.77	-0.403
703.96	-0.403
704.15	-0.403
704.33	-0.403
704.52	-0.403
704.70	-0.403
704.89	-0.403
705.08	-0.403
705.26	-0.402
705.45	-0.402
705.63	-0.402
705.82	-0.402
706.00	-0.402
706.19	-0.401
706.38	-0.401
706.56	-0.401
706.75	-0.400
706.93	-0.400
707.12	-0.399
707.30	-0.399
707.49	-0.399
707.68	-0.399
707.86	-0.399
708.05	-0.399
708.23	-0.399
708.42	-0.399
708.60	-0.399
708.79	-0.399
708.98	-0.399
709.16	-0.400
709.35	-0.400
709.53	-0.400
709.72	-0.401
709.90	-0.401
710.09	-0.401
710.27	-0.402
710.46	-0.402
710.64	-0.402
710.83	-0.402
711.02	-0.402
711.20	-0.402
711.39	-0.402
711.57	-0.402
711.76	-0.402
711.94	-0.402
712.13	-0.401
712.31	-0.402
712.50	-0.401
712.68	-0.401
712.87	-0.401
713.05	-0.401
713.24	-0.401
713.42	-0.401
713.61	-0.400
713.79	-0.401
713.98	-0.401
714.16	-0.401
714.35	-0.401
714.54	-0.401
714.72	-0.401
714.91	-0.401
715.09	-0.401
715.28	-0.401
715.46	-0.401
715.65	-0.402
715.83	-0.401
716.02	-0.402
716.20	-0.402
716.39	-0.402
716.57	-0.402
716.76	-0.402
716.94	-0.402
717.12	-0.402
717.31	-0.402
717.49	-0.402
717.68	-0.402
717.86	-0.402
718.05	-0.402
718.23	-0.402
718.42	-0.403
718.60	-0.402
718.79	-0.403
718.97	-0.402
719.16	-0.403
719.34	-0.403
719.53	-0.403
719.71	-0.403
719.90	-0.403
720.08	-0.403
720.27	-0.403
720.45	-0.403
720.63	-0.404
720.82	-0.404
721.00	-0.404
721.19	-0.404
721.37	-0.404
721.56	-0.404
721.74	-0.405
721.93	-0.405
722.11	-0.405
722.30	-0.405
722.48	-0.405
722.66	-0.404
722.85	-0.405
723.03	-0.405
723.22	-0.404
723.40	-0.404
723.59	-0.404
723.77	-0.404
723.95	-0.404
724.14	-0.404
724.32	-0.404
724.51	-0.404
724.69	-0.404
724.88	-0.404
725.06	-0.404
725.24	-0.404
725.43	-0.404
725.61	-0.404
725.80	-0.403
725.98	-0.403
726.16	-0.403
726.35	-0.403
726.53	-0.403
726.72	-0.402
726.90	-0.402
727.09	-0.402
727.27	-0.402
727.45	-0.402
727.64	-0.402
727.82	-0.402
728.01	-0.403
728.19	-0.403
728.37	-0.403
728.56	-0.403
728.74	-0.403
728.92	-0.403
729.11	-0.403
729.29	-0.403
729.48	-0.402
729.66	-0.402
729.84	-0.402
730.03	-0.401
730.21	-0.401
730.40	-0.400
730.58	-0.400
730.76	-0.400
730.95	-0.400
731.13	-0.399
731.31	-0.399
731.50	-0.399
731.68	-0.399
731.86	-0.399
732.05	-0.399
732.23	-0.399
732.42	-0.399
732.60	-0.399
732.78	-0.399
732.97	-0.399
733.15	-0.399
733.33	-0.398
733.52	-0.398
733.70	-0.398
733.88	-0.398
734.07	-0.398
734.25	-0.398
734.43	-0.398
734.62	-0.397
734.80	-0.397
734.98	-0.398
735.17	-0.398
735.35	-0.398
735.53	-0.398
735.72	-0.398
735.90	-0.398
736.08	-0.398
736.27	-0.398
736.45	-0.398
736.63	-0.399
736.82	-0.399
737.00	-0.399
737.18	-0.399
737.37	-0.399
737.55	-0.398
737.73	-0.399
737.92	-0.399
738.10	-0.399
738.28	-0.399
738.46	-0.399
738.65	-0.399
738.83	-0.399
739.01	-0.400
739.20	-0.401
739.38	-0.401
739.56	-0.402
739.75	-0.402
739.93	-0.402
740.11	-0.403
740.29	-0.403
740.48	-0.403
740.66	-0.403
740.84	-0.403
741.03	-0.404
741.21	-0.403
741.39	-0.403
741.57	-0.404
741.76	-0.404
741.94	-0.405
742.12	-0.405
742.31	-0.405
742.49	-0.405
742.67	-0.406
742.85	-0.407
743.04	-0.407
743.22	-0.407
743.40	-0.407
743.58	-0.407
743.77	-0.408
743.95	-0.408
744.13	-0.409
744.31	-0.409
744.50	-0.409
744.68	-0.409
744.86	-0.409
745.04	-0.410
745.23	-0.411
745.41	-0.411
745.59	-0.411
745.77	-0.410
745.96	-0.410
746.14	-0.410
746.32	-0.411
746.50	-0.411
746.69	-0.411
746.87	-0.412
747.05	-0.411
747.23	-0.410
747.42	-0.411
747.60	-0.411
747.78	-0.412
747.96	-0.412
748.14	-0.411
748.33	-0.411
748.51	-0.411
748.69	-0.411
748.87	-0.410
749.06	-0.411
749.24	-0.412
749.42	-0.411
749.60	-0.411
749.78	-0.410
749.97	-0.410
750.15	-0.410
750.33	-0.409
750.51	-0.410
750.69	-0.409
750.88	-0.409
751.06	-0.409
751.24	-0.408
751.42	-0.408
751.60	-0.409
751.79	-0.409
751.97	-0.409
752.15	-0.410
752.33	-0.410
752.51	-0.409
752.69	-0.409
752.88	-0.409
753.06	-0.409
753.24	-0.409
753.42	-0.409
753.60	-0.408
753.78	-0.408
753.97	-0.408
754.15	-0.408
754.33	-0.408
754.51	-0.408
754.69	-0.408
754.87	-0.409
755.06	-0.408
755.24	-0.406
755.42	-0.406
755.60	-0.406
755.78	-0.406
755.96	-0.406
756.15	-0.405
756.33	-0.405
756.51	-0.404
756.69	-0.404
756.87	-0.403
757.05	-0.403
757.23	-0.404
757.42	-0.404
757.60	-0.403
757.78	-0.403
757.96	-0.403
758.14	-0.403
758.32	-0.403
758.50	-0.404
758.69	-0.404
758.87	-0.404
759.05	-0.404
759.23	-0.404
759.41	-0.405
759.59	-0.406
759.77	-0.406
759.95	-0.406
760.13	-0.406
760.32	-0.406
760.50	-0.406
760.68	-0.406
760.86	-0.406
761.04	-0.406
761.22	-0.406
761.40	-0.406
761.58	-0.406
761.76	-0.405
761.95	-0.405
762.13	-0.405
762.31	-0.405
762.49	-0.404
762.67	-0.404
762.85	-0.405
763.03	-0.405
763.21	-0.405
763.39	-0.405
763.57	-0.405
763.75	-0.405
763.94	-0.405
764.12	-0.406
764.30	-0.406
764.48	-0.406
764.66	-0.406
764.84	-0.406
765.02	-0.406
765.20	-0.406
765.38	-0.406
765.56	-0.406
765.74	-0.406
765.92	-0.406
766.10	-0.406
766.28	-0.407
766.46	-0.407
766.65	-0.408
766.83	-0.408
767.01	-0.408
767.19	-0.408
767.37	-0.408
767.55	-0.409
767.73	-0.409
767.91	-0.410
768.09	-0.410
768.27	-0.410
768.45	-0.410
768.63	-0.410
768.81	-0.410
768.99	-0.410
769.17	-0.411
769.35	-0.410
769.53	-0.410
769.71	-0.410
769.89	-0.410
770.07	-0.410
770.25	-0.409
770.43	-0.409
770.61	-0.409
770.79	-0.409
770.97	-0.409
771.15	-0.409
771.33	-0.409
771.51	-0.410
771.69	-0.410
771.87	-0.410
772.05	-0.410
772.24	-0.411
772.42	-0.411
772.60	-0.411
772.78	-0.411
772.96	-0.412
773.14	-0.412
773.32	-0.412
773.49	-0.413
773.67	-0.413
773.85	-0.413
774.03	-0.413
774.21	-0.413
774.39	-0.414
774.57	-0.414
774.75	-0.415
774.93	-0.415
775.11	-0.415
775.29	-0.415
775.47	-0.415
775.65	-0.415
775.83	-0.415
776.01	-0.415
776.19	-0.415
776.37	-0.415
776.55	-0.415
776.73	-0.415
776.91	-0.415
777.09	-0.415
777.27	-0.415
777.45	-0.415
777.63	-0.415
777.81	-0.414
777.99	-0.414
778.17	-0.414
778.35	-0.413
778.53	-0.413
778.71	-0.413
778.89	-0.413
779.07	-0.413
779.24	-0.412
779.42	-0.412
779.60	-0.412
779.78	-0.412
779.96	-0.412
780.14	-0.413
780.32	-0.413
780.50	-0.412
780.68	-0.412
780.86	-0.412
781.04	-0.412
781.22	-0.412
781.40	-0.412
781.58	-0.412
781.75	-0.412
781.93	-0.412
782.11	-0.412
782.29	-0.411
782.47	-0.411
782.65	-0.411
782.83	-0.410
783.01	-0.411
783.19	-0.410
783.37	-0.410
783.55	-0.410
783.72	-0.411
783.90	-0.411
784.08	-0.410
784.26	-0.410
784.44	-0.411
784.62	-0.411
784.80	-0.411
784.98	-0.411
785.16	-0.412
785.33	-0.412
785.51	-0.412
785.69	-0.412
785.87	-0.411
786.05	-0.411
786.23	-0.411
786.41	-0.411
786.59	-0.410
786.77	-0.410
786.94	-0.410
787.12	-0.410
787.30	-0.409
787.48	-0.409
787.66	-0.409
787.84	-0.409
788.02	-0.410
788.19	-0.410
788.37	-0.410
788.55	-0.411
788.73	-0.410
788.91	-0.411
789.09	-0.411
789.27	-0.412
789.44	-0.412
789.62	-0.412
789.80	-0.412
789.98	-0.412
790.16	-0.412
790.34	-0.412
790.51	-0.412
790.69	-0.412
790.87	-0.412
791.05	-0.411
791.23	-0.411
791.41	-0.411
791.58	-0.411
791.76	-0.411
791.94	-0.410
792.12	-0.409
792.30	-0.409
792.48	-0.408
792.65	-0.408
792.83	-0.408
793.01	-0.408
793.19	-0.407
793.37	-0.407
793.54	-0.407
793.72	-0.406
793.90	-0.407
794.08	-0.407
794.26	-0.407
794.43	-0.407
794.61	-0.407
794.79	-0.407
794.97	-0.407
795.15	-0.408
795.32	-0.408
795.50	-0.408
795.68	-0.409
795.86	-0.409
796.04	-0.409
796.21	-0.410
796.39	-0.410
796.57	-0.410
796.75	-0.411
796.92	-0.411
797.10	-0.412
797.28	-0.412
797.46	-0.412
797.64	-0.413
797.81	-0.413
797.99	-0.414
798.17	-0.414
798.35	-0.413
798.52	-0.413
798.70	-0.414
798.88	-0.414
799.06	-0.414
799.23	-0.415
799.41	-0.415
799.59	-0.415
799.77	-0.415
799.94	-0.415
800.12	-0.416
800.30	-0.417
800.48	-0.417
800.65	-0.417
800.83	-0.417
801.01	-0.417
801.19	-0.417
801.36	-0.417
801.54	-0.417
801.72	-0.416
801.90	-0.417
802.07	-0.417
802.25	-0.417
802.43	-0.417
802.60	-0.417
802.78	-0.417
802.96	-0.417
803.14	-0.417
803.31	-0.417
803.49	-0.417
803.67	-0.417
803.84	-0.417
804.02	-0.417
804.20	-0.416
804.38	-0.417
804.55	-0.416
804.73	-0.417
804.91	-0.416
805.08	-0.416
805.26	-0.415
805.44	-0.415
805.61	-0.415
805.79	-0.415
805.97	-0.415
806.15	-0.415
806.32	-0.415
806.50	-0.415
806.68	-0.414
806.85	-0.415
807.03	-0.414
807.21	-0.415
807.38	-0.414
807.56	-0.415
807.74	-0.415
807.91	-0.414
808.09	-0.414
808.27	-0.414
808.44	-0.414
808.62	-0.414
808.80	-0.414
808.97	-0.413
809.15	-0.414
809.33	-0.414
809.50	-0.413
809.68	-0.414
809.86	-0.414
810.03	-0.415
810.21	-0.415
810.39	-0.415
810.56	-0.416
810.74	-0.416
810.91	-0.417
811.09	-0.416
811.27	-0.416
811.44	-0.417
811.62	-0.417
811.80	-0.417
811.97	-0.417
812.15	-0.417
812.33	-0.417
812.50	-0.417
812.68	-0.418
812.85	-0.417
813.03	-0.418
813.21	-0.417
813.38	-0.417
813.56	-0.416
813.74	-0.416
813.91	-0.416
814.09	-0.415
814.26	-0.415
814.44	-0.415
814.62	-0.414
814.79	-0.414
814.97	-0.414
815.14	-0.414
815.32	-0.414
815.50	-0.415
815.67	-0.415
815.85	-0.416
816.02	-0.416
816.20	-0.416
816.38	-0.416
816.55	-0.417
816.73	-0.417
816.90	-0.417
817.08	-0.417
817.26	-0.417
817.43	-0.418
817.61	-0.417
817.78	-0.417
817.96	-0.417
818.13	-0.417
818.31	-0.417
818.49	-0.417
818.66	-0.417
818.84	-0.417
819.01	-0.417
819.19	-0.417
819.36	-0.417
819.54	-0.416
819.71	-0.416
819.89	-0.415
820.07	-0.415
820.24	-0.416
820.42	-0.415
820.59	-0.415
820.77	-0.415
820.94	-0.414
821.12	-0.415
821.29	-0.415
821.47	-0.415
821.64	-0.415
821.82	-0.416
822.00	-0.417
822.17	-0.416
822.35	-0.416
822.52	-0.417
822.70	-0.417
822.87	-0.417
823.05	-0.417
823.22	-0.417
823.40	-0.417
823.57	-0.417
823.75	-0.417
823.92	-0.417
824.10	-0.417
824.27	-0.417
824.45	-0.417
824.62	-0.417
824.80	-0.417
824.97	-0.418
825.15	-0.418
825.32	-0.418
825.50	-0.419
825.67	-0.418
825.85	-0.419
826.02	-0.418
826.20	-0.418
826.37	-0.418
826.55	-0.417
826.72	-0.417
826.90	-0.417
827.07	-0.417
827.25	-0.417
827.42	-0.418
827.60	-0.417
827.77	-0.417
827.95	-0.416
828.12	-0.417
828.30	-0.416
828.47	-0.416
828.65	-0.416
828.82	-0.417
829.00	-0.417
829.17	-0.416
829.34	-0.416
829.52	-0.417
829.69	-0.417
829.87	-0.418
830.04	-0.419
830.22	-0.420
830.39	-0.420
830.57	-0.422
830.74	-0.422
830.92	-0.422
831.09	-0.422
831.26	-0.422
831.44	-0.421
831.61	-0.421
831.79	-0.421
831.96	-0.420
832.14	-0.422
832.31	-0.421
832.49	-0.420
832.66	-0.419
832.83	-0.419
833.01	-0.417
833.18	-0.417
833.36	-0.417
833.53	-0.418
833.70	-0.417
833.88	-0.416
834.05	-0.413
834.23	-0.414
834.40	-0.415
834.58	-0.415
834.75	-0.415
834.92	-0.417
835.10	-0.417
835.27	-0.418
835.45	-0.419
835.62	-0.421
835.79	-0.419
835.97	-0.420
836.14	-0.419
836.32	-0.420
836.49	-0.421
836.66	-0.422
836.84	-0.424
837.01	-0.424
837.18	-0.423
837.36	-0.426
837.53	-0.425
837.71	-0.428
837.88	-0.427
838.05	-0.428
838.23	-0.427
838.40	-0.425
838.58	-0.425
838.75	-0.424
838.92	-0.423
839.10	-0.425
839.27	-0.422
839.44	-0.424
839.62	-0.423
839.79	-0.425
839.96	-0.422
840.14	-0.422
840.31	-0.422
840.48	-0.420
840.66	-0.420
840.83	-0.421
841.01	-0.421
841.18	-0.421
841.35	-0.419
841.53	-0.418
841.70	-0.417
841.87	-0.422
842.05	-0.422
842.22	-0.423
842.39	-0.423
842.57	-0.424
842.74	-0.424
842.91	-0.423
843.09	-0.423
843.26	-0.426
843.43	-0.425
843.60	-0.425
843.78	-0.425
843.95	-0.424
844.12	-0.425
844.30	-0.425
844.47	-0.423
844.64	-0.422
844.82	-0.420
844.99	-0.421
845.16	-0.420
845.34	-0.419
845.51	-0.418
845.68	-0.416
845.85	-0.416
846.03	-0.416
846.20	-0.417
846.37	-0.416
846.55	-0.416
846.72	-0.416
846.89	-0.415
847.06	-0.411
847.24	-0.416
847.41	-0.419
847.58	-0.419
847.76	-0.421
847.93	-0.417
848.10	-0.415
848.27	-0.419
848.45	-0.419
848.62	-0.418
848.79	-0.420
848.97	-0.423
849.14	-0.418
849.31	-0.415
849.48	-0.413
849.66	-0.412
849.83	-0.415
850.00	-0.416
850.17	-0.413
850.35	-0.415
850.52	-0.414
850.69	-0.415
850.86	-0.413
851.04	-0.416
851.21	-0.418
851.38	-0.418
851.55	-0.420
851.72	-0.419
851.90	-0.417
852.07	-0.419
852.24	-0.422
852.41	-0.422
852.59	-0.421
852.76	-0.423
852.93	-0.422
853.10	-0.421
853.28	-0.422
853.45	-0.421
853.62	-0.425
853.79	-0.426
853.96	-0.430
854.14	-0.426
854.31	-0.427
854.48	-0.427
854.65	-0.425
854.82	-0.426
855.00	-0.427
855.17	-0.427
855.34	-0.425
855.51	-0.421
855.68	-0.417
855.86	-0.410
856.03	-0.412
856.20	-0.409
856.37	-0.409
856.54	-0.411
856.72	-0.409
856.89	-0.407
857.06	-0.403
857.23	-0.408
857.40	-0.405
857.57	-0.409
857.75	-0.411
857.92	-0.409
858.09	-0.411
858.26	-0.408
858.43	-0.405
858.60	-0.409
858.78	-0.408
858.95	-0.415
859.12	-0.416
859.29	-0.415
859.46	-0.408
859.63	-0.410
859.81	-0.415
859.98	-0.410
860.15	-0.412
860.32	-0.413
860.49	-0.411
860.66	-0.415
860.83	-0.412
861.01	-0.409
861.18	-0.416
861.35	-0.426
861.52	-0.427
861.69	-0.423
861.86	-0.426
862.03	-0.426
862.21	-0.426
862.38	-0.423
862.55	-0.423
862.72	-0.422
862.89	-0.418
863.06	-0.415
863.23	-0.411
863.40	-0.407
863.58	-0.408
863.75	-0.410
863.92	-0.413
864.09	-0.413
864.26	-0.414
864.43	-0.412
864.60	-0.417
864.77	-0.425
864.94	-0.427
865.11	-0.425
865.29	-0.425
865.46	-0.424
865.63	-0.424
865.80	-0.422
865.97	-0.419
866.14	-0.423
866.31	-0.421
866.48	-0.417
866.65	-0.416
866.82	-0.413
866.99	-0.414
867.16	-0.419
867.34	-0.420
867.51	-0.421
867.68	-0.423
867.85	-0.427
868.02	-0.426
868.19	-0.426
868.36	-0.430
868.53	-0.430
868.70	-0.431
868.87	-0.435
869.04	-0.426
869.21	-0.426
869.38	-0.424
869.55	-0.420
869.72	-0.418
869.89	-0.420
870.06	-0.417
870.24	-0.416
870.41	-0.414
870.58	-0.416
870.75	-0.416
870.92	-0.421
871.09	-0.416
871.26	-0.415
871.43	-0.411
871.60	-0.416
871.77	-0.406
871.94	-0.412
872.11	-0.414
872.28	-0.410
872.45	-0.405
872.62	-0.411
872.79	-0.414
872.96	-0.410
873.13	-0.409
873.30	-0.407
873.47	-0.412
873.64	-0.421
873.81	-0.423
873.98	-0.422
874.15	-0.425
874.32	-0.430
874.49	-0.425
874.66	-0.420
874.83	-0.430
875.00	-0.429
875.17	-0.434
875.34	-0.420
875.51	-0.417
875.68	-0.415
875.85	-0.405
876.02	-0.405
876.19	-0.399
876.36	-0.393
876.53	-0.385
876.70	-0.387
876.87	-0.388
877.04	-0.407
877.21	-0.418
877.38	-0.414
877.55	-0.411
877.72	-0.412
877.89	-0.415
878.06	-0.417
878.23	-0.420
878.39	-0.434
878.56	-0.436
878.73	-0.427
878.90	-0.410
879.07	-0.402
879.24	-0.412
879.41	-0.412
879.58	-0.418
879.75	-0.416
879.92	-0.411
880.09	-0.419
880.26	-0.424
880.43	-0.426
880.60	-0.427
880.77	-0.417
880.94	-0.418
881.11	-0.416
881.27	-0.412
881.44	-0.409
881.61	-0.405
881.78	-0.412
881.95	-0.400
882.12	-0.391
882.29	-0.388
882.46	-0.394
882.63	-0.394
882.80	-0.401
882.97	-0.394
883.14	-0.394
883.30	-0.395
883.47	-0.397
883.64	-0.395
883.81	-0.409
883.98	-0.408
884.15	-0.405
884.32	-0.405
884.49	-0.422
884.66	-0.409
884.82	-0.411
884.99	-0.411
885.16	-0.413
885.33	-0.408
885.50	-0.403
885.67	-0.394
885.84	-0.398
886.01	-0.381
886.17	-0.368
886.34	-0.364
886.51	-0.359
886.68	-0.358
886.85	-0.364
887.02	-0.364
887.19	-0.364
887.36	-0.365
887.52	-0.353
887.69	-0.353
887.86	-0.360
888.03	-0.369
888.20	-0.371
888.37	-0.386
888.54	-0.379
888.70	-0.380
888.87	-0.375
889.04	-0.372
889.21	-0.374
889.38	-0.372
889.55	-0.370
889.71	-0.357
889.88	-0.334
890.05	-0.399
890.22	-0.258
890.39	-0.429
>>>>>End Processed Spectral Data<<<<<
