SpectraSuite Data File
++++++++++++++++++++++++++++++++++++
Date: Mon Jun 15 05:35:21 PDT 2015
User: introlabs
Dark Spectrum Present: Yes
Reference Spectrum Present: Yes
Number of Sampled Component Spectra: 1
Spectrometers: USB4H08886
Integration Time (usec): 99009 (USB4H08886)
Spectra Averaged: 20 (USB4H08886)
Boxcar Smoothing: 5 (USB4H08886)
Correct for Electrical Dark: Yes (USB4H08886)
Strobe/Lamp Enabled: No (USB4H08886)
Correct for Detector Non-linearity: Yes (USB4H08886)
Correct for Stray Light: Yes (USB4H08886)
Number of Pixels in Processed Spectrum: 3648
>>>>>Begin Processed Spectral Data<<<<<
178.14	-0.000
178.36	-0.000
178.57	-0.000
178.79	-0.000
179.01	-0.000
179.22	1.377
179.44	1.576
179.65	-0.000
179.87	-0.000
180.08	-0.000
180.30	-0.000
180.52	-0.000
180.73	-0.000
180.95	-0.000
181.16	-0.312
181.38	-0.180
181.59	-0.148
181.81	-0.121
182.03	-0.091
182.24	-0.082
182.46	-0.067
182.67	-0.062
182.89	-0.052
183.10	-0.044
183.32	-0.045
183.54	-0.040
183.75	-0.034
183.97	-0.028
184.18	-0.033
184.40	-0.035
184.61	-0.039
184.83	-0.037
185.04	-0.040
185.26	-0.047
185.48	-0.049
185.69	-0.045
185.91	-0.050
186.12	-0.063
186.34	-0.069
186.55	-0.068
186.77	-0.066
186.98	-0.060
187.20	-0.060
187.42	-0.061
187.63	-0.064
187.85	-0.063
188.06	-0.061
188.28	-0.063
188.49	-0.047
188.71	-0.042
188.92	-0.041
189.14	-0.045
189.36	-0.049
189.57	-0.054
189.79	-0.057
190.00	-0.050
190.22	-0.049
190.43	-0.052
190.65	-0.046
190.86	-0.052
191.08	-0.047
191.29	-0.051
191.51	-0.041
191.72	-0.035
191.94	-0.028
192.16	-0.017
192.37	-0.020
192.59	-0.026
192.80	-0.022
193.02	-0.025
193.23	-0.033
193.45	-0.034
193.66	-0.031
193.88	-0.045
194.09	-0.051
194.31	-0.061
194.52	-0.062
194.74	-0.060
194.95	-0.051
195.17	-0.057
195.38	-0.051
195.60	-0.045
195.81	-0.051
196.03	-0.051
196.25	-0.048
196.46	-0.039
196.68	-0.037
196.89	-0.040
197.11	-0.041
197.32	-0.048
197.54	-0.047
197.75	-0.052
197.97	-0.052
198.18	-0.049
198.40	-0.042
198.61	-0.045
198.83	-0.047
199.04	-0.048
199.26	-0.047
199.47	-0.049
199.69	-0.050
199.90	-0.052
200.12	-0.052
200.33	-0.052
200.55	-0.052
200.76	-0.061
200.98	-0.055
201.19	-0.047
201.41	-0.044
201.62	-0.044
201.84	-0.043
202.05	-0.039
202.27	-0.033
202.48	-0.034
202.70	-0.031
202.91	-0.036
203.13	-0.036
203.34	-0.031
203.56	-0.041
203.77	-0.049
203.99	-0.048
204.20	-0.049
204.42	-0.049
204.63	-0.053
204.85	-0.050
205.06	-0.057
205.28	-0.049
205.49	-0.052
205.71	-0.058
205.92	-0.054
206.14	-0.051
206.35	-0.049
206.56	-0.044
206.78	-0.043
206.99	-0.039
207.21	-0.038
207.42	-0.032
207.64	-0.037
207.85	-0.031
208.07	-0.032
208.28	-0.033
208.50	-0.032
208.71	-0.039
208.93	-0.041
209.14	-0.041
209.36	-0.050
209.57	-0.047
209.79	-0.048
210.00	-0.043
210.22	-0.044
210.43	-0.042
210.64	-0.043
210.86	-0.041
211.07	-0.039
211.29	-0.039
211.50	-0.038
211.72	-0.031
211.93	-0.033
212.15	-0.033
212.36	-0.035
212.58	-0.029
212.79	-0.028
213.01	-0.028
213.22	-0.025
213.43	-0.025
213.65	-0.022
213.86	-0.026
214.08	-0.029
214.29	-0.029
214.51	-0.032
214.72	-0.031
214.94	-0.036
215.15	-0.040
215.36	-0.041
215.58	-0.043
215.79	-0.037
216.01	-0.037
216.22	-0.032
216.44	-0.034
216.65	-0.033
216.87	-0.030
217.08	-0.027
217.29	-0.027
217.51	-0.021
217.72	-0.021
217.94	-0.027
218.15	-0.029
218.37	-0.029
218.58	-0.032
218.80	-0.026
219.01	-0.030
219.22	-0.025
219.44	-0.029
219.65	-0.027
219.87	-0.032
220.08	-0.027
220.30	-0.020
220.51	-0.020
220.72	-0.023
220.94	-0.020
221.15	-0.025
221.37	-0.022
221.58	-0.027
221.79	-0.024
222.01	-0.026
222.22	-0.025
222.44	-0.030
222.65	-0.033
222.87	-0.036
223.08	-0.033
223.29	-0.039
223.51	-0.040
223.72	-0.044
223.94	-0.042
224.15	-0.043
224.36	-0.042
224.58	-0.039
224.79	-0.037
225.01	-0.042
225.22	-0.043
225.44	-0.049
225.65	-0.049
225.86	-0.050
226.08	-0.047
226.29	-0.048
226.51	-0.050
226.72	-0.050
226.93	-0.054
227.15	-0.056
227.36	-0.052
227.58	-0.051
227.79	-0.047
228.00	-0.043
228.22	-0.041
228.43	-0.043
228.65	-0.045
228.86	-0.047
229.07	-0.048
229.29	-0.047
229.50	-0.046
229.72	-0.043
229.93	-0.042
230.14	-0.047
230.36	-0.048
230.57	-0.049
230.78	-0.047
231.00	-0.045
231.21	-0.045
231.43	-0.048
231.64	-0.049
231.85	-0.045
232.07	-0.046
232.28	-0.047
232.50	-0.042
232.71	-0.044
232.92	-0.044
233.14	-0.043
233.35	-0.045
233.56	-0.046
233.78	-0.045
233.99	-0.045
234.21	-0.049
234.42	-0.051
234.63	-0.053
234.85	-0.054
235.06	-0.053
235.27	-0.054
235.49	-0.056
235.70	-0.057
235.91	-0.054
236.13	-0.054
236.34	-0.054
236.56	-0.052
236.77	-0.052
236.98	-0.052
237.20	-0.053
237.41	-0.054
237.62	-0.052
237.84	-0.053
238.05	-0.053
238.26	-0.055
238.48	-0.055
238.69	-0.055
238.91	-0.056
239.12	-0.056
239.33	-0.056
239.55	-0.054
239.76	-0.053
239.97	-0.053
240.19	-0.053
240.40	-0.053
240.61	-0.051
240.83	-0.052
241.04	-0.052
241.25	-0.052
241.47	-0.052
241.68	-0.052
241.89	-0.052
242.11	-0.052
242.32	-0.052
242.53	-0.052
242.75	-0.052
242.96	-0.053
243.17	-0.052
243.39	-0.051
243.60	-0.051
243.81	-0.050
244.03	-0.050
244.24	-0.051
244.45	-0.051
244.67	-0.051
244.88	-0.050
245.09	-0.050
245.31	-0.049
245.52	-0.049
245.73	-0.049
245.95	-0.050
246.16	-0.049
246.37	-0.049
246.59	-0.049
246.80	-0.048
247.01	-0.048
247.23	-0.048
247.44	-0.048
247.65	-0.048
247.87	-0.048
248.08	-0.048
248.29	-0.047
248.51	-0.048
248.72	-0.047
248.93	-0.047
249.15	-0.047
249.36	-0.048
249.57	-0.048
249.78	-0.047
250.00	-0.047
250.21	-0.047
250.42	-0.047
250.64	-0.047
250.85	-0.046
251.06	-0.046
251.28	-0.046
251.49	-0.045
251.70	-0.045
251.92	-0.045
252.13	-0.045
252.34	-0.045
252.55	-0.045
252.77	-0.045
252.98	-0.045
253.19	-0.045
253.41	-0.045
253.62	-0.045
253.83	-0.045
254.05	-0.046
254.26	-0.045
254.47	-0.045
254.68	-0.045
254.90	-0.045
255.11	-0.045
255.32	-0.045
255.54	-0.045
255.75	-0.044
255.96	-0.044
256.17	-0.045
256.39	-0.045
256.60	-0.045
256.81	-0.044
257.03	-0.044
257.24	-0.045
257.45	-0.044
257.66	-0.045
257.88	-0.044
258.09	-0.045
258.30	-0.045
258.51	-0.044
258.73	-0.044
258.94	-0.045
259.15	-0.045
259.37	-0.045
259.58	-0.044
259.79	-0.044
260.00	-0.044
260.22	-0.044
260.43	-0.044
260.64	-0.044
260.85	-0.044
261.07	-0.043
261.28	-0.044
261.49	-0.044
261.71	-0.044
261.92	-0.044
262.13	-0.044
262.34	-0.044
262.56	-0.044
262.77	-0.044
262.98	-0.044
263.19	-0.044
263.41	-0.044
263.62	-0.044
263.83	-0.043
264.04	-0.043
264.26	-0.043
264.47	-0.043
264.68	-0.043
264.89	-0.043
265.11	-0.043
265.32	-0.043
265.53	-0.044
265.74	-0.044
265.96	-0.043
266.17	-0.044
266.38	-0.043
266.59	-0.043
266.81	-0.043
267.02	-0.043
267.23	-0.043
267.44	-0.043
267.65	-0.043
267.87	-0.043
268.08	-0.043
268.29	-0.043
268.50	-0.043
268.72	-0.043
268.93	-0.044
269.14	-0.044
269.35	-0.044
269.57	-0.044
269.78	-0.044
269.99	-0.044
270.20	-0.044
270.41	-0.044
270.63	-0.044
270.84	-0.044
271.05	-0.044
271.26	-0.044
271.48	-0.044
271.69	-0.044
271.90	-0.044
272.11	-0.044
272.32	-0.044
272.54	-0.044
272.75	-0.044
272.96	-0.044
273.17	-0.044
273.39	-0.044
273.60	-0.044
273.81	-0.044
274.02	-0.044
274.23	-0.044
274.45	-0.044
274.66	-0.044
274.87	-0.044
275.08	-0.045
275.29	-0.045
275.51	-0.044
275.72	-0.044
275.93	-0.044
276.14	-0.044
276.35	-0.044
276.57	-0.044
276.78	-0.044
276.99	-0.044
277.20	-0.044
277.41	-0.044
277.63	-0.044
277.84	-0.044
278.05	-0.044
278.26	-0.044
278.47	-0.044
278.69	-0.044
278.90	-0.044
279.11	-0.044
279.32	-0.044
279.53	-0.043
279.74	-0.043
279.96	-0.044
280.17	-0.043
280.38	-0.044
280.59	-0.043
280.80	-0.044
281.02	-0.044
281.23	-0.044
281.44	-0.044
281.65	-0.044
281.86	-0.044
282.07	-0.044
282.29	-0.043
282.50	-0.043
282.71	-0.043
282.92	-0.044
283.13	-0.043
283.35	-0.043
283.56	-0.043
283.77	-0.043
283.98	-0.043
284.19	-0.043
284.40	-0.043
284.62	-0.043
284.83	-0.043
285.04	-0.042
285.25	-0.042
285.46	-0.042
285.67	-0.042
285.88	-0.042
286.10	-0.042
286.31	-0.041
286.52	-0.041
286.73	-0.041
286.94	-0.041
287.15	-0.041
287.37	-0.041
287.58	-0.040
287.79	-0.040
288.00	-0.040
288.21	-0.039
288.42	-0.039
288.63	-0.039
288.85	-0.039
289.06	-0.039
289.27	-0.039
289.48	-0.039
289.69	-0.039
289.90	-0.038
290.11	-0.038
290.33	-0.039
290.54	-0.039
290.75	-0.039
290.96	-0.038
291.17	-0.038
291.38	-0.038
291.59	-0.038
291.81	-0.038
292.02	-0.038
292.23	-0.038
292.44	-0.038
292.65	-0.037
292.86	-0.037
293.07	-0.037
293.28	-0.037
293.50	-0.037
293.71	-0.037
293.92	-0.037
294.13	-0.037
294.34	-0.037
294.55	-0.037
294.76	-0.037
294.97	-0.037
295.19	-0.037
295.40	-0.037
295.61	-0.037
295.82	-0.037
296.03	-0.037
296.24	-0.036
296.45	-0.036
296.66	-0.036
296.87	-0.036
297.09	-0.036
297.30	-0.036
297.51	-0.037
297.72	-0.037
297.93	-0.037
298.14	-0.037
298.35	-0.037
298.56	-0.037
298.77	-0.037
298.99	-0.037
299.20	-0.037
299.41	-0.037
299.62	-0.036
299.83	-0.036
300.04	-0.036
300.25	-0.036
300.46	-0.036
300.67	-0.036
300.88	-0.036
301.10	-0.036
301.31	-0.036
301.52	-0.036
301.73	-0.036
301.94	-0.036
302.15	-0.036
302.36	-0.036
302.57	-0.036
302.78	-0.036
302.99	-0.036
303.20	-0.036
303.41	-0.036
303.63	-0.036
303.84	-0.036
304.05	-0.036
304.26	-0.036
304.47	-0.035
304.68	-0.035
304.89	-0.035
305.10	-0.035
305.31	-0.035
305.52	-0.035
305.73	-0.035
305.94	-0.035
306.15	-0.035
306.37	-0.035
306.58	-0.035
306.79	-0.035
307.00	-0.035
307.21	-0.035
307.42	-0.035
307.63	-0.035
307.84	-0.035
308.05	-0.035
308.26	-0.035
308.47	-0.035
308.68	-0.035
308.89	-0.035
309.10	-0.035
309.31	-0.035
309.52	-0.035
309.73	-0.035
309.95	-0.035
310.16	-0.035
310.37	-0.035
310.58	-0.035
310.79	-0.035
311.00	-0.035
311.21	-0.035
311.42	-0.035
311.63	-0.035
311.84	-0.035
312.05	-0.035
312.26	-0.035
312.47	-0.035
312.68	-0.035
312.89	-0.035
313.10	-0.035
313.31	-0.035
313.52	-0.035
313.73	-0.035
313.94	-0.035
314.15	-0.035
314.36	-0.035
314.57	-0.035
314.78	-0.035
314.99	-0.035
315.21	-0.035
315.42	-0.035
315.63	-0.035
315.84	-0.035
316.05	-0.035
316.26	-0.035
316.47	-0.035
316.68	-0.035
316.89	-0.035
317.10	-0.035
317.31	-0.035
317.52	-0.035
317.73	-0.035
317.94	-0.035
318.15	-0.035
318.36	-0.035
318.57	-0.035
318.78	-0.035
318.99	-0.035
319.20	-0.035
319.41	-0.035
319.62	-0.035
319.83	-0.035
320.04	-0.034
320.25	-0.034
320.46	-0.034
320.67	-0.034
320.88	-0.034
321.09	-0.034
321.30	-0.034
321.51	-0.034
321.72	-0.034
321.93	-0.034
322.14	-0.034
322.35	-0.034
322.56	-0.034
322.77	-0.035
322.98	-0.035
323.19	-0.035
323.40	-0.035
323.61	-0.034
323.82	-0.034
324.03	-0.033
324.24	-0.032
324.45	-0.032
324.66	-0.032
324.87	-0.032
325.08	-0.032
325.29	-0.032
325.50	-0.032
325.71	-0.032
325.92	-0.033
326.13	-0.033
326.34	-0.034
326.55	-0.035
326.76	-0.035
326.97	-0.035
327.18	-0.035
327.39	-0.035
327.60	-0.035
327.80	-0.034
328.01	-0.034
328.22	-0.034
328.43	-0.034
328.64	-0.034
328.85	-0.034
329.06	-0.034
329.27	-0.034
329.48	-0.034
329.69	-0.034
329.90	-0.035
330.11	-0.035
330.32	-0.035
330.53	-0.035
330.74	-0.035
330.95	-0.035
331.16	-0.035
331.37	-0.035
331.58	-0.035
331.79	-0.035
332.00	-0.035
332.21	-0.035
332.42	-0.035
332.63	-0.034
332.83	-0.034
333.04	-0.034
333.25	-0.034
333.46	-0.034
333.67	-0.034
333.88	-0.034
334.09	-0.034
334.30	-0.034
334.51	-0.034
334.72	-0.034
334.93	-0.035
335.14	-0.034
335.35	-0.034
335.56	-0.034
335.77	-0.034
335.98	-0.034
336.18	-0.034
336.39	-0.034
336.60	-0.034
336.81	-0.034
337.02	-0.034
337.23	-0.034
337.44	-0.034
337.65	-0.034
337.86	-0.034
338.07	-0.034
338.28	-0.034
338.49	-0.034
338.70	-0.034
338.91	-0.033
339.11	-0.033
339.32	-0.033
339.53	-0.033
339.74	-0.033
339.95	-0.032
340.16	-0.032
340.37	-0.032
340.58	-0.032
340.79	-0.031
341.00	-0.031
341.21	-0.031
341.41	-0.031
341.62	-0.031
341.83	-0.031
342.04	-0.031
342.25	-0.030
342.46	-0.030
342.67	-0.030
342.88	-0.029
343.09	-0.029
343.30	-0.029
343.50	-0.028
343.71	-0.028
343.92	-0.027
344.13	-0.027
344.34	-0.026
344.55	-0.026
344.76	-0.026
344.97	-0.026
345.18	-0.025
345.38	-0.025
345.59	-0.025
345.80	-0.025
346.01	-0.024
346.22	-0.024
346.43	-0.024
346.64	-0.023
346.85	-0.023
347.06	-0.023
347.26	-0.023
347.47	-0.022
347.68	-0.023
347.89	-0.022
348.10	-0.022
348.31	-0.022
348.52	-0.021
348.73	-0.021
348.93	-0.021
349.14	-0.020
349.35	-0.019
349.56	-0.019
349.77	-0.018
349.98	-0.018
350.19	-0.018
350.39	-0.017
350.60	-0.017
350.81	-0.017
351.02	-0.017
351.23	-0.016
351.44	-0.017
351.65	-0.016
351.86	-0.016
352.06	-0.015
352.27	-0.015
352.48	-0.014
352.69	-0.014
352.90	-0.014
353.11	-0.014
353.31	-0.013
353.52	-0.013
353.73	-0.013
353.94	-0.013
354.15	-0.013
354.36	-0.013
354.57	-0.013
354.77	-0.013
354.98	-0.012
355.19	-0.012
355.40	-0.012
355.61	-0.012
355.82	-0.012
356.02	-0.011
356.23	-0.011
356.44	-0.010
356.65	-0.011
356.86	-0.011
357.07	-0.010
357.27	-0.010
357.48	-0.010
357.69	-0.009
357.90	-0.009
358.11	-0.009
358.32	-0.009
358.52	-0.009
358.73	-0.009
358.94	-0.008
359.15	-0.008
359.36	-0.009
359.56	-0.009
359.77	-0.008
359.98	-0.008
360.19	-0.008
360.40	-0.008
360.61	-0.008
360.81	-0.007
361.02	-0.007
361.23	-0.007
361.44	-0.007
361.65	-0.006
361.85	-0.006
362.06	-0.006
362.27	-0.006
362.48	-0.005
362.69	-0.005
362.89	-0.005
363.10	-0.005
363.31	-0.005
363.52	-0.004
363.73	-0.004
363.93	-0.004
364.14	-0.004
364.35	-0.003
364.56	-0.003
364.77	-0.003
364.97	-0.003
365.18	-0.002
365.39	-0.002
365.60	-0.002
365.81	-0.002
366.01	-0.001
366.22	-0.001
366.43	-0.001
366.64	-0.001
366.84	-0.001
367.05	-0.001
367.26	-0.000
367.47	-0.000
367.68	-0.000
367.88	-0.000
368.09	-0.000
368.30	-0.000
368.51	-0.000
368.71	-0.000
368.92	-0.000
369.13	-0.000
369.34	-0.001
369.55	-0.001
369.75	-0.001
369.96	-0.001
370.17	-0.001
370.38	-0.001
370.58	-0.001
370.79	-0.002
371.00	-0.002
371.21	-0.002
371.41	-0.002
371.62	-0.003
371.83	-0.003
372.04	-0.003
372.24	-0.003
372.45	-0.003
372.66	-0.003
372.87	-0.003
373.07	-0.003
373.28	-0.003
373.49	-0.003
373.70	-0.003
373.90	-0.003
374.11	-0.003
374.32	-0.003
374.53	-0.003
374.73	-0.003
374.94	-0.003
375.15	-0.003
375.36	-0.003
375.56	-0.003
375.77	-0.003
375.98	-0.003
376.19	-0.003
376.39	-0.002
376.60	-0.002
376.81	-0.002
377.02	-0.002
377.22	-0.002
377.43	-0.001
377.64	-0.001
377.84	-0.001
378.05	-0.001
378.26	-0.001
378.47	-0.001
378.67	-0.000
378.88	-0.000
379.09	-0.000
379.30	-0.000
379.50	-0.000
379.71	-0.000
379.92	-0.000
380.12	-0.000
380.33	-0.000
380.54	-0.000
380.75	-0.000
380.95	-0.000
381.16	-0.001
381.37	-0.001
381.57	-0.001
381.78	-0.001
381.99	-0.001
382.20	-0.001
382.40	-0.002
382.61	-0.002
382.82	-0.002
383.02	-0.002
383.23	-0.003
383.44	-0.003
383.64	-0.003
383.85	-0.003
384.06	-0.003
384.27	-0.004
384.47	-0.004
384.68	-0.004
384.89	-0.004
385.09	-0.004
385.30	-0.004
385.51	-0.004
385.71	-0.004
385.92	-0.004
386.13	-0.003
386.33	-0.004
386.54	-0.003
386.75	-0.003
386.95	-0.003
387.16	-0.003
387.37	-0.003
387.58	-0.003
387.78	-0.003
387.99	-0.003
388.20	-0.002
388.40	-0.003
388.61	-0.002
388.82	-0.002
389.02	-0.002
389.23	-0.002
389.44	-0.002
389.64	-0.002
389.85	-0.002
390.06	-0.002
390.26	-0.002
390.47	-0.002
390.68	-0.001
390.88	-0.001
391.09	-0.001
391.30	-0.001
391.50	-0.001
391.71	-0.001
391.92	-0.000
392.12	-0.000
392.33	-0.000
392.53	-0.000
392.74	-0.000
392.95	-0.000
393.15	-0.000
393.36	-0.000
393.57	-0.000
393.77	-0.000
393.98	-0.000
394.19	-0.000
394.39	-0.000
394.60	-0.000
394.81	-0.001
395.01	-0.001
395.22	-0.001
395.43	-0.001
395.63	-0.001
395.84	-0.001
396.04	-0.001
396.25	-0.001
396.46	-0.001
396.66	-0.001
396.87	-0.001
397.08	-0.001
397.28	-0.000
397.49	-0.000
397.69	-0.000
397.90	-0.000
398.11	-0.000
398.31	-0.000
398.52	-0.000
398.73	-0.000
398.93	-0.000
399.14	-0.000
399.34	-0.000
399.55	-0.000
399.76	-0.000
399.96	-0.000
400.17	-0.000
400.37	-0.000
400.58	-0.000
400.79	-0.000
400.99	-0.000
401.20	-0.000
401.41	-0.001
401.61	-0.001
401.82	-0.002
402.02	-0.002
402.23	-0.002
402.44	-0.002
402.64	-0.003
402.85	-0.003
403.05	-0.003
403.26	-0.003
403.47	-0.003
403.67	-0.003
403.88	-0.002
404.08	-0.002
404.29	-0.002
404.50	-0.002
404.70	-0.002
404.91	-0.001
405.11	-0.001
405.32	-0.001
405.52	-0.001
405.73	-0.001
405.94	-0.001
406.14	-0.001
406.35	-0.001
406.55	-0.001
406.76	-0.002
406.97	-0.002
407.17	-0.002
407.38	-0.002
407.58	-0.002
407.79	-0.002
407.99	-0.003
408.20	-0.003
408.41	-0.003
408.61	-0.003
408.82	-0.004
409.02	-0.003
409.23	-0.003
409.43	-0.003
409.64	-0.004
409.84	-0.004
410.05	-0.004
410.26	-0.004
410.46	-0.004
410.67	-0.004
410.87	-0.004
411.08	-0.004
411.28	-0.004
411.49	-0.004
411.69	-0.004
411.90	-0.004
412.11	-0.004
412.31	-0.004
412.52	-0.004
412.72	-0.004
412.93	-0.004
413.13	-0.004
413.34	-0.004
413.54	-0.004
413.75	-0.005
413.95	-0.005
414.16	-0.005
414.37	-0.005
414.57	-0.005
414.78	-0.005
414.98	-0.006
415.19	-0.007
415.39	-0.007
415.60	-0.007
415.80	-0.008
416.01	-0.008
416.21	-0.009
416.42	-0.010
416.62	-0.011
416.83	-0.011
417.03	-0.012
417.24	-0.013
417.44	-0.012
417.65	-0.013
417.86	-0.013
418.06	-0.013
418.27	-0.013
418.47	-0.013
418.68	-0.012
418.88	-0.012
419.09	-0.011
419.29	-0.010
419.50	-0.009
419.70	-0.008
419.91	-0.007
420.11	-0.006
420.32	-0.005
420.52	-0.004
420.73	-0.003
420.93	-0.002
421.14	-0.001
421.34	-0.001
421.55	-0.001
421.75	-0.000
421.96	-0.000
422.16	-0.000
422.37	-0.000
422.57	-0.000
422.78	-0.000
422.98	-0.000
423.19	-0.000
423.39	-0.000
423.60	-0.001
423.80	-0.001
424.01	-0.001
424.21	-0.002
424.42	-0.003
424.62	-0.003
424.83	-0.004
425.03	-0.005
425.23	-0.007
425.44	-0.008
425.64	-0.009
425.85	-0.009
426.05	-0.010
426.26	-0.011
426.46	-0.012
426.67	-0.012
426.87	-0.012
427.08	-0.012
427.28	-0.012
427.49	-0.010
427.69	-0.009
427.90	-0.008
428.10	-0.008
428.31	-0.006
428.51	-0.005
428.71	-0.003
428.92	-0.002
429.12	-0.001
429.33	-0.000
429.53	-0.000
429.74	-0.000
429.94	-0.000
430.15	-0.000
430.35	-0.000
430.56	-0.000
430.76	-0.000
430.96	-0.000
431.17	-0.000
431.37	-0.000
431.58	-0.000
431.78	-0.000
431.99	-0.001
432.19	-0.001
432.40	-0.001
432.60	-0.002
432.80	-0.003
433.01	-0.004
433.21	-0.005
433.42	-0.006
433.62	-0.007
433.83	-0.008
434.03	-0.008
434.23	-0.009
434.44	-0.009
434.64	-0.009
434.85	-0.009
435.05	-0.008
435.26	-0.008
435.46	-0.008
435.66	-0.007
435.87	-0.006
436.07	-0.006
436.28	-0.006
436.48	-0.005
436.69	-0.005
436.89	-0.005
437.09	-0.005
437.30	-0.005
437.50	-0.005
437.71	-0.004
437.91	-0.005
438.11	-0.006
438.32	-0.006
438.52	-0.006
438.73	-0.007
438.93	-0.008
439.13	-0.009
439.34	-0.010
439.54	-0.010
439.75	-0.011
439.95	-0.011
440.15	-0.011
440.36	-0.012
440.56	-0.012
440.77	-0.012
440.97	-0.012
441.17	-0.012
441.38	-0.012
441.58	-0.011
441.79	-0.011
441.99	-0.010
442.19	-0.010
442.40	-0.009
442.60	-0.009
442.81	-0.008
443.01	-0.008
443.21	-0.008
443.42	-0.007
443.62	-0.007
443.82	-0.007
444.03	-0.007
444.23	-0.007
444.44	-0.008
444.64	-0.007
444.84	-0.007
445.05	-0.007
445.25	-0.007
445.45	-0.007
445.66	-0.007
445.86	-0.007
446.06	-0.007
446.27	-0.008
446.47	-0.008
446.68	-0.007
446.88	-0.008
447.08	-0.009
447.29	-0.010
447.49	-0.010
447.69	-0.011
447.90	-0.011
448.10	-0.012
448.30	-0.012
448.51	-0.012
448.71	-0.013
448.91	-0.014
449.12	-0.014
449.32	-0.015
449.52	-0.015
449.73	-0.015
449.93	-0.016
450.14	-0.018
450.34	-0.019
450.54	-0.019
450.75	-0.021
450.95	-0.021
451.15	-0.022
451.36	-0.023
451.56	-0.024
451.76	-0.026
451.97	-0.027
452.17	-0.028
452.37	-0.028
452.58	-0.029
452.78	-0.030
452.98	-0.030
453.19	-0.030
453.39	-0.031
453.59	-0.031
453.79	-0.031
454.00	-0.031
454.20	-0.031
454.40	-0.031
454.61	-0.031
454.81	-0.031
455.01	-0.031
455.22	-0.031
455.42	-0.030
455.62	-0.030
455.83	-0.030
456.03	-0.030
456.23	-0.030
456.44	-0.030
456.64	-0.030
456.84	-0.030
457.04	-0.030
457.25	-0.030
457.45	-0.030
457.65	-0.030
457.86	-0.030
458.06	-0.031
458.26	-0.030
458.47	-0.030
458.67	-0.030
458.87	-0.030
459.07	-0.030
459.28	-0.030
459.48	-0.030
459.68	-0.030
459.89	-0.031
460.09	-0.031
460.29	-0.031
460.49	-0.031
460.70	-0.031
460.90	-0.031
461.10	-0.031
461.31	-0.031
461.51	-0.030
461.71	-0.030
461.91	-0.030
462.12	-0.030
462.32	-0.030
462.52	-0.030
462.72	-0.030
462.93	-0.030
463.13	-0.030
463.33	-0.030
463.53	-0.030
463.74	-0.030
463.94	-0.031
464.14	-0.031
464.35	-0.030
464.55	-0.030
464.75	-0.030
464.95	-0.030
465.16	-0.030
465.36	-0.029
465.56	-0.028
465.76	-0.028
465.97	-0.027
466.17	-0.027
466.37	-0.027
466.57	-0.026
466.78	-0.026
466.98	-0.027
467.18	-0.027
467.38	-0.027
467.59	-0.027
467.79	-0.028
467.99	-0.029
468.19	-0.029
468.39	-0.030
468.60	-0.030
468.80	-0.030
469.00	-0.031
469.20	-0.031
469.41	-0.031
469.61	-0.031
469.81	-0.031
470.01	-0.031
470.22	-0.031
470.42	-0.031
470.62	-0.031
470.82	-0.031
471.02	-0.031
471.23	-0.031
471.43	-0.030
471.63	-0.030
471.83	-0.030
472.04	-0.029
472.24	-0.028
472.44	-0.027
472.64	-0.025
472.84	-0.023
473.05	-0.021
473.25	-0.018
473.45	-0.016
473.65	-0.013
473.85	-0.011
474.06	-0.009
474.26	-0.006
474.46	-0.005
474.66	-0.003
474.86	-0.002
475.07	-0.001
475.27	-0.001
475.47	-0.000
475.67	-0.000
475.87	-0.000
476.08	-0.000
476.28	-0.000
476.48	-0.000
476.68	-0.000
476.88	-0.000
477.09	-0.000
477.29	-0.000
477.49	-0.000
477.69	-0.000
477.89	-0.000
478.09	-0.000
478.30	-0.000
478.50	-0.000
478.70	-0.000
478.90	-0.000
479.10	-0.000
479.31	-0.000
479.51	-0.000
479.71	-0.000
479.91	-0.000
480.11	-0.000
480.31	-0.000
480.52	-0.000
480.72	-0.000
480.92	-0.000
481.12	-0.000
481.32	-0.000
481.52	-0.000
481.72	-0.000
481.93	-0.000
482.13	-0.000
482.33	-0.000
482.53	-0.000
482.73	-0.000
482.93	-0.000
483.14	-0.000
483.34	-0.000
483.54	-0.000
483.74	-0.000
483.94	-0.000
484.14	-0.000
484.34	-0.000
484.55	-0.000
484.75	-0.000
484.95	-0.000
485.15	-0.000
485.35	-0.000
485.55	-0.000
485.75	-0.000
485.96	-0.000
486.16	-0.000
486.36	-0.000
486.56	-0.000
486.76	-0.000
486.96	-0.000
487.16	-0.000
487.36	-0.000
487.57	-0.000
487.77	-0.000
487.97	-0.000
488.17	-0.000
488.37	-0.000
488.57	-0.000
488.77	-0.000
488.97	-0.000
489.18	-0.000
489.38	-0.000
489.58	-0.000
489.78	-0.000
489.98	-0.000
490.18	-0.000
490.38	-0.000
490.58	-0.000
490.78	-0.000
490.98	-0.000
491.19	-0.000
491.39	-0.000
491.59	-0.000
491.79	-0.000
491.99	-0.000
492.19	-0.000
492.39	-0.000
492.59	-0.000
492.79	-0.000
492.99	-0.000
493.20	-0.000
493.40	-0.000
493.60	-0.000
493.80	-0.000
494.00	-0.000
494.20	-0.000
494.40	-0.000
494.60	-0.000
494.80	-0.000
495.00	-0.000
495.20	-0.000
495.40	-0.000
495.61	-0.000
495.81	-0.000
496.01	-0.000
496.21	-0.000
496.41	-0.000
496.61	-0.000
496.81	-0.000
497.01	-0.000
497.21	-0.000
497.41	-0.000
497.61	-0.000
497.81	-0.000
498.01	-0.000
498.21	-0.000
498.41	-0.000
498.61	-0.000
498.82	-0.000
499.02	-0.000
499.22	-0.000
499.42	-0.000
499.62	-0.000
499.82	-0.000
500.02	-0.000
500.22	-0.000
500.42	-0.000
500.62	-0.000
500.82	-0.000
501.02	-0.000
501.22	-0.000
501.42	-0.000
501.62	-0.000
501.82	-0.000
502.02	-0.000
502.22	-0.000
502.42	-0.000
502.62	-0.000
502.82	-0.000
503.02	-0.000
503.22	-0.000
503.42	-0.000
503.63	-0.000
503.83	-0.000
504.03	-0.000
504.23	-0.000
504.43	-0.000
504.63	-0.000
504.83	-0.000
505.03	-0.000
505.23	-0.000
505.43	-0.000
505.63	-0.000
505.83	-0.000
506.03	-0.000
506.23	-0.000
506.43	-0.000
506.63	-0.000
506.83	-0.000
507.03	-0.000
507.23	-0.000
507.43	-0.000
507.63	-0.000
507.83	-0.000
508.03	-0.000
508.23	-0.000
508.43	-0.000
508.63	-0.000
508.83	-0.000
509.03	-0.000
509.23	-0.000
509.43	-0.000
509.63	-0.000
509.83	-0.000
510.03	-0.000
510.23	-0.000
510.43	-0.000
510.63	-0.000
510.83	-0.000
511.03	-0.000
511.23	-0.000
511.43	-0.000
511.63	-0.000
511.83	-0.000
512.03	-0.000
512.22	-0.000
512.42	-0.000
512.62	-0.000
512.82	-0.000
513.02	-0.000
513.22	-0.000
513.42	-0.000
513.62	-0.000
513.82	-0.000
514.02	-0.000
514.22	-0.000
514.42	-0.000
514.62	-0.000
514.82	-0.000
515.02	-0.000
515.22	-0.000
515.42	-0.000
515.62	-0.000
515.82	-0.000
516.02	-0.000
516.22	-0.000
516.42	-0.000
516.62	-0.000
516.82	-0.000
517.01	-0.000
517.21	-0.000
517.41	-0.000
517.61	-0.000
517.81	-0.000
518.01	-0.000
518.21	-0.000
518.41	-0.000
518.61	-0.000
518.81	-0.000
519.01	-0.000
519.21	-0.000
519.41	-0.000
519.61	-0.000
519.81	-0.000
520.00	-0.000
520.20	-0.000
520.40	-0.000
520.60	-0.000
520.80	-0.000
521.00	-0.000
521.20	-0.000
521.40	-0.000
521.60	-0.000
521.80	-0.000
522.00	-0.000
522.20	-0.000
522.39	-0.000
522.59	-0.001
522.79	-0.001
522.99	-0.001
523.19	-0.001
523.39	-0.001
523.59	-0.001
523.79	-0.001
523.99	-0.001
524.19	-0.001
524.38	-0.001
524.58	-0.002
524.78	-0.002
524.98	-0.002
525.18	-0.002
525.38	-0.002
525.58	-0.003
525.78	-0.003
525.98	-0.003
526.18	-0.003
526.37	-0.003
526.57	-0.003
526.77	-0.003
526.97	-0.003
527.17	-0.003
527.37	-0.003
527.57	-0.003
527.77	-0.003
527.96	-0.002
528.16	-0.002
528.36	-0.003
528.56	-0.003
528.76	-0.002
528.96	-0.003
529.16	-0.003
529.36	-0.003
529.55	-0.003
529.75	-0.003
529.95	-0.003
530.15	-0.003
530.35	-0.003
530.55	-0.003
530.75	-0.003
530.94	-0.003
531.14	-0.003
531.34	-0.003
531.54	-0.003
531.74	-0.003
531.94	-0.003
532.13	-0.003
532.33	-0.002
532.53	-0.002
532.73	-0.002
532.93	-0.002
533.13	-0.001
533.33	-0.001
533.52	-0.001
533.72	-0.001
533.92	-0.000
534.12	-0.000
534.32	-0.000
534.52	-0.000
534.71	-0.000
534.91	-0.000
535.11	-0.000
535.31	-0.000
535.51	-0.000
535.71	-0.000
535.90	-0.000
536.10	-0.000
536.30	-0.000
536.50	-0.000
536.70	-0.000
536.89	-0.000
537.09	-0.000
537.29	-0.000
537.49	-0.000
537.69	-0.000
537.89	-0.000
538.08	-0.000
538.28	-0.000
538.48	-0.000
538.68	-0.000
538.88	-0.000
539.07	-0.000
539.27	-0.000
539.47	-0.000
539.67	-0.000
539.87	-0.000
540.06	-0.000
540.26	-0.000
540.46	-0.000
540.66	-0.000
540.86	-0.000
541.05	-0.000
541.25	-0.000
541.45	-0.000
541.65	-0.000
541.84	-0.000
542.04	-0.000
542.24	-0.000
542.44	-0.000
542.64	-0.000
542.83	-0.000
543.03	-0.000
543.23	-0.000
543.43	-0.000
543.62	-0.000
543.82	-0.000
544.02	-0.000
544.22	-0.000
544.42	-0.000
544.61	-0.000
544.81	-0.000
545.01	-0.000
545.21	-0.000
545.40	-0.000
545.60	-0.000
545.80	-0.000
546.00	-0.000
546.19	-0.000
546.39	-0.000
546.59	-0.000
546.79	-0.000
546.98	-0.000
547.18	-0.000
547.38	-0.000
547.58	-0.000
547.77	-0.000
547.97	-0.000
548.17	-0.000
548.37	-0.000
548.56	-0.000
548.76	-0.000
548.96	-0.001
549.16	-0.001
549.35	-0.001
549.55	-0.002
549.75	-0.003
549.95	-0.003
550.14	-0.004
550.34	-0.004
550.54	-0.005
550.73	-0.005
550.93	-0.005
551.13	-0.005
551.33	-0.005
551.52	-0.005
551.72	-0.005
551.92	-0.005
552.12	-0.004
552.31	-0.004
552.51	-0.003
552.71	-0.002
552.90	-0.002
553.10	-0.002
553.30	-0.001
553.50	-0.001
553.69	-0.001
553.89	-0.000
554.09	-0.000
554.28	-0.000
554.48	-0.000
554.68	-0.001
554.87	-0.001
555.07	-0.002
555.27	-0.002
555.47	-0.003
555.66	-0.005
555.86	-0.006
556.06	-0.008
556.25	-0.010
556.45	-0.012
556.65	-0.014
556.84	-0.016
557.04	-0.019
557.24	-0.021
557.43	-0.023
557.63	-0.024
557.83	-0.026
558.02	-0.027
558.22	-0.027
558.42	-0.028
558.61	-0.028
558.81	-0.028
559.01	-0.027
559.21	-0.026
559.40	-0.024
559.60	-0.023
559.80	-0.021
559.99	-0.019
560.19	-0.017
560.39	-0.015
560.58	-0.012
560.78	-0.010
560.97	-0.008
561.17	-0.006
561.37	-0.005
561.56	-0.003
561.76	-0.002
561.96	-0.001
562.15	-0.001
562.35	-0.000
562.55	-0.000
562.74	-0.000
562.94	-0.001
563.14	-0.001
563.33	-0.002
563.53	-0.003
563.73	-0.004
563.92	-0.005
564.12	-0.006
564.31	-0.008
564.51	-0.009
564.71	-0.011
564.90	-0.012
565.10	-0.014
565.30	-0.014
565.49	-0.015
565.69	-0.016
565.89	-0.016
566.08	-0.015
566.28	-0.015
566.47	-0.014
566.67	-0.012
566.87	-0.011
567.06	-0.009
567.26	-0.007
567.46	-0.006
567.65	-0.004
567.85	-0.003
568.04	-0.002
568.24	-0.001
568.44	-0.001
568.63	-0.000
568.83	-0.000
569.02	-0.000
569.22	-0.000
569.42	-0.000
569.61	-0.000
569.81	-0.000
570.00	-0.000
570.20	-0.000
570.40	-0.000
570.59	-0.000
570.79	-0.000
570.98	-0.000
571.18	-0.000
571.38	-0.000
571.57	-0.000
571.77	-0.000
571.96	-0.000
572.16	-0.000
572.35	-0.000
572.55	-0.000
572.75	-0.000
572.94	-0.000
573.14	-0.000
573.33	-0.000
573.53	-0.000
573.73	-0.000
573.92	-0.000
574.12	-0.000
574.31	-0.000
574.51	-0.000
574.70	-0.000
574.90	-0.000
575.09	-0.000
575.29	-0.000
575.49	-0.000
575.68	-0.000
575.88	-0.000
576.07	-0.000
576.27	-0.000
576.46	-0.000
576.66	-0.000
576.86	-0.000
577.05	-0.000
577.25	-0.000
577.44	-0.000
577.64	-0.000
577.83	-0.000
578.03	-0.000
578.22	-0.000
578.42	-0.000
578.61	-0.000
578.81	-0.000
579.00	-0.000
579.20	-0.000
579.40	-0.000
579.59	-0.000
579.79	-0.000
579.98	-0.000
580.18	-0.000
580.37	-0.000
580.57	-0.000
580.76	-0.000
580.96	-0.000
581.15	-0.000
581.35	-0.000
581.54	-0.000
581.74	-0.000
581.93	-0.000
582.13	-0.000
582.32	-0.000
582.52	-0.000
582.71	-0.000
582.91	-0.000
583.10	-0.000
583.30	-0.000
583.49	-0.000
583.69	-0.000
583.88	-0.000
584.08	-0.000
584.27	-0.000
584.47	-0.000
584.66	-0.000
584.86	-0.000
585.05	-0.000
585.25	-0.000
585.44	-0.000
585.64	-0.000
585.83	-0.000
586.03	-0.000
586.22	-0.000
586.42	-0.000
586.61	-0.000
586.81	-0.000
587.00	-0.000
587.20	-0.000
587.39	-0.000
587.59	-0.000
587.78	-0.000
587.98	-0.000
588.17	-0.000
588.37	-0.000
588.56	-0.000
588.76	-0.000
588.95	-0.000
589.15	-0.000
589.34	-0.000
589.54	-0.000
589.73	-0.000
589.92	-0.000
590.12	-0.000
590.31	-0.000
590.51	-0.000
590.70	-0.000
590.90	-0.000
591.09	-0.000
591.29	-0.000
591.48	-0.000
591.68	-0.000
591.87	-0.000
592.06	-0.000
592.26	-0.000
592.45	-0.000
592.65	-0.000
592.84	-0.000
593.04	-0.000
593.23	-0.000
593.43	-0.000
593.62	-0.000
593.81	-0.000
594.01	-0.000
594.20	-0.000
594.40	-0.000
594.59	-0.000
594.79	-0.000
594.98	-0.000
595.17	-0.000
595.37	-0.000
595.56	-0.000
595.76	-0.000
595.95	-0.000
596.14	-0.000
596.34	-0.000
596.53	-0.000
596.73	-0.000
596.92	-0.000
597.12	-0.000
597.31	-0.000
597.50	-0.000
597.70	-0.000
597.89	-0.000
598.09	-0.000
598.28	-0.000
598.47	-0.000
598.67	-0.000
598.86	-0.000
599.06	-0.000
599.25	-0.000
599.44	-0.000
599.64	-0.000
599.83	-0.000
600.03	-0.000
600.22	-0.000
600.41	-0.000
600.61	-0.000
600.80	-0.000
601.00	-0.000
601.19	-0.000
601.38	-0.000
601.58	-0.000
601.77	-0.000
601.96	-0.000
602.16	-0.000
602.35	-0.000
602.55	-0.000
602.74	-0.000
602.93	-0.000
603.13	-0.000
603.32	-0.000
603.51	-0.000
603.71	-0.000
603.90	-0.000
604.09	-0.000
604.29	-0.000
604.48	-0.000
604.68	-0.000
604.87	-0.000
605.06	-0.000
605.26	-0.000
605.45	-0.000
605.64	-0.000
605.84	-0.000
606.03	-0.000
606.22	-0.000
606.42	-0.000
606.61	-0.000
606.80	-0.000
607.00	-0.000
607.19	-0.000
607.38	-0.000
607.58	-0.000
607.77	-0.000
607.96	-0.000
608.16	-0.000
608.35	-0.000
608.54	-0.000
608.74	-0.000
608.93	-0.000
609.12	-0.000
609.32	-0.000
609.51	-0.000
609.70	-0.000
609.90	-0.000
610.09	-0.000
610.28	-0.000
610.48	-0.000
610.67	-0.000
610.86	-0.000
611.06	-0.000
611.25	-0.000
611.44	-0.000
611.64	-0.000
611.83	-0.000
612.02	-0.000
612.21	-0.000
612.41	-0.000
612.60	-0.000
612.79	-0.000
612.99	-0.000
613.18	-0.000
613.37	-0.000
613.57	-0.000
613.76	-0.000
613.95	-0.000
614.14	-0.000
614.34	-0.000
614.53	-0.000
614.72	-0.000
614.92	-0.000
615.11	-0.000
615.30	-0.000
615.49	-0.000
615.69	-0.000
615.88	-0.000
616.07	-0.001
616.26	-0.001
616.46	-0.003
616.65	-0.004
616.84	-0.006
617.04	-0.008
617.23	-0.010
617.42	-0.012
617.61	-0.015
617.81	-0.017
618.00	-0.021
618.19	-0.024
618.38	-0.028
618.58	-0.030
618.77	-0.034
618.96	-0.037
619.15	-0.041
619.35	-0.043
619.54	-0.047
619.73	-0.050
619.92	-0.053
620.12	-0.055
620.31	-0.058
620.50	-0.059
620.69	-0.060
620.89	-0.061
621.08	-0.062
621.27	-0.061
621.46	-0.062
621.66	-0.061
621.85	-0.060
622.04	-0.060
622.23	-0.059
622.43	-0.058
622.62	-0.056
622.81	-0.055
623.00	-0.054
623.19	-0.054
623.39	-0.052
623.58	-0.052
623.77	-0.051
623.96	-0.051
624.16	-0.050
624.35	-0.050
624.54	-0.050
624.73	-0.050
624.92	-0.050
625.12	-0.050
625.31	-0.050
625.50	-0.051
625.69	-0.051
625.88	-0.052
626.08	-0.051
626.27	-0.052
626.46	-0.053
626.65	-0.053
626.84	-0.053
627.04	-0.053
627.23	-0.053
627.42	-0.053
627.61	-0.052
627.80	-0.052
628.00	-0.050
628.19	-0.050
628.38	-0.047
628.57	-0.047
628.76	-0.045
628.96	-0.045
629.15	-0.042
629.34	-0.041
629.53	-0.038
629.72	-0.037
629.91	-0.035
630.11	-0.034
630.30	-0.032
630.49	-0.032
630.68	-0.030
630.87	-0.030
631.06	-0.029
631.26	-0.029
631.45	-0.028
631.64	-0.028
631.83	-0.028
632.02	-0.028
632.21	-0.028
632.41	-0.028
632.60	-0.028
632.79	-0.028
632.98	-0.029
633.17	-0.029
633.36	-0.029
633.55	-0.028
633.75	-0.029
633.94	-0.028
634.13	-0.028
634.32	-0.028
634.51	-0.028
634.70	-0.028
634.89	-0.028
635.09	-0.029
635.28	-0.029
635.47	-0.029
635.66	-0.029
635.85	-0.029
636.04	-0.029
636.23	-0.029
636.43	-0.029
636.62	-0.029
636.81	-0.029
637.00	-0.029
637.19	-0.029
637.38	-0.029
637.57	-0.029
637.76	-0.029
637.95	-0.029
638.15	-0.029
638.34	-0.029
638.53	-0.029
638.72	-0.029
638.91	-0.029
639.10	-0.029
639.29	-0.029
639.48	-0.029
639.67	-0.029
639.87	-0.029
640.06	-0.029
640.25	-0.029
640.44	-0.029
640.63	-0.029
640.82	-0.029
641.01	-0.029
641.20	-0.029
641.39	-0.029
641.58	-0.029
641.78	-0.029
641.97	-0.029
642.16	-0.029
642.35	-0.029
642.54	-0.029
642.73	-0.029
642.92	-0.029
643.11	-0.029
643.30	-0.029
643.49	-0.029
643.68	-0.028
643.87	-0.028
644.06	-0.028
644.25	-0.029
644.45	-0.029
644.64	-0.029
644.83	-0.029
645.02	-0.029
645.21	-0.029
645.40	-0.029
645.59	-0.029
645.78	-0.029
645.97	-0.029
646.16	-0.029
646.35	-0.029
646.54	-0.029
646.73	-0.029
646.92	-0.029
647.11	-0.029
647.30	-0.029
647.49	-0.029
647.68	-0.029
647.88	-0.029
648.07	-0.029
648.26	-0.029
648.45	-0.029
648.64	-0.029
648.83	-0.029
649.02	-0.029
649.21	-0.029
649.40	-0.029
649.59	-0.029
649.78	-0.029
649.97	-0.028
650.16	-0.028
650.35	-0.028
650.54	-0.028
650.73	-0.028
650.92	-0.028
651.11	-0.028
651.30	-0.028
651.49	-0.028
651.68	-0.028
651.87	-0.028
652.06	-0.028
652.25	-0.028
652.44	-0.028
652.63	-0.028
652.82	-0.029
653.01	-0.029
653.20	-0.026
653.39	-0.023
653.58	-0.020
653.77	-0.017
653.96	-0.014
654.15	-0.012
654.34	-0.010
654.53	-0.007
654.72	-0.005
654.91	-0.003
655.10	-0.000
655.29	-0.000
655.48	-0.000
655.67	-0.000
655.86	-0.000
656.05	-0.000
656.24	-0.000
656.43	-0.000
656.62	-0.000
656.81	-0.000
657.00	-0.000
657.19	-0.000
657.38	-0.000
657.57	-0.000
657.76	-0.002
657.95	-0.007
658.14	-0.013
658.33	-0.020
658.51	-0.024
658.70	-0.028
658.89	-0.031
659.08	-0.034
659.27	-0.037
659.46	-0.040
659.65	-0.044
659.84	-0.045
660.03	-0.043
660.22	-0.038
660.41	-0.032
660.60	-0.030
660.79	-0.028
660.98	-0.028
661.17	-0.028
661.36	-0.028
661.55	-0.029
661.74	-0.029
661.92	-0.029
662.11	-0.029
662.30	-0.029
662.49	-0.029
662.68	-0.029
662.87	-0.029
663.06	-0.029
663.25	-0.029
663.44	-0.029
663.63	-0.029
663.82	-0.029
664.01	-0.029
664.20	-0.029
664.38	-0.029
664.57	-0.029
664.76	-0.028
664.95	-0.029
665.14	-0.029
665.33	-0.029
665.52	-0.029
665.71	-0.029
665.90	-0.029
666.09	-0.029
666.28	-0.029
666.46	-0.029
666.65	-0.029
666.84	-0.029
667.03	-0.029
667.22	-0.029
667.41	-0.029
667.60	-0.029
667.79	-0.029
667.98	-0.029
668.16	-0.029
668.35	-0.029
668.54	-0.029
668.73	-0.029
668.92	-0.029
669.11	-0.029
669.30	-0.029
669.49	-0.029
669.67	-0.029
669.86	-0.029
670.05	-0.029
670.24	-0.029
670.43	-0.029
670.62	-0.028
670.81	-0.029
671.00	-0.029
671.18	-0.029
671.37	-0.029
671.56	-0.029
671.75	-0.029
671.94	-0.029
672.13	-0.029
672.32	-0.029
672.50	-0.029
672.69	-0.029
672.88	-0.029
673.07	-0.029
673.26	-0.029
673.45	-0.029
673.63	-0.029
673.82	-0.028
674.01	-0.029
674.20	-0.028
674.39	-0.028
674.58	-0.029
674.76	-0.029
674.95	-0.028
675.14	-0.028
675.33	-0.028
675.52	-0.028
675.71	-0.029
675.89	-0.029
676.08	-0.029
676.27	-0.029
676.46	-0.029
676.65	-0.029
676.84	-0.029
677.02	-0.029
677.21	-0.029
677.40	-0.029
677.59	-0.029
677.78	-0.029
677.96	-0.029
678.15	-0.029
678.34	-0.029
678.53	-0.029
678.72	-0.029
678.90	-0.029
679.09	-0.029
679.28	-0.029
679.47	-0.029
679.66	-0.029
679.84	-0.029
680.03	-0.029
680.22	-0.029
680.41	-0.029
680.60	-0.029
680.78	-0.029
680.97	-0.029
681.16	-0.029
681.35	-0.029
681.53	-0.029
681.72	-0.029
681.91	-0.028
682.10	-0.028
682.29	-0.028
682.47	-0.029
682.66	-0.029
682.85	-0.029
683.04	-0.029
683.22	-0.029
683.41	-0.029
683.60	-0.028
683.79	-0.029
683.97	-0.029
684.16	-0.028
684.35	-0.028
684.54	-0.028
684.72	-0.028
684.91	-0.028
685.10	-0.028
685.29	-0.028
685.47	-0.028
685.66	-0.028
685.85	-0.028
686.04	-0.028
686.22	-0.028
686.41	-0.028
686.60	-0.028
686.79	-0.028
686.97	-0.028
687.16	-0.028
687.35	-0.028
687.54	-0.028
687.72	-0.028
687.91	-0.028
688.10	-0.028
688.29	-0.028
688.47	-0.028
688.66	-0.028
688.85	-0.028
689.03	-0.028
689.22	-0.028
689.41	-0.029
689.60	-0.029
689.78	-0.029
689.97	-0.029
690.16	-0.029
690.34	-0.029
690.53	-0.029
690.72	-0.029
690.91	-0.029
691.09	-0.029
691.28	-0.029
691.47	-0.029
691.65	-0.029
691.84	-0.029
692.03	-0.029
692.21	-0.029
692.40	-0.029
692.59	-0.029
692.77	-0.028
692.96	-0.028
693.15	-0.028
693.34	-0.028
693.52	-0.028
693.71	-0.028
693.90	-0.028
694.08	-0.028
694.27	-0.028
694.46	-0.028
694.64	-0.028
694.83	-0.028
695.02	-0.029
695.20	-0.029
695.39	-0.029
695.58	-0.029
695.76	-0.029
695.95	-0.029
696.14	-0.029
696.32	-0.029
696.51	-0.029
696.70	-0.029
696.88	-0.028
697.07	-0.028
697.26	-0.028
697.44	-0.029
697.63	-0.029
697.81	-0.029
698.00	-0.028
698.19	-0.028
698.37	-0.028
698.56	-0.028
698.75	-0.029
698.93	-0.028
699.12	-0.028
699.31	-0.028
699.49	-0.028
699.68	-0.028
699.87	-0.028
700.05	-0.028
700.24	-0.028
700.42	-0.028
700.61	-0.029
700.80	-0.028
700.98	-0.028
701.17	-0.028
701.36	-0.028
701.54	-0.028
701.73	-0.029
701.91	-0.028
702.10	-0.028
702.29	-0.029
702.47	-0.028
702.66	-0.028
702.84	-0.028
703.03	-0.028
703.22	-0.028
703.40	-0.028
703.59	-0.028
703.77	-0.028
703.96	-0.028
704.15	-0.029
704.33	-0.029
704.52	-0.029
704.70	-0.029
704.89	-0.029
705.08	-0.029
705.26	-0.029
705.45	-0.029
705.63	-0.029
705.82	-0.029
706.00	-0.029
706.19	-0.029
706.38	-0.029
706.56	-0.029
706.75	-0.029
706.93	-0.029
707.12	-0.029
707.30	-0.029
707.49	-0.029
707.68	-0.029
707.86	-0.029
708.05	-0.028
708.23	-0.029
708.42	-0.028
708.60	-0.028
708.79	-0.028
708.98	-0.028
709.16	-0.028
709.35	-0.028
709.53	-0.028
709.72	-0.028
709.90	-0.028
710.09	-0.028
710.27	-0.028
710.46	-0.028
710.64	-0.028
710.83	-0.028
711.02	-0.028
711.20	-0.028
711.39	-0.028
711.57	-0.028
711.76	-0.029
711.94	-0.029
712.13	-0.029
712.31	-0.029
712.50	-0.029
712.68	-0.029
712.87	-0.029
713.05	-0.029
713.24	-0.029
713.42	-0.029
713.61	-0.029
713.79	-0.029
713.98	-0.029
714.16	-0.029
714.35	-0.029
714.54	-0.029
714.72	-0.029
714.91	-0.029
715.09	-0.029
715.28	-0.029
715.46	-0.029
715.65	-0.029
715.83	-0.029
716.02	-0.029
716.20	-0.029
716.39	-0.029
716.57	-0.029
716.76	-0.028
716.94	-0.028
717.12	-0.028
717.31	-0.029
717.49	-0.029
717.68	-0.029
717.86	-0.029
718.05	-0.028
718.23	-0.029
718.42	-0.029
718.60	-0.029
718.79	-0.029
718.97	-0.029
719.16	-0.029
719.34	-0.029
719.53	-0.029
719.71	-0.029
719.90	-0.029
720.08	-0.029
720.27	-0.029
720.45	-0.029
720.63	-0.029
720.82	-0.029
721.00	-0.029
721.19	-0.029
721.37	-0.029
721.56	-0.029
721.74	-0.029
721.93	-0.029
722.11	-0.029
722.30	-0.029
722.48	-0.029
722.66	-0.029
722.85	-0.029
723.03	-0.029
723.22	-0.029
723.40	-0.029
723.59	-0.029
723.77	-0.029
723.95	-0.029
724.14	-0.029
724.32	-0.029
724.51	-0.029
724.69	-0.029
724.88	-0.029
725.06	-0.029
725.24	-0.029
725.43	-0.029
725.61	-0.029
725.80	-0.029
725.98	-0.029
726.16	-0.029
726.35	-0.029
726.53	-0.029
726.72	-0.029
726.90	-0.029
727.09	-0.029
727.27	-0.029
727.45	-0.029
727.64	-0.029
727.82	-0.029
728.01	-0.029
728.19	-0.029
728.37	-0.030
728.56	-0.030
728.74	-0.030
728.92	-0.030
729.11	-0.030
729.29	-0.030
729.48	-0.030
729.66	-0.030
729.84	-0.030
730.03	-0.030
730.21	-0.030
730.40	-0.030
730.58	-0.030
730.76	-0.030
730.95	-0.030
731.13	-0.030
731.31	-0.030
731.50	-0.030
731.68	-0.030
731.86	-0.030
732.05	-0.030
732.23	-0.030
732.42	-0.030
732.60	-0.030
732.78	-0.030
732.97	-0.030
733.15	-0.029
733.33	-0.029
733.52	-0.029
733.70	-0.029
733.88	-0.029
734.07	-0.029
734.25	-0.029
734.43	-0.029
734.62	-0.030
734.80	-0.029
734.98	-0.029
735.17	-0.030
735.35	-0.030
735.53	-0.030
735.72	-0.030
735.90	-0.030
736.08	-0.030
736.27	-0.030
736.45	-0.030
736.63	-0.030
736.82	-0.030
737.00	-0.030
737.18	-0.029
737.37	-0.029
737.55	-0.029
737.73	-0.029
737.92	-0.029
738.10	-0.029
738.28	-0.029
738.46	-0.029
738.65	-0.029
738.83	-0.029
739.01	-0.030
739.20	-0.029
739.38	-0.030
739.56	-0.030
739.75	-0.030
739.93	-0.030
740.11	-0.031
740.29	-0.030
740.48	-0.030
740.66	-0.030
740.84	-0.030
741.03	-0.030
741.21	-0.030
741.39	-0.030
741.57	-0.030
741.76	-0.030
741.94	-0.030
742.12	-0.030
742.31	-0.031
742.49	-0.030
742.67	-0.030
742.85	-0.030
743.04	-0.030
743.22	-0.031
743.40	-0.031
743.58	-0.031
743.77	-0.031
743.95	-0.031
744.13	-0.030
744.31	-0.031
744.50	-0.031
744.68	-0.031
744.86	-0.031
745.04	-0.031
745.23	-0.031
745.41	-0.031
745.59	-0.031
745.77	-0.030
745.96	-0.031
746.14	-0.031
746.32	-0.031
746.50	-0.030
746.69	-0.030
746.87	-0.030
747.05	-0.030
747.23	-0.030
747.42	-0.030
747.60	-0.030
747.78	-0.030
747.96	-0.030
748.14	-0.029
748.33	-0.029
748.51	-0.029
748.69	-0.029
748.87	-0.029
749.06	-0.030
749.24	-0.030
749.42	-0.029
749.60	-0.029
749.78	-0.030
749.97	-0.030
750.15	-0.030
750.33	-0.030
750.51	-0.030
750.69	-0.030
750.88	-0.030
751.06	-0.030
751.24	-0.030
751.42	-0.030
751.60	-0.030
751.79	-0.030
751.97	-0.030
752.15	-0.030
752.33	-0.030
752.51	-0.030
752.69	-0.030
752.88	-0.030
753.06	-0.030
753.24	-0.031
753.42	-0.030
753.60	-0.030
753.78	-0.030
753.97	-0.030
754.15	-0.030
754.33	-0.030
754.51	-0.030
754.69	-0.030
754.87	-0.030
755.06	-0.030
755.24	-0.030
755.42	-0.030
755.60	-0.030
755.78	-0.029
755.96	-0.029
756.15	-0.029
756.33	-0.028
756.51	-0.028
756.69	-0.028
756.87	-0.028
757.05	-0.028
757.23	-0.028
757.42	-0.029
757.60	-0.029
757.78	-0.029
757.96	-0.030
758.14	-0.030
758.32	-0.030
758.50	-0.030
758.69	-0.030
758.87	-0.030
759.05	-0.030
759.23	-0.030
759.41	-0.030
759.59	-0.030
759.77	-0.030
759.95	-0.030
760.13	-0.031
760.32	-0.031
760.50	-0.031
760.68	-0.030
760.86	-0.031
761.04	-0.031
761.22	-0.031
761.40	-0.031
761.58	-0.031
761.76	-0.030
761.95	-0.030
762.13	-0.030
762.31	-0.030
762.49	-0.030
762.67	-0.030
762.85	-0.030
763.03	-0.030
763.21	-0.030
763.39	-0.030
763.57	-0.030
763.75	-0.030
763.94	-0.030
764.12	-0.030
764.30	-0.030
764.48	-0.030
764.66	-0.030
764.84	-0.031
765.02	-0.030
765.20	-0.030
765.38	-0.031
765.56	-0.031
765.74	-0.030
765.92	-0.030
766.10	-0.030
766.28	-0.030
766.46	-0.030
766.65	-0.029
766.83	-0.029
767.01	-0.029
767.19	-0.029
767.37	-0.029
767.55	-0.029
767.73	-0.029
767.91	-0.029
768.09	-0.029
768.27	-0.029
768.45	-0.029
768.63	-0.029
768.81	-0.029
768.99	-0.029
769.17	-0.029
769.35	-0.029
769.53	-0.029
769.71	-0.029
769.89	-0.029
770.07	-0.030
770.25	-0.029
770.43	-0.030
770.61	-0.030
770.79	-0.030
770.97	-0.029
771.15	-0.030
771.33	-0.030
771.51	-0.030
771.69	-0.030
771.87	-0.030
772.05	-0.030
772.24	-0.030
772.42	-0.030
772.60	-0.031
772.78	-0.031
772.96	-0.030
773.14	-0.031
773.32	-0.031
773.49	-0.030
773.67	-0.030
773.85	-0.030
774.03	-0.031
774.21	-0.031
774.39	-0.030
774.57	-0.030
774.75	-0.030
774.93	-0.030
775.11	-0.030
775.29	-0.030
775.47	-0.030
775.65	-0.030
775.83	-0.030
776.01	-0.030
776.19	-0.030
776.37	-0.030
776.55	-0.029
776.73	-0.030
776.91	-0.030
777.09	-0.030
777.27	-0.030
777.45	-0.030
777.63	-0.030
777.81	-0.030
777.99	-0.030
778.17	-0.029
778.35	-0.030
778.53	-0.030
778.71	-0.030
778.89	-0.029
779.07	-0.030
779.24	-0.030
779.42	-0.029
779.60	-0.029
779.78	-0.029
779.96	-0.029
780.14	-0.029
780.32	-0.029
780.50	-0.029
780.68	-0.029
780.86	-0.029
781.04	-0.029
781.22	-0.029
781.40	-0.029
781.58	-0.029
781.75	-0.029
781.93	-0.029
782.11	-0.029
782.29	-0.029
782.47	-0.029
782.65	-0.029
782.83	-0.029
783.01	-0.029
783.19	-0.029
783.37	-0.028
783.55	-0.029
783.72	-0.028
783.90	-0.028
784.08	-0.029
784.26	-0.029
784.44	-0.029
784.62	-0.029
784.80	-0.029
784.98	-0.029
785.16	-0.029
785.33	-0.030
785.51	-0.030
785.69	-0.030
785.87	-0.030
786.05	-0.030
786.23	-0.030
786.41	-0.030
786.59	-0.030
786.77	-0.030
786.94	-0.030
787.12	-0.030
787.30	-0.029
787.48	-0.029
787.66	-0.030
787.84	-0.030
788.02	-0.030
788.19	-0.029
788.37	-0.030
788.55	-0.029
788.73	-0.029
788.91	-0.029
789.09	-0.029
789.27	-0.029
789.44	-0.030
789.62	-0.030
789.80	-0.030
789.98	-0.030
790.16	-0.030
790.34	-0.030
790.51	-0.030
790.69	-0.030
790.87	-0.030
791.05	-0.031
791.23	-0.031
791.41	-0.030
791.58	-0.030
791.76	-0.030
791.94	-0.030
792.12	-0.030
792.30	-0.029
792.48	-0.029
792.65	-0.029
792.83	-0.029
793.01	-0.029
793.19	-0.029
793.37	-0.029
793.54	-0.029
793.72	-0.029
793.90	-0.029
794.08	-0.029
794.26	-0.029
794.43	-0.030
794.61	-0.030
794.79	-0.030
794.97	-0.030
795.15	-0.030
795.32	-0.030
795.50	-0.030
795.68	-0.030
795.86	-0.030
796.04	-0.030
796.21	-0.030
796.39	-0.030
796.57	-0.030
796.75	-0.030
796.92	-0.030
797.10	-0.030
797.28	-0.031
797.46	-0.030
797.64	-0.030
797.81	-0.030
797.99	-0.030
798.17	-0.030
798.35	-0.029
798.52	-0.029
798.70	-0.029
798.88	-0.029
799.06	-0.029
799.23	-0.029
799.41	-0.029
799.59	-0.029
799.77	-0.029
799.94	-0.029
800.12	-0.029
800.30	-0.029
800.48	-0.030
800.65	-0.029
800.83	-0.029
801.01	-0.029
801.19	-0.029
801.36	-0.029
801.54	-0.029
801.72	-0.029
801.90	-0.029
802.07	-0.029
802.25	-0.029
802.43	-0.029
802.60	-0.029
802.78	-0.029
802.96	-0.029
803.14	-0.029
803.31	-0.029
803.49	-0.029
803.67	-0.029
803.84	-0.029
804.02	-0.029
804.20	-0.030
804.38	-0.030
804.55	-0.029
804.73	-0.029
804.91	-0.029
805.08	-0.029
805.26	-0.029
805.44	-0.029
805.61	-0.029
805.79	-0.029
805.97	-0.030
806.15	-0.029
806.32	-0.029
806.50	-0.029
806.68	-0.030
806.85	-0.030
807.03	-0.030
807.21	-0.030
807.38	-0.029
807.56	-0.029
807.74	-0.029
807.91	-0.029
808.09	-0.029
808.27	-0.029
808.44	-0.029
808.62	-0.029
808.80	-0.030
808.97	-0.030
809.15	-0.030
809.33	-0.030
809.50	-0.030
809.68	-0.030
809.86	-0.030
810.03	-0.030
810.21	-0.030
810.39	-0.030
810.56	-0.030
810.74	-0.030
810.91	-0.029
811.09	-0.029
811.27	-0.029
811.44	-0.029
811.62	-0.030
811.80	-0.029
811.97	-0.029
812.15	-0.030
812.33	-0.030
812.50	-0.029
812.68	-0.029
812.85	-0.029
813.03	-0.030
813.21	-0.030
813.38	-0.030
813.56	-0.030
813.74	-0.030
813.91	-0.030
814.09	-0.030
814.26	-0.030
814.44	-0.031
814.62	-0.031
814.79	-0.031
814.97	-0.031
815.14	-0.030
815.32	-0.030
815.50	-0.030
815.67	-0.030
815.85	-0.030
816.02	-0.029
816.20	-0.029
816.38	-0.029
816.55	-0.029
816.73	-0.029
816.90	-0.029
817.08	-0.030
817.26	-0.030
817.43	-0.031
817.61	-0.031
817.78	-0.030
817.96	-0.030
818.13	-0.030
818.31	-0.030
818.49	-0.030
818.66	-0.030
818.84	-0.030
819.01	-0.030
819.19	-0.030
819.36	-0.029
819.54	-0.029
819.71	-0.030
819.89	-0.030
820.07	-0.030
820.24	-0.030
820.42	-0.030
820.59	-0.030
820.77	-0.030
820.94	-0.030
821.12	-0.030
821.29	-0.030
821.47	-0.030
821.64	-0.030
821.82	-0.030
822.00	-0.031
822.17	-0.031
822.35	-0.031
822.52	-0.031
822.70	-0.030
822.87	-0.030
823.05	-0.030
823.22	-0.030
823.40	-0.030
823.57	-0.030
823.75	-0.030
823.92	-0.030
824.10	-0.030
824.27	-0.030
824.45	-0.030
824.62	-0.030
824.80	-0.030
824.97	-0.031
825.15	-0.031
825.32	-0.031
825.50	-0.031
825.67	-0.031
825.85	-0.031
826.02	-0.031
826.20	-0.031
826.37	-0.030
826.55	-0.031
826.72	-0.031
826.90	-0.031
827.07	-0.030
827.25	-0.031
827.42	-0.031
827.60	-0.030
827.77	-0.030
827.95	-0.030
828.12	-0.030
828.30	-0.030
828.47	-0.030
828.65	-0.030
828.82	-0.030
829.00	-0.030
829.17	-0.030
829.34	-0.030
829.52	-0.031
829.69	-0.031
829.87	-0.031
830.04	-0.031
830.22	-0.031
830.39	-0.031
830.57	-0.030
830.74	-0.030
830.92	-0.030
831.09	-0.029
831.26	-0.029
831.44	-0.028
831.61	-0.029
831.79	-0.028
831.96	-0.028
832.14	-0.029
832.31	-0.029
832.49	-0.030
832.66	-0.031
832.83	-0.030
833.01	-0.031
833.18	-0.030
833.36	-0.030
833.53	-0.031
833.70	-0.030
833.88	-0.031
834.05	-0.032
834.23	-0.033
834.40	-0.033
834.58	-0.032
834.75	-0.032
834.92	-0.033
835.10	-0.034
835.27	-0.034
835.45	-0.034
835.62	-0.034
835.79	-0.033
835.97	-0.032
836.14	-0.032
836.32	-0.032
836.49	-0.031
836.66	-0.032
836.84	-0.031
837.01	-0.030
837.18	-0.030
837.36	-0.030
837.53	-0.029
837.71	-0.029
837.88	-0.028
838.05	-0.028
838.23	-0.027
838.40	-0.028
838.58	-0.028
838.75	-0.027
838.92	-0.027
839.10	-0.027
839.27	-0.028
839.44	-0.030
839.62	-0.029
839.79	-0.029
839.96	-0.030
840.14	-0.029
840.31	-0.030
840.48	-0.029
840.66	-0.029
840.83	-0.030
841.01	-0.029
841.18	-0.028
841.35	-0.027
841.53	-0.028
841.70	-0.029
841.87	-0.029
842.05	-0.031
842.22	-0.031
842.39	-0.032
842.57	-0.032
842.74	-0.032
842.91	-0.032
843.09	-0.033
843.26	-0.032
843.43	-0.034
843.60	-0.034
843.78	-0.034
843.95	-0.033
844.12	-0.033
844.30	-0.033
844.47	-0.031
844.64	-0.034
844.82	-0.034
844.99	-0.035
845.16	-0.037
845.34	-0.036
845.51	-0.034
845.68	-0.034
845.85	-0.034
846.03	-0.034
846.20	-0.034
846.37	-0.035
846.55	-0.032
846.72	-0.032
846.89	-0.033
847.06	-0.033
847.24	-0.033
847.41	-0.033
847.58	-0.032
847.76	-0.033
847.93	-0.031
848.10	-0.033
848.27	-0.034
848.45	-0.035
848.62	-0.036
848.79	-0.034
848.97	-0.033
849.14	-0.034
849.31	-0.036
849.48	-0.036
849.66	-0.036
849.83	-0.037
850.00	-0.037
850.17	-0.037
850.35	-0.036
850.52	-0.037
850.69	-0.037
850.86	-0.038
851.04	-0.036
851.21	-0.036
851.38	-0.038
851.55	-0.038
851.72	-0.038
851.90	-0.036
852.07	-0.035
852.24	-0.034
852.41	-0.033
852.59	-0.031
852.76	-0.030
852.93	-0.030
853.10	-0.030
853.28	-0.028
853.45	-0.028
853.62	-0.027
853.79	-0.028
853.96	-0.029
854.14	-0.030
854.31	-0.032
854.48	-0.031
854.65	-0.033
854.82	-0.032
855.00	-0.032
855.17	-0.033
855.34	-0.035
855.51	-0.035
855.68	-0.035
855.86	-0.034
856.03	-0.032
856.20	-0.032
856.37	-0.033
856.54	-0.032
856.72	-0.035
856.89	-0.035
857.06	-0.034
857.23	-0.033
857.40	-0.033
857.57	-0.035
857.75	-0.035
857.92	-0.036
858.09	-0.038
858.26	-0.037
858.43	-0.038
858.60	-0.038
858.78	-0.039
858.95	-0.041
859.12	-0.040
859.29	-0.041
859.46	-0.039
859.63	-0.039
859.81	-0.038
859.98	-0.037
860.15	-0.038
860.32	-0.037
860.49	-0.035
860.66	-0.033
860.83	-0.033
861.01	-0.032
861.18	-0.029
861.35	-0.031
861.52	-0.032
861.69	-0.032
861.86	-0.032
862.03	-0.035
862.21	-0.036
862.38	-0.037
862.55	-0.040
862.72	-0.040
862.89	-0.040
863.06	-0.040
863.23	-0.038
863.40	-0.035
863.58	-0.035
863.75	-0.033
863.92	-0.031
864.09	-0.031
864.26	-0.028
864.43	-0.028
864.60	-0.027
864.77	-0.028
864.94	-0.033
865.11	-0.034
865.29	-0.034
865.46	-0.036
865.63	-0.036
865.80	-0.033
865.97	-0.032
866.14	-0.034
866.31	-0.029
866.48	-0.026
866.65	-0.025
866.82	-0.024
866.99	-0.023
867.16	-0.027
867.34	-0.024
867.51	-0.026
867.68	-0.029
867.85	-0.028
868.02	-0.028
868.19	-0.034
868.36	-0.037
868.53	-0.040
868.70	-0.039
868.87	-0.041
869.04	-0.036
869.21	-0.036
869.38	-0.036
869.55	-0.036
869.72	-0.037
869.89	-0.035
870.06	-0.031
870.24	-0.031
870.41	-0.029
870.58	-0.030
870.75	-0.031
870.92	-0.032
871.09	-0.035
871.26	-0.037
871.43	-0.038
871.60	-0.039
871.77	-0.039
871.94	-0.044
872.11	-0.045
872.28	-0.046
872.45	-0.044
872.62	-0.041
872.79	-0.040
872.96	-0.038
873.13	-0.036
873.30	-0.034
873.47	-0.031
873.64	-0.032
873.81	-0.030
873.98	-0.030
874.15	-0.032
874.32	-0.029
874.49	-0.031
874.66	-0.034
874.83	-0.028
875.00	-0.028
875.17	-0.028
875.34	-0.030
875.51	-0.030
875.68	-0.030
875.85	-0.028
876.02	-0.028
876.19	-0.032
876.36	-0.029
876.53	-0.028
876.70	-0.036
876.87	-0.040
877.04	-0.042
877.21	-0.040
877.38	-0.044
877.55	-0.035
877.72	-0.034
877.89	-0.034
878.06	-0.036
878.23	-0.038
878.39	-0.036
878.56	-0.033
878.73	-0.028
878.90	-0.030
879.07	-0.029
879.24	-0.025
879.41	-0.027
879.58	-0.029
879.75	-0.028
879.92	-0.022
880.09	-0.022
880.26	-0.027
880.43	-0.028
880.60	-0.032
880.77	-0.033
880.94	-0.035
881.11	-0.042
881.27	-0.050
881.44	-0.051
881.61	-0.049
881.78	-0.050
881.95	-0.046
882.12	-0.045
882.29	-0.049
882.46	-0.046
882.63	-0.040
882.80	-0.038
882.97	-0.030
883.14	-0.028
883.30	-0.022
883.47	-0.023
883.64	-0.027
883.81	-0.032
883.98	-0.032
884.15	-0.028
884.32	-0.026
884.49	-0.031
884.66	-0.028
884.82	-0.033
884.99	-0.030
885.16	-0.037
885.33	-0.033
885.50	-0.032
885.67	-0.032
885.84	-0.032
886.01	-0.034
886.17	-0.041
886.34	-0.037
886.51	-0.041
886.68	-0.040
886.85	-0.044
887.02	-0.044
887.19	-0.055
887.36	-0.059
887.52	-0.062
887.69	-0.056
887.86	-0.059
888.03	-0.052
888.20	-0.051
888.37	-0.062
888.54	-0.065
888.70	-0.064
888.87	-0.065
889.04	-0.063
889.21	-0.057
889.38	-0.058
889.55	-0.055
889.71	-0.092
889.88	-0.075
890.05	-0.018
890.22	-0.083
890.39	0.036
>>>>>End Processed Spectral Data<<<<<
