SpectraSuite Data File
++++++++++++++++++++++++++++++++++++
Date: Mon Jun 15 08:17:31 PDT 2015
User: introlabs
Dark Spectrum Present: Yes
Reference Spectrum Present: Yes
Number of Sampled Component Spectra: 1
Spectrometers: USB4H08886
Integration Time (usec): 44366 (USB4H08886)
Spectra Averaged: 20 (USB4H08886)
Boxcar Smoothing: 5 (USB4H08886)
Correct for Electrical Dark: Yes (USB4H08886)
Strobe/Lamp Enabled: No (USB4H08886)
Correct for Detector Non-linearity: Yes (USB4H08886)
Correct for Stray Light: Yes (USB4H08886)
Number of Pixels in Processed Spectrum: 3648
>>>>>Begin Processed Spectral Data<<<<<
178.14	0.279
178.36	0.279
178.57	0.279
178.79	0.671
179.01	-1.207
179.22	0.151
179.44	-0.318
179.65	-0.000
179.87	-0.000
180.08	0.744
180.30	0.597
180.52	0.828
180.73	0.227
180.95	0.087
181.16	0.026
181.38	0.027
181.59	0.019
181.81	-0.007
182.03	-0.002
182.24	0.004
182.46	0.009
182.67	-0.001
182.89	0.003
183.10	0.015
183.32	0.011
183.54	0.009
183.75	0.011
183.97	0.014
184.18	0.013
184.40	0.002
184.61	0.008
184.83	0.007
185.04	0.003
185.26	0.005
185.48	-0.002
185.69	0.002
185.91	0.003
186.12	0.001
186.34	0.005
186.55	0.007
186.77	0.017
186.98	0.009
187.20	-0.002
187.42	0.004
187.63	0.005
187.85	0.007
188.06	0.006
188.28	0.010
188.49	0.016
188.71	0.013
188.92	0.010
189.14	0.005
189.36	0.011
189.57	0.024
189.79	0.016
190.00	0.015
190.22	0.012
190.43	0.013
190.65	0.008
190.86	0.006
191.08	0.009
191.29	0.007
191.51	0.008
191.72	0.006
191.94	0.002
192.16	0.003
192.37	-0.000
192.59	0.006
192.80	-0.003
193.02	-0.004
193.23	0.001
193.45	-0.012
193.66	-0.010
193.88	-0.014
194.09	-0.015
194.31	-0.017
194.52	-0.017
194.74	-0.017
194.95	-0.024
195.17	-0.021
195.38	-0.024
195.60	-0.030
195.81	-0.018
196.03	-0.013
196.25	0.004
196.46	-0.001
196.68	0.004
196.89	0.009
197.11	0.008
197.32	0.007
197.54	0.004
197.75	0.019
197.97	0.016
198.18	0.007
198.40	0.008
198.61	-0.006
198.83	-0.005
199.04	-0.011
199.26	-0.014
199.47	-0.011
199.69	-0.002
199.90	0.009
200.12	0.002
200.33	0.005
200.55	0.011
200.76	-0.002
200.98	-0.005
201.19	-0.004
201.41	-0.007
201.62	-0.004
201.84	0.005
202.05	0.004
202.27	0.000
202.48	0.003
202.70	0.005
202.91	0.004
203.13	0.008
203.34	0.007
203.56	0.008
203.77	0.019
203.99	0.012
204.20	0.000
204.42	-0.007
204.63	-0.007
204.85	-0.008
205.06	-0.011
205.28	-0.009
205.49	-0.000
205.71	0.009
205.92	0.011
206.14	0.001
206.35	0.013
206.56	0.022
206.78	0.027
206.99	0.028
207.21	0.029
207.42	0.030
207.64	0.032
207.85	0.030
208.07	0.030
208.28	0.029
208.50	0.035
208.71	0.032
208.93	0.026
209.14	0.023
209.36	0.019
209.57	0.022
209.79	0.026
210.00	0.026
210.22	0.025
210.43	0.022
210.64	0.020
210.86	0.016
211.07	0.013
211.29	0.017
211.50	0.019
211.72	0.018
211.93	0.015
212.15	0.009
212.36	0.000
212.58	-0.000
212.79	0.003
213.01	-0.004
213.22	0.002
213.43	0.003
213.65	0.003
213.86	0.002
214.08	0.012
214.29	0.011
214.51	0.010
214.72	0.013
214.94	0.008
215.15	0.007
215.36	0.016
215.58	0.011
215.79	0.006
216.01	0.008
216.22	0.011
216.44	-0.003
216.65	-0.003
216.87	0.003
217.08	-0.001
217.29	0.007
217.51	0.005
217.72	0.000
217.94	0.006
218.15	0.010
218.37	0.002
218.58	-0.003
218.80	0.011
219.01	0.009
219.22	0.002
219.44	0.001
219.65	-0.003
219.87	-0.004
220.08	-0.008
220.30	-0.014
220.51	-0.011
220.72	-0.011
220.94	-0.016
221.15	-0.025
221.37	-0.027
221.58	-0.027
221.79	-0.023
222.01	-0.028
222.22	-0.033
222.44	-0.031
222.65	-0.031
222.87	-0.040
223.08	-0.036
223.29	-0.031
223.51	-0.032
223.72	-0.031
223.94	-0.032
224.15	-0.030
224.36	-0.025
224.58	-0.024
224.79	-0.020
225.01	-0.022
225.22	-0.015
225.44	-0.015
225.65	-0.013
225.86	-0.008
226.08	-0.005
226.29	-0.003
226.51	-0.003
226.72	-0.002
226.93	0.001
227.15	-0.002
227.36	0.001
227.58	-0.003
227.79	0.000
228.00	-0.004
228.22	-0.013
228.43	-0.016
228.65	-0.015
228.86	-0.016
229.07	-0.018
229.29	-0.020
229.50	-0.019
229.72	-0.021
229.93	-0.022
230.14	-0.025
230.36	-0.023
230.57	-0.021
230.78	-0.022
231.00	-0.027
231.21	-0.029
231.43	-0.027
231.64	-0.025
231.85	-0.023
232.07	-0.023
232.28	-0.022
232.50	-0.025
232.71	-0.028
232.92	-0.028
233.14	-0.027
233.35	-0.025
233.56	-0.024
233.78	-0.028
233.99	-0.029
234.21	-0.031
234.42	-0.031
234.63	-0.031
234.85	-0.032
235.06	-0.032
235.27	-0.033
235.49	-0.031
235.70	-0.032
235.91	-0.035
236.13	-0.032
236.34	-0.033
236.56	-0.034
236.77	-0.033
236.98	-0.031
237.20	-0.030
237.41	-0.029
237.62	-0.029
237.84	-0.030
238.05	-0.029
238.26	-0.029
238.48	-0.029
238.69	-0.028
238.91	-0.028
239.12	-0.028
239.33	-0.029
239.55	-0.028
239.76	-0.028
239.97	-0.027
240.19	-0.025
240.40	-0.025
240.61	-0.025
240.83	-0.025
241.04	-0.025
241.25	-0.025
241.47	-0.024
241.68	-0.022
241.89	-0.022
242.11	-0.022
242.32	-0.022
242.53	-0.022
242.75	-0.021
242.96	-0.020
243.17	-0.018
243.39	-0.018
243.60	-0.017
243.81	-0.017
244.03	-0.018
244.24	-0.017
244.45	-0.016
244.67	-0.015
244.88	-0.014
245.09	-0.015
245.31	-0.015
245.52	-0.015
245.73	-0.014
245.95	-0.014
246.16	-0.013
246.37	-0.013
246.59	-0.012
246.80	-0.013
247.01	-0.012
247.23	-0.013
247.44	-0.013
247.65	-0.013
247.87	-0.012
248.08	-0.013
248.29	-0.012
248.51	-0.012
248.72	-0.012
248.93	-0.012
249.15	-0.011
249.36	-0.011
249.57	-0.011
249.78	-0.010
250.00	-0.010
250.21	-0.010
250.42	-0.009
250.64	-0.009
250.85	-0.009
251.06	-0.009
251.28	-0.008
251.49	-0.008
251.70	-0.008
251.92	-0.007
252.13	-0.007
252.34	-0.006
252.55	-0.006
252.77	-0.006
252.98	-0.006
253.19	-0.007
253.41	-0.006
253.62	-0.006
253.83	-0.005
254.05	-0.006
254.26	-0.006
254.47	-0.006
254.68	-0.007
254.90	-0.006
255.11	-0.006
255.32	-0.005
255.54	-0.005
255.75	-0.005
255.96	-0.005
256.17	-0.005
256.39	-0.005
256.60	-0.005
256.81	-0.005
257.03	-0.005
257.24	-0.005
257.45	-0.005
257.66	-0.005
257.88	-0.005
258.09	-0.005
258.30	-0.005
258.51	-0.005
258.73	-0.005
258.94	-0.005
259.15	-0.005
259.37	-0.005
259.58	-0.006
259.79	-0.006
260.00	-0.005
260.22	-0.005
260.43	-0.005
260.64	-0.005
260.85	-0.005
261.07	-0.005
261.28	-0.005
261.49	-0.005
261.71	-0.006
261.92	-0.005
262.13	-0.006
262.34	-0.006
262.56	-0.006
262.77	-0.006
262.98	-0.006
263.19	-0.006
263.41	-0.006
263.62	-0.006
263.83	-0.007
264.04	-0.007
264.26	-0.007
264.47	-0.006
264.68	-0.006
264.89	-0.006
265.11	-0.007
265.32	-0.006
265.53	-0.006
265.74	-0.006
265.96	-0.006
266.17	-0.006
266.38	-0.006
266.59	-0.006
266.81	-0.006
267.02	-0.006
267.23	-0.007
267.44	-0.007
267.65	-0.007
267.87	-0.008
268.08	-0.008
268.29	-0.008
268.50	-0.008
268.72	-0.008
268.93	-0.008
269.14	-0.008
269.35	-0.009
269.57	-0.008
269.78	-0.008
269.99	-0.008
270.20	-0.008
270.41	-0.008
270.63	-0.008
270.84	-0.009
271.05	-0.009
271.26	-0.009
271.48	-0.010
271.69	-0.010
271.90	-0.010
272.11	-0.010
272.32	-0.011
272.54	-0.011
272.75	-0.011
272.96	-0.011
273.17	-0.010
273.39	-0.011
273.60	-0.011
273.81	-0.011
274.02	-0.011
274.23	-0.011
274.45	-0.011
274.66	-0.011
274.87	-0.011
275.08	-0.011
275.29	-0.011
275.51	-0.011
275.72	-0.011
275.93	-0.011
276.14	-0.011
276.35	-0.011
276.57	-0.011
276.78	-0.011
276.99	-0.011
277.20	-0.011
277.41	-0.011
277.63	-0.011
277.84	-0.011
278.05	-0.011
278.26	-0.011
278.47	-0.011
278.69	-0.011
278.90	-0.011
279.11	-0.011
279.32	-0.010
279.53	-0.010
279.74	-0.010
279.96	-0.010
280.17	-0.010
280.38	-0.009
280.59	-0.009
280.80	-0.009
281.02	-0.009
281.23	-0.009
281.44	-0.009
281.65	-0.009
281.86	-0.009
282.07	-0.008
282.29	-0.008
282.50	-0.008
282.71	-0.008
282.92	-0.008
283.13	-0.008
283.35	-0.008
283.56	-0.008
283.77	-0.008
283.98	-0.008
284.19	-0.007
284.40	-0.007
284.62	-0.007
284.83	-0.007
285.04	-0.007
285.25	-0.006
285.46	-0.006
285.67	-0.006
285.88	-0.005
286.10	-0.005
286.31	-0.005
286.52	-0.004
286.73	-0.004
286.94	-0.003
287.15	-0.003
287.37	-0.002
287.58	-0.002
287.79	-0.002
288.00	-0.001
288.21	-0.001
288.42	-0.001
288.63	-0.000
288.85	-0.000
289.06	0.000
289.27	0.000
289.48	0.000
289.69	0.001
289.90	0.001
290.11	0.002
290.33	0.002
290.54	0.003
290.75	0.003
290.96	0.003
291.17	0.003
291.38	0.003
291.59	0.004
291.81	0.004
292.02	0.004
292.23	0.004
292.44	0.004
292.65	0.005
292.86	0.005
293.07	0.005
293.28	0.005
293.50	0.005
293.71	0.006
293.92	0.006
294.13	0.006
294.34	0.006
294.55	0.006
294.76	0.006
294.97	0.006
295.19	0.006
295.40	0.006
295.61	0.006
295.82	0.006
296.03	0.006
296.24	0.006
296.45	0.006
296.66	0.006
296.87	0.006
297.09	0.006
297.30	0.006
297.51	0.006
297.72	0.006
297.93	0.007
298.14	0.007
298.35	0.007
298.56	0.007
298.77	0.007
298.99	0.007
299.20	0.007
299.41	0.007
299.62	0.007
299.83	0.007
300.04	0.007
300.25	0.007
300.46	0.007
300.67	0.007
300.88	0.007
301.10	0.007
301.31	0.007
301.52	0.007
301.73	0.007
301.94	0.007
302.15	0.007
302.36	0.007
302.57	0.007
302.78	0.007
302.99	0.007
303.20	0.007
303.41	0.007
303.63	0.007
303.84	0.008
304.05	0.007
304.26	0.007
304.47	0.008
304.68	0.008
304.89	0.008
305.10	0.008
305.31	0.008
305.52	0.008
305.73	0.008
305.94	0.008
306.15	0.008
306.37	0.008
306.58	0.008
306.79	0.008
307.00	0.008
307.21	0.008
307.42	0.008
307.63	0.008
307.84	0.008
308.05	0.008
308.26	0.008
308.47	0.008
308.68	0.008
308.89	0.008
309.10	0.008
309.31	0.008
309.52	0.008
309.73	0.008
309.95	0.008
310.16	0.008
310.37	0.008
310.58	0.008
310.79	0.008
311.00	0.008
311.21	0.008
311.42	0.008
311.63	0.008
311.84	0.008
312.05	0.008
312.26	0.008
312.47	0.008
312.68	0.009
312.89	0.009
313.10	0.009
313.31	0.009
313.52	0.009
313.73	0.009
313.94	0.009
314.15	0.009
314.36	0.009
314.57	0.009
314.78	0.009
314.99	0.009
315.21	0.009
315.42	0.009
315.63	0.009
315.84	0.009
316.05	0.009
316.26	0.009
316.47	0.009
316.68	0.009
316.89	0.009
317.10	0.009
317.31	0.009
317.52	0.009
317.73	0.009
317.94	0.009
318.15	0.009
318.36	0.009
318.57	0.009
318.78	0.009
318.99	0.009
319.20	0.009
319.41	0.009
319.62	0.009
319.83	0.009
320.04	0.009
320.25	0.009
320.46	0.009
320.67	0.009
320.88	0.009
321.09	0.009
321.30	0.009
321.51	0.009
321.72	0.009
321.93	0.009
322.14	0.010
322.35	0.010
322.56	0.009
322.77	0.010
322.98	0.010
323.19	0.010
323.40	0.010
323.61	0.010
323.82	0.010
324.03	0.010
324.24	0.010
324.45	0.010
324.66	0.010
324.87	0.010
325.08	0.010
325.29	0.010
325.50	0.010
325.71	0.010
325.92	0.010
326.13	0.010
326.34	0.010
326.55	0.009
326.76	0.009
326.97	0.009
327.18	0.009
327.39	0.009
327.60	0.009
327.80	0.010
328.01	0.009
328.22	0.009
328.43	0.009
328.64	0.009
328.85	0.009
329.06	0.009
329.27	0.009
329.48	0.009
329.69	0.009
329.90	0.009
330.11	0.009
330.32	0.009
330.53	0.009
330.74	0.009
330.95	0.009
331.16	0.009
331.37	0.009
331.58	0.009
331.79	0.009
332.00	0.009
332.21	0.009
332.42	0.009
332.63	0.009
332.83	0.009
333.04	0.009
333.25	0.009
333.46	0.009
333.67	0.009
333.88	0.009
334.09	0.009
334.30	0.009
334.51	0.009
334.72	0.009
334.93	0.009
335.14	0.009
335.35	0.009
335.56	0.009
335.77	0.009
335.98	0.009
336.18	0.008
336.39	0.008
336.60	0.008
336.81	0.008
337.02	0.008
337.23	0.008
337.44	0.008
337.65	0.008
337.86	0.008
338.07	0.008
338.28	0.008
338.49	0.008
338.70	0.008
338.91	0.008
339.11	0.008
339.32	0.008
339.53	0.008
339.74	0.008
339.95	0.008
340.16	0.008
340.37	0.007
340.58	0.007
340.79	0.007
341.00	0.007
341.21	0.007
341.41	0.007
341.62	0.007
341.83	0.007
342.04	0.007
342.25	0.007
342.46	0.007
342.67	0.006
342.88	0.007
343.09	0.007
343.30	0.007
343.50	0.007
343.71	0.007
343.92	0.007
344.13	0.007
344.34	0.007
344.55	0.007
344.76	0.006
344.97	0.006
345.18	0.006
345.38	0.006
345.59	0.006
345.80	0.006
346.01	0.006
346.22	0.006
346.43	0.006
346.64	0.006
346.85	0.006
347.06	0.006
347.26	0.006
347.47	0.006
347.68	0.006
347.89	0.006
348.10	0.005
348.31	0.005
348.52	0.005
348.73	0.005
348.93	0.005
349.14	0.005
349.35	0.005
349.56	0.005
349.77	0.005
349.98	0.005
350.19	0.005
350.39	0.005
350.60	0.005
350.81	0.005
351.02	0.005
351.23	0.004
351.44	0.004
351.65	0.005
351.86	0.005
352.06	0.005
352.27	0.005
352.48	0.005
352.69	0.005
352.90	0.005
353.11	0.005
353.31	0.005
353.52	0.005
353.73	0.005
353.94	0.005
354.15	0.005
354.36	0.004
354.57	0.004
354.77	0.004
354.98	0.004
355.19	0.004
355.40	0.004
355.61	0.004
355.82	0.004
356.02	0.004
356.23	0.004
356.44	0.004
356.65	0.004
356.86	0.004
357.07	0.004
357.27	0.004
357.48	0.004
357.69	0.004
357.90	0.004
358.11	0.004
358.32	0.004
358.52	0.004
358.73	0.004
358.94	0.004
359.15	0.004
359.36	0.004
359.56	0.004
359.77	0.004
359.98	0.004
360.19	0.003
360.40	0.003
360.61	0.003
360.81	0.004
361.02	0.004
361.23	0.004
361.44	0.003
361.65	0.003
361.85	0.003
362.06	0.003
362.27	0.003
362.48	0.003
362.69	0.003
362.89	0.003
363.10	0.003
363.31	0.003
363.52	0.003
363.73	0.003
363.93	0.003
364.14	0.003
364.35	0.003
364.56	0.003
364.77	0.003
364.97	0.003
365.18	0.003
365.39	0.003
365.60	0.003
365.81	0.003
366.01	0.003
366.22	0.003
366.43	0.003
366.64	0.003
366.84	0.003
367.05	0.003
367.26	0.003
367.47	0.003
367.68	0.003
367.88	0.003
368.09	0.003
368.30	0.003
368.51	0.003
368.71	0.003
368.92	0.003
369.13	0.003
369.34	0.003
369.55	0.003
369.75	0.003
369.96	0.003
370.17	0.003
370.38	0.003
370.58	0.003
370.79	0.003
371.00	0.003
371.21	0.003
371.41	0.003
371.62	0.003
371.83	0.003
372.04	0.003
372.24	0.003
372.45	0.003
372.66	0.003
372.87	0.003
373.07	0.003
373.28	0.003
373.49	0.003
373.70	0.003
373.90	0.003
374.11	0.003
374.32	0.002
374.53	0.002
374.73	0.002
374.94	0.003
375.15	0.003
375.36	0.003
375.56	0.003
375.77	0.003
375.98	0.003
376.19	0.003
376.39	0.003
376.60	0.003
376.81	0.003
377.02	0.003
377.22	0.003
377.43	0.002
377.64	0.002
377.84	0.002
378.05	0.002
378.26	0.002
378.47	0.002
378.67	0.002
378.88	0.002
379.09	0.002
379.30	0.002
379.50	0.002
379.71	0.002
379.92	0.002
380.12	0.002
380.33	0.002
380.54	0.002
380.75	0.002
380.95	0.002
381.16	0.002
381.37	0.002
381.57	0.002
381.78	0.002
381.99	0.002
382.20	0.002
382.40	0.002
382.61	0.002
382.82	0.002
383.02	0.002
383.23	0.002
383.44	0.002
383.64	0.002
383.85	0.002
384.06	0.002
384.27	0.002
384.47	0.002
384.68	0.002
384.89	0.002
385.09	0.002
385.30	0.002
385.51	0.002
385.71	0.002
385.92	0.002
386.13	0.002
386.33	0.002
386.54	0.002
386.75	0.002
386.95	0.002
387.16	0.002
387.37	0.002
387.58	0.002
387.78	0.002
387.99	0.002
388.20	0.002
388.40	0.002
388.61	0.002
388.82	0.002
389.02	0.002
389.23	0.002
389.44	0.002
389.64	0.002
389.85	0.002
390.06	0.002
390.26	0.002
390.47	0.002
390.68	0.001
390.88	0.001
391.09	0.002
391.30	0.001
391.50	0.002
391.71	0.001
391.92	0.001
392.12	0.001
392.33	0.002
392.53	0.002
392.74	0.002
392.95	0.002
393.15	0.002
393.36	0.002
393.57	0.002
393.77	0.002
393.98	0.002
394.19	0.002
394.39	0.002
394.60	0.002
394.81	0.002
395.01	0.002
395.22	0.002
395.43	0.002
395.63	0.002
395.84	0.001
396.04	0.002
396.25	0.001
396.46	0.001
396.66	0.001
396.87	0.001
397.08	0.001
397.28	0.001
397.49	0.002
397.69	0.002
397.90	0.001
398.11	0.002
398.31	0.001
398.52	0.002
398.73	0.002
398.93	0.001
399.14	0.001
399.34	0.001
399.55	0.001
399.76	0.001
399.96	0.001
400.17	0.001
400.37	0.001
400.58	0.001
400.79	0.001
400.99	0.001
401.20	0.001
401.41	0.001
401.61	0.001
401.82	0.001
402.02	0.001
402.23	0.001
402.44	0.001
402.64	0.001
402.85	0.001
403.05	0.001
403.26	0.001
403.47	0.001
403.67	0.001
403.88	0.001
404.08	0.001
404.29	0.001
404.50	0.001
404.70	0.001
404.91	0.001
405.11	0.001
405.32	0.001
405.52	0.001
405.73	0.001
405.94	0.001
406.14	0.001
406.35	0.001
406.55	0.001
406.76	0.001
406.97	0.001
407.17	0.001
407.38	0.001
407.58	0.001
407.79	0.001
407.99	0.001
408.20	0.001
408.41	0.001
408.61	0.001
408.82	0.001
409.02	0.001
409.23	0.001
409.43	0.001
409.64	0.001
409.84	0.001
410.05	0.001
410.26	0.001
410.46	0.001
410.67	0.001
410.87	0.001
411.08	0.001
411.28	0.001
411.49	0.001
411.69	0.001
411.90	0.001
412.11	0.001
412.31	0.001
412.52	0.001
412.72	0.001
412.93	0.001
413.13	0.001
413.34	0.001
413.54	0.001
413.75	0.001
413.95	0.001
414.16	0.001
414.37	0.001
414.57	0.001
414.78	0.001
414.98	0.001
415.19	0.001
415.39	0.001
415.60	0.001
415.80	0.001
416.01	0.001
416.21	0.001
416.42	0.001
416.62	0.001
416.83	0.000
417.03	0.000
417.24	0.000
417.44	0.000
417.65	0.000
417.86	0.000
418.06	-0.000
418.27	-0.000
418.47	-0.000
418.68	0.000
418.88	-0.000
419.09	-0.000
419.29	-0.000
419.50	-0.000
419.70	-0.000
419.91	0.000
420.11	0.000
420.32	0.000
420.52	0.000
420.73	0.000
420.93	0.000
421.14	0.000
421.34	0.000
421.55	0.000
421.75	0.000
421.96	0.000
422.16	0.000
422.37	0.000
422.57	0.000
422.78	0.000
422.98	0.000
423.19	0.000
423.39	0.000
423.60	0.000
423.80	0.000
424.01	0.000
424.21	0.000
424.42	0.001
424.62	0.001
424.83	0.001
425.03	0.001
425.23	0.001
425.44	0.001
425.64	0.001
425.85	0.001
426.05	0.001
426.26	0.001
426.46	0.000
426.67	0.000
426.87	0.000
427.08	0.000
427.28	0.000
427.49	0.000
427.69	0.000
427.90	0.000
428.10	0.000
428.31	-0.000
428.51	-0.000
428.71	-0.000
428.92	-0.000
429.12	-0.000
429.33	-0.000
429.53	-0.000
429.74	0.000
429.94	-0.000
430.15	0.000
430.35	0.000
430.56	0.000
430.76	0.000
430.96	0.000
431.17	0.001
431.37	0.000
431.58	0.001
431.78	0.001
431.99	0.001
432.19	0.001
432.40	0.001
432.60	0.001
432.80	0.000
433.01	0.000
433.21	0.000
433.42	0.000
433.62	0.000
433.83	0.000
434.03	0.000
434.23	0.000
434.44	0.000
434.64	0.000
434.85	0.000
435.05	0.000
435.26	0.000
435.46	0.000
435.66	0.000
435.87	0.000
436.07	-0.000
436.28	-0.000
436.48	-0.000
436.69	-0.000
436.89	-0.000
437.09	-0.000
437.30	-0.000
437.50	-0.000
437.71	-0.000
437.91	-0.000
438.11	-0.000
438.32	-0.000
438.52	-0.000
438.73	-0.000
438.93	-0.000
439.13	0.000
439.34	0.000
439.54	-0.000
439.75	-0.000
439.95	-0.000
440.15	-0.000
440.36	0.000
440.56	0.000
440.77	-0.000
440.97	-0.000
441.17	-0.000
441.38	-0.000
441.58	-0.000
441.79	-0.000
441.99	-0.000
442.19	-0.000
442.40	-0.000
442.60	-0.000
442.81	-0.000
443.01	-0.000
443.21	-0.000
443.42	-0.000
443.62	-0.000
443.82	-0.000
444.03	-0.000
444.23	-0.000
444.44	0.000
444.64	0.000
444.84	0.000
445.05	0.000
445.25	0.000
445.45	0.000
445.66	-0.000
445.86	-0.000
446.06	0.000
446.27	0.000
446.47	0.000
446.68	0.000
446.88	0.000
447.08	0.000
447.29	0.000
447.49	-0.000
447.69	0.000
447.90	0.000
448.10	0.000
448.30	0.000
448.51	-0.000
448.71	-0.000
448.91	-0.000
449.12	-0.000
449.32	-0.000
449.52	-0.000
449.73	0.000
449.93	-0.000
450.14	-0.000
450.34	-0.000
450.54	-0.000
450.75	-0.000
450.95	-0.000
451.15	-0.000
451.36	-0.000
451.56	-0.000
451.76	-0.000
451.97	-0.001
452.17	-0.001
452.37	-0.000
452.58	-0.000
452.78	-0.000
452.98	-0.000
453.19	-0.000
453.39	-0.000
453.59	-0.000
453.79	-0.000
454.00	-0.000
454.20	-0.000
454.40	-0.000
454.61	-0.000
454.81	-0.000
455.01	-0.000
455.22	-0.000
455.42	-0.000
455.62	-0.000
455.83	-0.000
456.03	-0.000
456.23	0.000
456.44	0.000
456.64	0.000
456.84	0.000
457.04	0.000
457.25	0.000
457.45	0.000
457.65	0.000
457.86	0.000
458.06	0.000
458.26	0.000
458.47	0.000
458.67	-0.000
458.87	-0.000
459.07	-0.000
459.28	-0.000
459.48	-0.000
459.68	-0.000
459.89	-0.000
460.09	-0.000
460.29	-0.000
460.49	-0.000
460.70	-0.000
460.90	-0.000
461.10	-0.000
461.31	-0.000
461.51	0.000
461.71	0.000
461.91	0.000
462.12	0.000
462.32	0.000
462.52	0.000
462.72	0.000
462.93	0.000
463.13	0.000
463.33	0.000
463.53	0.000
463.74	-0.000
463.94	-0.000
464.14	-0.000
464.35	-0.000
464.55	-0.000
464.75	-0.000
464.95	-0.000
465.16	-0.000
465.36	-0.000
465.56	-0.000
465.76	-0.000
465.97	-0.000
466.17	-0.000
466.37	-0.000
466.57	-0.000
466.78	-0.000
466.98	-0.000
467.18	0.000
467.38	0.000
467.59	0.000
467.79	-0.000
467.99	-0.000
468.19	-0.000
468.39	-0.000
468.60	-0.000
468.80	-0.000
469.00	-0.000
469.20	-0.000
469.41	-0.000
469.61	-0.000
469.81	-0.000
470.01	-0.000
470.22	-0.000
470.42	-0.000
470.62	-0.000
470.82	-0.000
471.02	-0.000
471.23	-0.000
471.43	-0.000
471.63	-0.000
471.83	-0.000
472.04	-0.000
472.24	-0.000
472.44	-0.000
472.64	-0.000
472.84	-0.000
473.05	-0.000
473.25	-0.000
473.45	-0.000
473.65	-0.000
473.85	-0.000
474.06	-0.000
474.26	-0.001
474.46	-0.000
474.66	-0.000
474.86	-0.000
475.07	-0.000
475.27	-0.000
475.47	0.000
475.67	0.000
475.87	0.000
476.08	0.000
476.28	0.000
476.48	0.000
476.68	0.000
476.88	0.000
477.09	0.000
477.29	0.000
477.49	0.000
477.69	-0.000
477.89	-0.000
478.09	-0.000
478.30	-0.001
478.50	-0.001
478.70	-0.001
478.90	-0.001
479.10	-0.001
479.31	-0.001
479.51	-0.001
479.71	-0.001
479.91	-0.001
480.11	-0.001
480.31	-0.000
480.52	-0.000
480.72	-0.000
480.92	-0.000
481.12	-0.000
481.32	-0.000
481.52	-0.000
481.72	-0.000
481.93	-0.000
482.13	-0.000
482.33	-0.001
482.53	-0.001
482.73	-0.001
482.93	-0.001
483.14	-0.001
483.34	-0.001
483.54	-0.001
483.74	-0.001
483.94	-0.000
484.14	-0.000
484.34	-0.000
484.55	-0.000
484.75	-0.000
484.95	-0.000
485.15	-0.001
485.35	-0.000
485.55	-0.001
485.75	-0.001
485.96	-0.001
486.16	-0.001
486.36	-0.001
486.56	-0.001
486.76	-0.001
486.96	-0.001
487.16	-0.001
487.36	-0.000
487.57	-0.001
487.77	-0.001
487.97	-0.000
488.17	-0.001
488.37	-0.000
488.57	-0.000
488.77	-0.000
488.97	-0.000
489.18	-0.000
489.38	-0.000
489.58	-0.000
489.78	-0.000
489.98	-0.000
490.18	-0.000
490.38	-0.000
490.58	-0.000
490.78	-0.000
490.98	-0.000
491.19	-0.000
491.39	-0.000
491.59	-0.000
491.79	-0.000
491.99	-0.000
492.19	-0.000
492.39	-0.000
492.59	-0.000
492.79	-0.000
492.99	-0.000
493.20	-0.000
493.40	-0.000
493.60	-0.000
493.80	-0.000
494.00	-0.000
494.20	-0.000
494.40	-0.000
494.60	-0.000
494.80	-0.000
495.00	-0.000
495.20	-0.000
495.40	-0.000
495.61	-0.000
495.81	-0.000
496.01	-0.000
496.21	-0.000
496.41	0.000
496.61	0.000
496.81	0.000
497.01	0.000
497.21	0.000
497.41	0.000
497.61	0.000
497.81	0.000
498.01	0.000
498.21	0.000
498.41	0.000
498.61	0.000
498.82	0.000
499.02	-0.000
499.22	0.000
499.42	-0.000
499.62	-0.000
499.82	-0.000
500.02	-0.000
500.22	-0.000
500.42	-0.001
500.62	-0.001
500.82	-0.001
501.02	-0.000
501.22	-0.001
501.42	-0.001
501.62	-0.001
501.82	-0.001
502.02	-0.001
502.22	-0.001
502.42	-0.001
502.62	-0.001
502.82	-0.000
503.02	-0.000
503.22	-0.000
503.42	-0.000
503.63	-0.000
503.83	-0.000
504.03	-0.000
504.23	0.000
504.43	0.000
504.63	-0.000
504.83	0.000
505.03	-0.000
505.23	0.000
505.43	0.000
505.63	-0.000
505.83	-0.000
506.03	-0.000
506.23	-0.000
506.43	-0.000
506.63	0.000
506.83	0.000
507.03	0.000
507.23	0.000
507.43	-0.000
507.63	-0.000
507.83	-0.000
508.03	-0.000
508.23	-0.000
508.43	-0.000
508.63	-0.000
508.83	-0.000
509.03	-0.000
509.23	-0.000
509.43	-0.000
509.63	-0.000
509.83	-0.000
510.03	-0.000
510.23	-0.000
510.43	-0.000
510.63	0.000
510.83	0.000
511.03	-0.000
511.23	-0.000
511.43	-0.000
511.63	-0.000
511.83	-0.000
512.03	-0.000
512.22	-0.000
512.42	-0.000
512.62	-0.000
512.82	-0.000
513.02	-0.000
513.22	-0.000
513.42	-0.000
513.62	-0.000
513.82	0.000
514.02	-0.000
514.22	-0.000
514.42	-0.000
514.62	-0.000
514.82	-0.000
515.02	-0.000
515.22	-0.000
515.42	-0.000
515.62	-0.000
515.82	-0.000
516.02	-0.000
516.22	-0.000
516.42	-0.000
516.62	-0.000
516.82	-0.000
517.01	0.000
517.21	0.000
517.41	0.000
517.61	0.000
517.81	0.000
518.01	0.000
518.21	0.000
518.41	0.000
518.61	0.000
518.81	0.000
519.01	0.000
519.21	0.000
519.41	0.000
519.61	0.000
519.81	0.000
520.00	0.000
520.20	0.000
520.40	0.000
520.60	0.000
520.80	0.000
521.00	0.000
521.20	0.000
521.40	0.000
521.60	0.000
521.80	-0.000
522.00	0.000
522.20	0.000
522.39	-0.000
522.59	-0.000
522.79	-0.000
522.99	-0.000
523.19	-0.000
523.39	-0.000
523.59	-0.000
523.79	-0.000
523.99	-0.000
524.19	-0.000
524.38	-0.000
524.58	-0.000
524.78	-0.000
524.98	-0.000
525.18	-0.000
525.38	-0.000
525.58	-0.000
525.78	-0.000
525.98	-0.000
526.18	-0.000
526.37	-0.000
526.57	-0.000
526.77	-0.000
526.97	-0.000
527.17	-0.000
527.37	-0.000
527.57	-0.000
527.77	-0.000
527.96	-0.000
528.16	-0.000
528.36	-0.000
528.56	-0.000
528.76	-0.000
528.96	-0.000
529.16	-0.000
529.36	-0.000
529.55	-0.000
529.75	-0.000
529.95	-0.000
530.15	0.000
530.35	0.000
530.55	0.000
530.75	0.000
530.94	0.000
531.14	0.001
531.34	0.000
531.54	0.000
531.74	0.000
531.94	0.000
532.13	0.000
532.33	0.000
532.53	0.000
532.73	0.000
532.93	0.000
533.13	0.000
533.33	0.000
533.52	0.000
533.72	0.000
533.92	0.000
534.12	0.000
534.32	0.000
534.52	0.000
534.71	0.000
534.91	0.000
535.11	0.000
535.31	0.000
535.51	-0.000
535.71	0.000
535.90	0.000
536.10	0.000
536.30	0.000
536.50	0.000
536.70	0.000
536.89	0.000
537.09	0.000
537.29	0.000
537.49	0.000
537.69	0.000
537.89	0.000
538.08	0.000
538.28	0.000
538.48	0.000
538.68	0.000
538.88	0.000
539.07	-0.000
539.27	-0.000
539.47	0.000
539.67	0.000
539.87	0.000
540.06	-0.000
540.26	-0.000
540.46	0.000
540.66	0.000
540.86	0.000
541.05	0.000
541.25	0.001
541.45	0.001
541.65	0.001
541.84	0.001
542.04	0.000
542.24	0.001
542.44	0.000
542.64	0.000
542.83	0.000
543.03	-0.000
543.23	-0.000
543.43	-0.000
543.62	-0.000
543.82	-0.000
544.02	-0.000
544.22	0.000
544.42	0.000
544.61	0.000
544.81	0.000
545.01	0.000
545.21	0.000
545.40	0.000
545.60	0.000
545.80	0.000
546.00	0.000
546.19	0.000
546.39	0.000
546.59	0.001
546.79	0.001
546.98	0.001
547.18	0.001
547.38	0.001
547.58	0.001
547.77	0.001
547.97	0.001
548.17	0.001
548.37	0.001
548.56	0.001
548.76	0.000
548.96	0.001
549.16	0.001
549.35	0.001
549.55	0.001
549.75	0.000
549.95	0.000
550.14	0.000
550.34	0.000
550.54	0.000
550.73	0.000
550.93	0.000
551.13	0.000
551.33	-0.000
551.52	-0.000
551.72	-0.000
551.92	-0.000
552.12	-0.000
552.31	-0.000
552.51	0.000
552.71	0.000
552.90	0.000
553.10	-0.000
553.30	0.000
553.50	0.000
553.69	0.000
553.89	0.000
554.09	0.000
554.28	0.000
554.48	0.000
554.68	0.000
554.87	0.000
555.07	0.000
555.27	0.000
555.47	0.000
555.66	0.000
555.86	0.000
556.06	0.001
556.25	0.001
556.45	0.000
556.65	0.000
556.84	0.000
557.04	0.000
557.24	0.000
557.43	0.001
557.63	0.000
557.83	0.000
558.02	0.000
558.22	0.000
558.42	0.000
558.61	0.000
558.81	0.000
559.01	0.000
559.21	0.000
559.40	0.000
559.60	0.000
559.80	0.000
559.99	0.000
560.19	0.000
560.39	0.000
560.58	0.000
560.78	0.000
560.97	0.000
561.17	0.000
561.37	0.000
561.56	0.000
561.76	0.000
561.96	0.000
562.15	0.000
562.35	0.000
562.55	0.000
562.74	0.000
562.94	0.000
563.14	0.000
563.33	0.000
563.53	0.000
563.73	0.000
563.92	0.000
564.12	0.000
564.31	-0.000
564.51	-0.000
564.71	0.000
564.90	0.000
565.10	0.000
565.30	0.000
565.49	0.000
565.69	0.000
565.89	0.000
566.08	0.000
566.28	0.000
566.47	0.000
566.67	0.000
566.87	0.000
567.06	0.000
567.26	0.000
567.46	-0.000
567.65	-0.000
567.85	-0.000
568.04	-0.000
568.24	-0.000
568.44	-0.000
568.63	-0.000
568.83	-0.000
569.02	-0.000
569.22	-0.000
569.42	-0.000
569.61	-0.000
569.81	-0.000
570.00	-0.000
570.20	-0.000
570.40	-0.000
570.59	-0.000
570.79	-0.000
570.98	-0.000
571.18	-0.000
571.38	-0.000
571.57	-0.000
571.77	-0.000
571.96	-0.000
572.16	-0.000
572.35	-0.000
572.55	-0.000
572.75	-0.000
572.94	-0.000
573.14	-0.000
573.33	-0.000
573.53	-0.000
573.73	-0.000
573.92	0.000
574.12	0.000
574.31	0.000
574.51	0.000
574.70	-0.000
574.90	-0.000
575.09	-0.000
575.29	-0.000
575.49	-0.000
575.68	-0.000
575.88	-0.000
576.07	-0.000
576.27	-0.000
576.46	-0.000
576.66	-0.000
576.86	-0.000
577.05	-0.000
577.25	-0.000
577.44	-0.000
577.64	-0.000
577.83	-0.000
578.03	-0.000
578.22	-0.000
578.42	-0.000
578.61	-0.000
578.81	-0.000
579.00	-0.000
579.20	-0.000
579.40	-0.000
579.59	-0.000
579.79	-0.000
579.98	-0.000
580.18	-0.000
580.37	-0.000
580.57	-0.000
580.76	-0.000
580.96	-0.000
581.15	-0.000
581.35	-0.000
581.54	-0.000
581.74	-0.000
581.93	-0.000
582.13	-0.000
582.32	-0.000
582.52	-0.000
582.71	-0.000
582.91	-0.000
583.10	-0.000
583.30	-0.000
583.49	-0.000
583.69	-0.000
583.88	-0.000
584.08	-0.000
584.27	-0.000
584.47	-0.000
584.66	-0.000
584.86	-0.000
585.05	-0.000
585.25	-0.000
585.44	-0.000
585.64	-0.000
585.83	-0.000
586.03	-0.000
586.22	-0.000
586.42	0.000
586.61	0.000
586.81	0.000
587.00	0.000
587.20	0.000
587.39	0.000
587.59	0.000
587.78	0.000
587.98	0.000
588.17	0.000
588.37	0.001
588.56	0.001
588.76	0.001
588.95	0.001
589.15	0.001
589.34	0.000
589.54	0.000
589.73	0.000
589.92	0.000
590.12	0.000
590.31	0.000
590.51	0.000
590.70	0.000
590.90	-0.000
591.09	0.000
591.29	-0.000
591.48	-0.000
591.68	-0.000
591.87	-0.000
592.06	-0.000
592.26	-0.000
592.45	-0.000
592.65	-0.000
592.84	-0.000
593.04	-0.000
593.23	0.000
593.43	0.000
593.62	0.000
593.81	0.000
594.01	0.001
594.20	0.001
594.40	0.001
594.59	0.001
594.79	0.001
594.98	0.001
595.17	0.001
595.37	0.001
595.56	0.001
595.76	0.001
595.95	0.000
596.14	0.000
596.34	0.000
596.53	0.000
596.73	0.000
596.92	-0.000
597.12	-0.000
597.31	-0.000
597.50	-0.000
597.70	-0.000
597.89	-0.000
598.09	-0.000
598.28	-0.001
598.47	-0.001
598.67	-0.001
598.86	-0.000
599.06	-0.000
599.25	-0.000
599.44	-0.000
599.64	-0.000
599.83	-0.000
600.03	0.000
600.22	0.000
600.41	0.000
600.61	0.001
600.80	0.001
601.00	0.001
601.19	0.001
601.38	0.001
601.58	0.001
601.77	0.001
601.96	0.001
602.16	0.001
602.35	0.001
602.55	0.000
602.74	0.000
602.93	0.000
603.13	0.000
603.32	0.000
603.51	0.000
603.71	0.000
603.90	0.000
604.09	-0.000
604.29	-0.000
604.48	-0.000
604.68	-0.000
604.87	-0.000
605.06	-0.000
605.26	-0.000
605.45	-0.000
605.64	-0.000
605.84	-0.000
606.03	-0.000
606.22	0.000
606.42	0.000
606.61	0.000
606.80	0.000
607.00	0.000
607.19	0.000
607.38	0.000
607.58	0.000
607.77	0.000
607.96	0.001
608.16	0.001
608.35	0.001
608.54	0.001
608.74	0.001
608.93	0.001
609.12	0.001
609.32	0.001
609.51	0.001
609.70	0.001
609.90	0.001
610.09	0.001
610.28	0.001
610.48	0.001
610.67	0.001
610.86	0.001
611.06	0.001
611.25	0.001
611.44	0.001
611.64	0.001
611.83	0.001
612.02	0.001
612.21	0.001
612.41	0.000
612.60	0.001
612.79	0.001
612.99	0.001
613.18	0.001
613.37	0.000
613.57	0.000
613.76	0.000
613.95	0.000
614.14	0.000
614.34	0.000
614.53	0.000
614.72	0.000
614.92	0.000
615.11	0.000
615.30	0.000
615.49	0.001
615.69	0.001
615.88	0.001
616.07	0.001
616.26	0.001
616.46	0.001
616.65	0.001
616.84	0.001
617.04	0.001
617.23	0.001
617.42	0.001
617.61	0.001
617.81	0.001
618.00	0.001
618.19	0.001
618.38	0.001
618.58	0.001
618.77	0.001
618.96	0.001
619.15	0.001
619.35	0.001
619.54	0.001
619.73	0.001
619.92	0.001
620.12	0.001
620.31	0.001
620.50	0.001
620.69	0.001
620.89	0.001
621.08	0.001
621.27	0.001
621.46	0.001
621.66	0.001
621.85	0.001
622.04	0.001
622.23	0.001
622.43	0.001
622.62	0.001
622.81	0.001
623.00	0.001
623.19	0.001
623.39	0.001
623.58	0.001
623.77	0.001
623.96	0.001
624.16	0.001
624.35	0.001
624.54	0.001
624.73	0.001
624.92	0.001
625.12	0.001
625.31	0.001
625.50	0.001
625.69	0.001
625.88	0.001
626.08	0.001
626.27	0.001
626.46	0.001
626.65	0.001
626.84	0.001
627.04	0.001
627.23	0.001
627.42	0.001
627.61	0.001
627.80	0.001
628.00	0.001
628.19	0.001
628.38	0.001
628.57	0.001
628.76	0.001
628.96	0.001
629.15	0.001
629.34	0.001
629.53	0.001
629.72	0.001
629.91	0.001
630.11	0.001
630.30	0.002
630.49	0.002
630.68	0.002
630.87	0.002
631.06	0.002
631.26	0.002
631.45	0.002
631.64	0.002
631.83	0.002
632.02	0.002
632.21	0.002
632.41	0.002
632.60	0.002
632.79	0.002
632.98	0.002
633.17	0.002
633.36	0.002
633.55	0.002
633.75	0.002
633.94	0.002
634.13	0.002
634.32	0.002
634.51	0.002
634.70	0.002
634.89	0.002
635.09	0.002
635.28	0.002
635.47	0.002
635.66	0.002
635.85	0.002
636.04	0.002
636.23	0.002
636.43	0.002
636.62	0.002
636.81	0.002
637.00	0.002
637.19	0.002
637.38	0.002
637.57	0.001
637.76	0.001
637.95	0.001
638.15	0.002
638.34	0.002
638.53	0.002
638.72	0.002
638.91	0.002
639.10	0.002
639.29	0.002
639.48	0.002
639.67	0.002
639.87	0.002
640.06	0.002
640.25	0.002
640.44	0.002
640.63	0.002
640.82	0.002
641.01	0.002
641.20	0.002
641.39	0.002
641.58	0.002
641.78	0.002
641.97	0.002
642.16	0.002
642.35	0.002
642.54	0.002
642.73	0.002
642.92	0.002
643.11	0.002
643.30	0.002
643.49	0.002
643.68	0.002
643.87	0.002
644.06	0.002
644.25	0.002
644.45	0.002
644.64	0.002
644.83	0.002
645.02	0.002
645.21	0.001
645.40	0.002
645.59	0.002
645.78	0.002
645.97	0.002
646.16	0.002
646.35	0.001
646.54	0.001
646.73	0.002
646.92	0.002
647.11	0.002
647.30	0.002
647.49	0.001
647.68	0.001
647.88	0.001
648.07	0.001
648.26	0.001
648.45	0.001
648.64	0.001
648.83	0.001
649.02	0.001
649.21	0.001
649.40	0.001
649.59	0.001
649.78	0.001
649.97	0.002
650.16	0.002
650.35	0.002
650.54	0.002
650.73	0.002
650.92	0.002
651.11	0.002
651.30	0.002
651.49	0.002
651.68	0.002
651.87	0.002
652.06	0.002
652.25	0.002
652.44	0.002
652.63	0.001
652.82	0.001
653.01	0.001
653.20	0.000
653.39	0.000
653.58	0.000
653.77	0.000
653.96	-0.000
654.15	-0.000
654.34	-0.000
654.53	-0.000
654.72	0.000
654.91	0.000
655.10	0.000
655.29	0.000
655.48	0.001
655.67	0.001
655.86	0.001
656.05	0.001
656.24	0.001
656.43	0.001
656.62	0.001
656.81	0.001
657.00	0.001
657.19	0.001
657.38	0.002
657.57	0.002
657.76	0.002
657.95	0.002
658.14	0.002
658.33	0.002
658.51	0.002
658.70	0.003
658.89	0.003
659.08	0.003
659.27	0.002
659.46	0.002
659.65	0.002
659.84	0.002
660.03	0.002
660.22	0.002
660.41	0.002
660.60	0.002
660.79	0.002
660.98	0.002
661.17	0.002
661.36	0.002
661.55	0.002
661.74	0.002
661.92	0.002
662.11	0.002
662.30	0.002
662.49	0.002
662.68	0.002
662.87	0.002
663.06	0.002
663.25	0.002
663.44	0.002
663.63	0.002
663.82	0.002
664.01	0.002
664.20	0.002
664.38	0.002
664.57	0.002
664.76	0.002
664.95	0.002
665.14	0.002
665.33	0.002
665.52	0.002
665.71	0.002
665.90	0.002
666.09	0.002
666.28	0.002
666.46	0.002
666.65	0.002
666.84	0.002
667.03	0.002
667.22	0.002
667.41	0.002
667.60	0.002
667.79	0.002
667.98	0.002
668.16	0.002
668.35	0.002
668.54	0.002
668.73	0.002
668.92	0.002
669.11	0.002
669.30	0.002
669.49	0.002
669.67	0.002
669.86	0.002
670.05	0.002
670.24	0.002
670.43	0.002
670.62	0.002
670.81	0.002
671.00	0.002
671.18	0.002
671.37	0.002
671.56	0.002
671.75	0.001
671.94	0.001
672.13	0.001
672.32	0.001
672.50	0.001
672.69	0.002
672.88	0.002
673.07	0.002
673.26	0.002
673.45	0.002
673.63	0.002
673.82	0.002
674.01	0.002
674.20	0.002
674.39	0.002
674.58	0.002
674.76	0.002
674.95	0.002
675.14	0.002
675.33	0.002
675.52	0.002
675.71	0.002
675.89	0.002
676.08	0.002
676.27	0.002
676.46	0.002
676.65	0.002
676.84	0.002
677.02	0.002
677.21	0.002
677.40	0.002
677.59	0.002
677.78	0.002
677.96	0.002
678.15	0.002
678.34	0.002
678.53	0.002
678.72	0.002
678.90	0.002
679.09	0.002
679.28	0.002
679.47	0.002
679.66	0.002
679.84	0.002
680.03	0.002
680.22	0.002
680.41	0.002
680.60	0.002
680.78	0.002
680.97	0.002
681.16	0.002
681.35	0.002
681.53	0.002
681.72	0.002
681.91	0.002
682.10	0.001
682.29	0.001
682.47	0.001
682.66	0.001
682.85	0.001
683.04	0.001
683.22	0.001
683.41	0.001
683.60	0.002
683.79	0.002
683.97	0.002
684.16	0.002
684.35	0.002
684.54	0.002
684.72	0.002
684.91	0.002
685.10	0.002
685.29	0.002
685.47	0.002
685.66	0.002
685.85	0.001
686.04	0.001
686.22	0.002
686.41	0.002
686.60	0.002
686.79	0.002
686.97	0.002
687.16	0.002
687.35	0.002
687.54	0.002
687.72	0.002
687.91	0.002
688.10	0.002
688.29	0.002
688.47	0.002
688.66	0.002
688.85	0.002
689.03	0.002
689.22	0.002
689.41	0.002
689.60	0.002
689.78	0.002
689.97	0.002
690.16	0.002
690.34	0.001
690.53	0.001
690.72	0.002
690.91	0.002
691.09	0.002
691.28	0.002
691.47	0.002
691.65	0.002
691.84	0.002
692.03	0.002
692.21	0.002
692.40	0.002
692.59	0.002
692.77	0.002
692.96	0.002
693.15	0.002
693.34	0.002
693.52	0.002
693.71	0.002
693.90	0.002
694.08	0.002
694.27	0.002
694.46	0.002
694.64	0.002
694.83	0.002
695.02	0.001
695.20	0.001
695.39	0.002
695.58	0.002
695.76	0.002
695.95	0.002
696.14	0.001
696.32	0.002
696.51	0.002
696.70	0.002
696.88	0.002
697.07	0.002
697.26	0.002
697.44	0.002
697.63	0.002
697.81	0.002
698.00	0.002
698.19	0.002
698.37	0.002
698.56	0.002
698.75	0.002
698.93	0.002
699.12	0.002
699.31	0.002
699.49	0.002
699.68	0.002
699.87	0.002
700.05	0.002
700.24	0.002
700.42	0.002
700.61	0.002
700.80	0.002
700.98	0.002
701.17	0.002
701.36	0.002
701.54	0.002
701.73	0.002
701.91	0.002
702.10	0.002
702.29	0.002
702.47	0.002
702.66	0.002
702.84	0.002
703.03	0.002
703.22	0.002
703.40	0.002
703.59	0.002
703.77	0.002
703.96	0.002
704.15	0.002
704.33	0.002
704.52	0.002
704.70	0.003
704.89	0.002
705.08	0.002
705.26	0.002
705.45	0.002
705.63	0.002
705.82	0.002
706.00	0.002
706.19	0.002
706.38	0.002
706.56	0.002
706.75	0.002
706.93	0.001
707.12	0.001
707.30	0.002
707.49	0.002
707.68	0.002
707.86	0.001
708.05	0.001
708.23	0.001
708.42	0.002
708.60	0.002
708.79	0.001
708.98	0.002
709.16	0.002
709.35	0.002
709.53	0.002
709.72	0.002
709.90	0.002
710.09	0.002
710.27	0.002
710.46	0.002
710.64	0.002
710.83	0.002
711.02	0.002
711.20	0.002
711.39	0.002
711.57	0.002
711.76	0.002
711.94	0.002
712.13	0.002
712.31	0.002
712.50	0.002
712.68	0.002
712.87	0.002
713.05	0.002
713.24	0.002
713.42	0.002
713.61	0.002
713.79	0.002
713.98	0.002
714.16	0.002
714.35	0.002
714.54	0.002
714.72	0.002
714.91	0.002
715.09	0.002
715.28	0.002
715.46	0.002
715.65	0.002
715.83	0.002
716.02	0.002
716.20	0.002
716.39	0.002
716.57	0.002
716.76	0.002
716.94	0.002
717.12	0.002
717.31	0.002
717.49	0.002
717.68	0.002
717.86	0.002
718.05	0.002
718.23	0.002
718.42	0.002
718.60	0.002
718.79	0.002
718.97	0.002
719.16	0.002
719.34	0.002
719.53	0.002
719.71	0.002
719.90	0.002
720.08	0.002
720.27	0.002
720.45	0.002
720.63	0.002
720.82	0.002
721.00	0.002
721.19	0.002
721.37	0.002
721.56	0.002
721.74	0.002
721.93	0.002
722.11	0.002
722.30	0.002
722.48	0.002
722.66	0.002
722.85	0.002
723.03	0.002
723.22	0.002
723.40	0.002
723.59	0.002
723.77	0.002
723.95	0.002
724.14	0.002
724.32	0.002
724.51	0.002
724.69	0.002
724.88	0.002
725.06	0.002
725.24	0.002
725.43	0.002
725.61	0.001
725.80	0.001
725.98	0.001
726.16	0.001
726.35	0.001
726.53	0.001
726.72	0.001
726.90	0.001
727.09	0.001
727.27	0.001
727.45	0.001
727.64	0.001
727.82	0.001
728.01	0.001
728.19	0.002
728.37	0.002
728.56	0.002
728.74	0.002
728.92	0.002
729.11	0.002
729.29	0.002
729.48	0.002
729.66	0.001
729.84	0.001
730.03	0.001
730.21	0.001
730.40	0.001
730.58	0.000
730.76	0.001
730.95	0.001
731.13	0.001
731.31	0.001
731.50	0.001
731.68	0.001
731.86	0.002
732.05	0.002
732.23	0.002
732.42	0.002
732.60	0.002
732.78	0.002
732.97	0.002
733.15	0.002
733.33	0.001
733.52	0.001
733.70	0.001
733.88	0.001
734.07	0.001
734.25	0.001
734.43	0.001
734.62	0.000
734.80	0.000
734.98	0.000
735.17	0.000
735.35	-0.000
735.53	-0.001
735.72	-0.000
735.90	-0.000
736.08	0.000
736.27	0.000
736.45	-0.000
736.63	0.000
736.82	-0.000
737.00	-0.000
737.18	0.000
737.37	0.000
737.55	0.000
737.73	-0.000
737.92	-0.000
738.10	-0.001
738.28	-0.001
738.46	-0.000
738.65	-0.001
738.83	-0.000
739.01	-0.000
739.20	-0.001
739.38	-0.001
739.56	-0.001
739.75	-0.001
739.93	-0.001
740.11	-0.000
740.29	-0.001
740.48	-0.000
740.66	-0.000
740.84	-0.000
741.03	-0.001
741.21	-0.000
741.39	-0.000
741.57	0.000
741.76	0.000
741.94	-0.000
742.12	-0.000
742.31	-0.000
742.49	-0.000
742.67	-0.000
742.85	-0.001
743.04	-0.000
743.22	-0.001
743.40	-0.001
743.58	-0.001
743.77	-0.001
743.95	-0.001
744.13	-0.001
744.31	-0.000
744.50	-0.000
744.68	-0.000
744.86	0.001
745.04	0.000
745.23	0.000
745.41	0.001
745.59	0.000
745.77	0.000
745.96	0.000
746.14	0.001
746.32	0.001
746.50	0.001
746.69	0.001
746.87	0.000
747.05	0.001
747.23	0.001
747.42	0.001
747.60	0.001
747.78	0.001
747.96	0.001
748.14	0.001
748.33	0.001
748.51	0.001
748.69	0.001
748.87	0.001
749.06	0.002
749.24	0.002
749.42	0.002
749.60	0.002
749.78	0.002
749.97	0.002
750.15	0.001
750.33	0.001
750.51	0.001
750.69	0.000
750.88	-0.001
751.06	-0.001
751.24	-0.000
751.42	-0.000
751.60	-0.000
751.79	0.000
751.97	0.000
752.15	0.001
752.33	0.000
752.51	0.000
752.69	0.001
752.88	0.002
753.06	0.002
753.24	0.002
753.42	0.001
753.60	0.001
753.78	0.001
753.97	0.001
754.15	0.001
754.33	0.001
754.51	0.001
754.69	0.001
754.87	0.000
755.06	-0.000
755.24	-0.000
755.42	-0.000
755.60	-0.000
755.78	-0.000
755.96	-0.000
756.15	0.000
756.33	0.000
756.51	0.001
756.69	0.001
756.87	0.001
757.05	0.001
757.23	0.001
757.42	0.000
757.60	0.001
757.78	0.000
757.96	0.001
758.14	0.000
758.32	0.000
758.50	0.000
758.69	0.000
758.87	0.001
759.05	0.001
759.23	0.001
759.41	0.002
759.59	0.001
759.77	0.001
759.95	0.001
760.13	0.001
760.32	0.001
760.50	0.002
760.68	0.001
760.86	0.001
761.04	0.001
761.22	0.001
761.40	0.001
761.58	0.001
761.76	0.001
761.95	0.001
762.13	0.001
762.31	0.001
762.49	0.001
762.67	0.001
762.85	0.002
763.03	0.001
763.21	0.001
763.39	0.002
763.57	0.002
763.75	0.001
763.94	0.001
764.12	0.000
764.30	0.000
764.48	0.001
764.66	0.001
764.84	0.000
765.02	0.001
765.20	0.000
765.38	0.001
765.56	0.001
765.74	0.001
765.92	0.001
766.10	0.001
766.28	0.001
766.46	0.001
766.65	0.001
766.83	0.002
767.01	0.002
767.19	0.002
767.37	0.001
767.55	0.002
767.73	0.002
767.91	0.001
768.09	0.001
768.27	0.001
768.45	0.002
768.63	0.002
768.81	0.001
768.99	0.001
769.17	0.002
769.35	0.002
769.53	0.001
769.71	0.002
769.89	0.002
770.07	0.002
770.25	0.002
770.43	0.002
770.61	0.002
770.79	0.003
770.97	0.002
771.15	0.002
771.33	0.002
771.51	0.002
771.69	0.002
771.87	0.001
772.05	0.001
772.24	0.001
772.42	0.001
772.60	0.001
772.78	0.001
772.96	0.002
773.14	0.001
773.32	0.001
773.49	0.001
773.67	0.001
773.85	0.002
774.03	0.002
774.21	0.002
774.39	0.002
774.57	0.001
774.75	0.001
774.93	0.001
775.11	0.001
775.29	0.001
775.47	0.001
775.65	0.001
775.83	0.001
776.01	0.001
776.19	0.001
776.37	0.001
776.55	0.001
776.73	0.001
776.91	0.001
777.09	0.001
777.27	0.002
777.45	0.002
777.63	0.002
777.81	0.002
777.99	0.003
778.17	0.003
778.35	0.003
778.53	0.003
778.71	0.003
778.89	0.003
779.07	0.002
779.24	0.002
779.42	0.001
779.60	0.001
779.78	0.001
779.96	0.001
780.14	0.001
780.32	0.000
780.50	0.001
780.68	0.000
780.86	-0.000
781.04	-0.000
781.22	0.000
781.40	0.001
781.58	0.001
781.75	0.001
781.93	0.001
782.11	0.002
782.29	0.002
782.47	0.002
782.65	0.003
782.83	0.003
783.01	0.003
783.19	0.003
783.37	0.003
783.55	0.002
783.72	0.003
783.90	0.003
784.08	0.003
784.26	0.003
784.44	0.002
784.62	0.002
784.80	0.003
784.98	0.002
785.16	0.002
785.33	0.003
785.51	0.003
785.69	0.002
785.87	0.003
786.05	0.003
786.23	0.003
786.41	0.003
786.59	0.002
786.77	0.002
786.94	0.002
787.12	0.003
787.30	0.002
787.48	0.002
787.66	0.002
787.84	0.002
788.02	0.001
788.19	0.001
788.37	0.002
788.55	0.002
788.73	0.002
788.91	0.002
789.09	0.002
789.27	0.003
789.44	0.003
789.62	0.003
789.80	0.003
789.98	0.003
790.16	0.003
790.34	0.002
790.51	0.002
790.69	0.002
790.87	0.002
791.05	0.002
791.23	0.002
791.41	0.003
791.58	0.003
791.76	0.003
791.94	0.003
792.12	0.003
792.30	0.004
792.48	0.003
792.65	0.003
792.83	0.003
793.01	0.003
793.19	0.003
793.37	0.002
793.54	0.002
793.72	0.002
793.90	0.002
794.08	0.002
794.26	0.002
794.43	0.002
794.61	0.002
794.79	0.003
794.97	0.002
795.15	0.002
795.32	0.002
795.50	0.002
795.68	0.003
795.86	0.002
796.04	0.002
796.21	0.002
796.39	0.002
796.57	0.002
796.75	0.002
796.92	0.002
797.10	0.002
797.28	0.002
797.46	0.002
797.64	0.002
797.81	0.002
797.99	0.002
798.17	0.002
798.35	0.002
798.52	0.002
798.70	0.002
798.88	0.002
799.06	0.002
799.23	0.003
799.41	0.003
799.59	0.003
799.77	0.003
799.94	0.003
800.12	0.003
800.30	0.002
800.48	0.002
800.65	0.002
800.83	0.002
801.01	0.002
801.19	0.002
801.36	0.002
801.54	0.002
801.72	0.002
801.90	0.002
802.07	0.002
802.25	0.003
802.43	0.003
802.60	0.003
802.78	0.003
802.96	0.003
803.14	0.003
803.31	0.003
803.49	0.002
803.67	0.002
803.84	0.002
804.02	0.002
804.20	0.003
804.38	0.002
804.55	0.002
804.73	0.002
804.91	0.002
805.08	0.002
805.26	0.002
805.44	0.002
805.61	0.003
805.79	0.004
805.97	0.003
806.15	0.003
806.32	0.003
806.50	0.003
806.68	0.003
806.85	0.002
807.03	0.002
807.21	0.002
807.38	0.003
807.56	0.002
807.74	0.002
807.91	0.002
808.09	0.001
808.27	0.001
808.44	0.002
808.62	0.002
808.80	0.002
808.97	0.002
809.15	0.002
809.33	0.001
809.50	0.001
809.68	0.001
809.86	0.001
810.03	0.002
810.21	0.002
810.39	0.002
810.56	0.002
810.74	0.002
810.91	0.002
811.09	0.002
811.27	0.002
811.44	0.003
811.62	0.003
811.80	0.003
811.97	0.002
812.15	0.003
812.33	0.003
812.50	0.003
812.68	0.003
812.85	0.003
813.03	0.003
813.21	0.003
813.38	0.002
813.56	0.003
813.74	0.003
813.91	0.003
814.09	0.002
814.26	0.002
814.44	0.002
814.62	0.002
814.79	0.002
814.97	0.003
815.14	0.003
815.32	0.003
815.50	0.003
815.67	0.003
815.85	0.003
816.02	0.004
816.20	0.003
816.38	0.003
816.55	0.003
816.73	0.003
816.90	0.003
817.08	0.003
817.26	0.002
817.43	0.002
817.61	0.002
817.78	0.002
817.96	0.002
818.13	0.001
818.31	0.001
818.49	0.001
818.66	0.000
818.84	-0.000
819.01	-0.000
819.19	0.000
819.36	0.001
819.54	0.000
819.71	0.001
819.89	0.000
820.07	0.001
820.24	0.001
820.42	0.001
820.59	0.002
820.77	0.002
820.94	0.002
821.12	0.002
821.29	0.001
821.47	0.002
821.64	0.002
821.82	0.002
822.00	0.001
822.17	0.001
822.35	0.001
822.52	0.001
822.70	0.001
822.87	0.001
823.05	0.000
823.22	0.001
823.40	0.001
823.57	0.001
823.75	0.001
823.92	0.002
824.10	0.001
824.27	0.001
824.45	0.002
824.62	0.002
824.80	0.002
824.97	0.002
825.15	0.001
825.32	0.002
825.50	0.001
825.67	0.001
825.85	0.001
826.02	0.002
826.20	0.003
826.37	0.003
826.55	0.003
826.72	0.004
826.90	0.003
827.07	0.004
827.25	0.003
827.42	0.004
827.60	0.003
827.77	0.003
827.95	0.002
828.12	0.002
828.30	0.002
828.47	0.001
828.65	0.001
828.82	0.001
829.00	0.001
829.17	0.001
829.34	0.001
829.52	0.002
829.69	0.002
829.87	0.002
830.04	0.002
830.22	0.002
830.39	0.002
830.57	0.002
830.74	0.002
830.92	0.002
831.09	0.002
831.26	0.002
831.44	0.001
831.61	0.002
831.79	0.002
831.96	0.003
832.14	0.003
832.31	0.002
832.49	0.002
832.66	0.001
832.83	0.002
833.01	0.002
833.18	0.003
833.36	0.003
833.53	0.003
833.70	0.002
833.88	0.002
834.05	0.001
834.23	0.002
834.40	0.001
834.58	0.001
834.75	0.002
834.92	0.002
835.10	0.001
835.27	0.000
835.45	-0.000
835.62	0.000
835.79	-0.000
835.97	0.000
836.14	-0.000
836.32	0.001
836.49	0.000
836.66	-0.002
836.84	-0.002
837.01	-0.003
837.18	-0.000
837.36	0.000
837.53	0.000
837.71	-0.000
837.88	0.000
838.05	-0.001
838.23	0.001
838.40	0.003
838.58	0.004
838.75	0.003
838.92	0.002
839.10	0.001
839.27	0.002
839.44	0.002
839.62	0.003
839.79	0.002
839.96	0.005
840.14	0.004
840.31	0.005
840.48	0.004
840.66	0.007
840.83	0.007
841.01	0.007
841.18	0.006
841.35	0.006
841.53	0.005
841.70	0.006
841.87	0.005
842.05	0.003
842.22	0.001
842.39	0.002
842.57	0.002
842.74	0.003
842.91	0.003
843.09	0.003
843.26	0.005
843.43	0.007
843.60	0.004
843.78	0.006
843.95	0.007
844.12	0.007
844.30	0.006
844.47	0.005
844.64	0.003
844.82	0.002
844.99	0.002
845.16	0.002
845.34	0.001
845.51	0.003
845.68	0.003
845.85	0.003
846.03	0.005
846.20	0.005
846.37	0.005
846.55	0.007
846.72	0.009
846.89	0.008
847.06	0.007
847.24	0.007
847.41	0.005
847.58	0.005
847.76	0.007
847.93	0.005
848.10	0.007
848.27	0.007
848.45	0.009
848.62	0.008
848.79	0.008
848.97	0.010
849.14	0.009
849.31	0.011
849.48	0.009
849.66	0.006
849.83	0.005
850.00	0.002
850.17	-0.001
850.35	-0.005
850.52	-0.006
850.69	-0.005
850.86	-0.005
851.04	-0.004
851.21	-0.006
851.38	-0.008
851.55	-0.008
851.72	-0.008
851.90	-0.004
852.07	-0.004
852.24	-0.001
852.41	-0.002
852.59	-0.004
852.76	-0.004
852.93	-0.004
853.10	-0.002
853.28	0.000
853.45	-0.001
853.62	0.000
853.79	-0.001
853.96	0.000
854.14	0.002
854.31	0.005
854.48	0.007
854.65	0.008
854.82	0.011
855.00	0.010
855.17	0.012
855.34	0.015
855.51	0.014
855.68	0.013
855.86	0.012
856.03	0.010
856.20	0.009
856.37	0.004
856.54	0.002
856.72	-0.002
856.89	-0.003
857.06	-0.004
857.23	-0.003
857.40	-0.006
857.57	-0.005
857.75	-0.003
857.92	-0.003
858.09	-0.002
858.26	-0.002
858.43	-0.003
858.60	0.000
858.78	0.004
858.95	0.002
859.12	0.004
859.29	0.005
859.46	0.006
859.63	0.008
859.81	0.007
859.98	0.005
860.15	0.008
860.32	0.012
860.49	0.011
860.66	0.006
860.83	0.008
861.01	0.005
861.18	0.007
861.35	0.006
861.52	0.003
861.69	0.001
861.86	0.003
862.03	-0.000
862.21	0.001
862.38	0.000
862.55	0.001
862.72	-0.001
862.89	0.000
863.06	0.001
863.23	0.000
863.40	-0.000
863.58	0.002
863.75	0.002
863.92	0.002
864.09	0.001
864.26	0.001
864.43	0.002
864.60	0.006
864.77	0.004
864.94	0.006
865.11	0.005
865.29	0.006
865.46	0.010
865.63	0.010
865.80	0.010
865.97	0.012
866.14	0.015
866.31	0.015
866.48	0.012
866.65	0.016
866.82	0.015
866.99	0.016
867.16	0.013
867.34	0.011
867.51	0.013
867.68	0.019
867.85	0.013
868.02	0.008
868.19	0.007
868.36	0.005
868.53	-0.000
868.70	-0.002
868.87	-0.002
869.04	0.001
869.21	0.006
869.38	0.000
869.55	-0.003
869.72	-0.001
869.89	0.003
870.06	0.002
870.24	0.003
870.41	0.005
870.58	0.004
870.75	0.002
870.92	0.000
871.09	-0.005
871.26	0.002
871.43	0.004
871.60	0.008
871.77	0.006
871.94	0.010
872.11	0.009
872.28	0.008
872.45	0.008
872.62	0.010
872.79	0.009
872.96	0.007
873.13	-0.001
873.30	-0.006
873.47	-0.005
873.64	-0.005
873.81	-0.009
873.98	-0.004
874.15	-0.000
874.32	-0.002
874.49	-0.001
874.66	-0.000
874.83	-0.000
875.00	0.002
875.17	0.008
875.34	0.003
875.51	0.005
875.68	0.008
875.85	0.006
876.02	0.005
876.19	0.007
876.36	0.003
876.53	0.007
876.70	0.012
876.87	0.018
877.04	0.015
877.21	0.017
877.38	0.015
877.55	0.013
877.72	0.015
877.89	0.010
878.06	0.005
878.23	0.010
878.39	0.010
878.56	0.015
878.73	0.007
878.90	0.005
879.07	0.001
879.24	-0.001
879.41	0.002
879.58	0.001
879.75	-0.002
879.92	-0.000
880.09	-0.001
880.26	-0.003
880.43	-0.014
880.60	-0.011
880.77	-0.002
880.94	0.002
881.11	0.006
881.27	0.009
881.44	0.009
881.61	0.018
881.78	0.019
881.95	0.015
882.12	0.011
882.29	0.012
882.46	0.009
882.63	0.007
882.80	0.005
882.97	-0.000
883.14	-0.010
883.30	-0.009
883.47	-0.009
883.64	-0.011
883.81	-0.004
883.98	0.003
884.15	0.005
884.32	0.010
884.49	0.010
884.66	0.000
884.82	0.008
884.99	0.013
885.16	0.009
885.33	0.001
885.50	-0.002
885.67	-0.001
885.84	-0.008
886.01	-0.012
886.17	-0.011
886.34	-0.013
886.51	-0.005
886.68	-0.010
886.85	-0.014
887.02	-0.001
887.19	0.009
887.36	0.008
887.52	-0.001
887.69	0.012
887.86	0.020
888.03	0.017
888.20	0.023
888.37	0.016
888.54	0.011
888.70	0.013
888.87	0.007
889.04	-0.005
889.21	-0.000
889.38	0.006
889.55	-0.003
889.71	0.075
889.88	-0.080
890.05	-0.064
890.22	0.026
890.39	-0.007
>>>>>End Processed Spectral Data<<<<<
