SpectraSuite Data File
++++++++++++++++++++++++++++++++++++
Date: Mon Jun 15 09:33:44 PDT 2015
User: introlabs
Dark Spectrum Present: Yes
Reference Spectrum Present: Yes
Number of Sampled Component Spectra: 1
Spectrometers: USB4H08886
Integration Time (usec): 44366 (USB4H08886)
Spectra Averaged: 20 (USB4H08886)
Boxcar Smoothing: 5 (USB4H08886)
Correct for Electrical Dark: Yes (USB4H08886)
Strobe/Lamp Enabled: No (USB4H08886)
Correct for Detector Non-linearity: Yes (USB4H08886)
Correct for Stray Light: Yes (USB4H08886)
Number of Pixels in Processed Spectrum: 3648
>>>>>Begin Processed Spectral Data<<<<<
178.14	-0.000
178.36	-0.000
178.57	-0.000
178.79	-0.000
179.01	-0.507
179.22	-0.000
179.44	-0.000
179.65	-0.297
179.87	0.037
180.08	0.225
180.30	0.195
180.52	0.211
180.73	0.254
180.95	0.150
181.16	0.109
181.38	0.058
181.59	0.044
181.81	0.037
182.03	0.058
182.24	0.054
182.46	0.042
182.67	0.041
182.89	0.036
183.10	0.030
183.32	0.028
183.54	0.020
183.75	0.029
183.97	0.036
184.18	0.034
184.40	0.025
184.61	0.036
184.83	0.043
185.04	0.044
185.26	0.052
185.48	0.050
185.69	0.055
185.91	0.060
186.12	0.070
186.34	0.070
186.55	0.059
186.77	0.072
186.98	0.063
187.20	0.052
187.42	0.060
187.63	0.055
187.85	0.063
188.06	0.062
188.28	0.055
188.49	0.056
188.71	0.056
188.92	0.060
189.14	0.048
189.36	0.059
189.57	0.068
189.79	0.058
190.00	0.055
190.22	0.048
190.43	0.042
190.65	0.039
190.86	0.043
191.08	0.039
191.29	0.047
191.51	0.052
191.72	0.042
191.94	0.043
192.16	0.047
192.37	0.045
192.59	0.050
192.80	0.048
193.02	0.056
193.23	0.055
193.45	0.051
193.66	0.046
193.88	0.039
194.09	0.037
194.31	0.036
194.52	0.031
194.74	0.030
194.95	0.027
195.17	0.025
195.38	0.014
195.60	-0.004
195.81	0.001
196.03	-0.000
196.25	0.011
196.46	0.012
196.68	0.018
196.89	0.027
197.11	0.030
197.32	0.027
197.54	0.033
197.75	0.044
197.97	0.054
198.18	0.053
198.40	0.059
198.61	0.048
198.83	0.046
199.04	0.036
199.26	0.018
199.47	0.010
199.69	0.020
199.90	0.027
200.12	0.023
200.33	0.024
200.55	0.020
200.76	0.015
200.98	0.012
201.19	0.015
201.41	0.018
201.62	0.032
201.84	0.044
202.05	0.038
202.27	0.036
202.48	0.032
202.70	0.035
202.91	0.039
203.13	0.033
203.34	0.032
203.56	0.031
203.77	0.035
203.99	0.024
204.20	0.018
204.42	0.015
204.63	0.019
204.85	0.014
205.06	0.010
205.28	0.010
205.49	0.014
205.71	0.025
205.92	0.028
206.14	0.021
206.35	0.033
206.56	0.039
206.78	0.040
206.99	0.041
207.21	0.050
207.42	0.052
207.64	0.047
207.85	0.046
208.07	0.043
208.28	0.049
208.50	0.059
208.71	0.055
208.93	0.057
209.14	0.063
209.36	0.057
209.57	0.061
209.79	0.060
210.00	0.070
210.22	0.079
210.43	0.073
210.64	0.071
210.86	0.064
211.07	0.057
211.29	0.047
211.50	0.042
211.72	0.041
211.93	0.036
212.15	0.032
212.36	0.030
212.58	0.025
212.79	0.029
213.01	0.019
213.22	0.027
213.43	0.033
213.65	0.036
213.86	0.040
214.08	0.050
214.29	0.047
214.51	0.049
214.72	0.044
214.94	0.041
215.15	0.047
215.36	0.052
215.58	0.042
215.79	0.040
216.01	0.043
216.22	0.049
216.44	0.036
216.65	0.036
216.87	0.044
217.08	0.045
217.29	0.053
217.51	0.045
217.72	0.047
217.94	0.051
218.15	0.056
218.37	0.051
218.58	0.043
218.80	0.052
219.01	0.054
219.22	0.046
219.44	0.051
219.65	0.048
219.87	0.054
220.08	0.046
220.30	0.038
220.51	0.034
220.72	0.040
220.94	0.039
221.15	0.035
221.37	0.032
221.58	0.032
221.79	0.033
222.01	0.028
222.22	0.020
222.44	0.028
222.65	0.033
222.87	0.034
223.08	0.033
223.29	0.034
223.51	0.037
223.72	0.037
223.94	0.032
224.15	0.033
224.36	0.037
224.58	0.035
224.79	0.032
225.01	0.031
225.22	0.028
225.44	0.027
225.65	0.031
225.86	0.030
226.08	0.030
226.29	0.031
226.51	0.033
226.72	0.034
226.93	0.038
227.15	0.036
227.36	0.035
227.58	0.039
227.79	0.041
228.00	0.035
228.22	0.025
228.43	0.022
228.65	0.021
228.86	0.016
229.07	0.016
229.29	0.017
229.50	0.016
229.72	0.018
229.93	0.014
230.14	0.011
230.36	0.011
230.57	0.014
230.78	0.013
231.00	0.012
231.21	0.010
231.43	0.009
231.64	0.007
231.85	0.010
232.07	0.010
232.28	0.009
232.50	0.007
232.71	0.008
232.92	0.008
233.14	0.009
233.35	0.013
233.56	0.013
233.78	0.012
233.99	0.011
234.21	0.009
234.42	0.008
234.63	0.009
234.85	0.011
235.06	0.010
235.27	0.011
235.49	0.010
235.70	0.009
235.91	0.007
236.13	0.007
236.34	0.006
236.56	0.004
236.77	0.005
236.98	0.005
237.20	0.004
237.41	0.005
237.62	0.005
237.84	0.005
238.05	0.004
238.26	0.006
238.48	0.005
238.69	0.008
238.91	0.009
239.12	0.008
239.33	0.008
239.55	0.009
239.76	0.009
239.97	0.011
240.19	0.012
240.40	0.012
240.61	0.013
240.83	0.013
241.04	0.013
241.25	0.013
241.47	0.015
241.68	0.016
241.89	0.016
242.11	0.016
242.32	0.017
242.53	0.017
242.75	0.018
242.96	0.019
243.17	0.020
243.39	0.021
243.60	0.022
243.81	0.022
244.03	0.021
244.24	0.022
244.45	0.023
244.67	0.024
244.88	0.024
245.09	0.025
245.31	0.025
245.52	0.024
245.73	0.025
245.95	0.025
246.16	0.025
246.37	0.026
246.59	0.026
246.80	0.026
247.01	0.026
247.23	0.026
247.44	0.026
247.65	0.026
247.87	0.027
248.08	0.027
248.29	0.027
248.51	0.028
248.72	0.028
248.93	0.028
249.15	0.028
249.36	0.029
249.57	0.029
249.78	0.029
250.00	0.029
250.21	0.028
250.42	0.029
250.64	0.029
250.85	0.030
251.06	0.030
251.28	0.030
251.49	0.030
251.70	0.030
251.92	0.030
252.13	0.031
252.34	0.031
252.55	0.031
252.77	0.031
252.98	0.031
253.19	0.031
253.41	0.031
253.62	0.031
253.83	0.032
254.05	0.032
254.26	0.032
254.47	0.032
254.68	0.032
254.90	0.032
255.11	0.032
255.32	0.033
255.54	0.033
255.75	0.033
255.96	0.033
256.17	0.032
256.39	0.033
256.60	0.033
256.81	0.033
257.03	0.033
257.24	0.033
257.45	0.033
257.66	0.032
257.88	0.032
258.09	0.032
258.30	0.031
258.51	0.031
258.73	0.031
258.94	0.031
259.15	0.030
259.37	0.030
259.58	0.029
259.79	0.029
260.00	0.029
260.22	0.029
260.43	0.029
260.64	0.028
260.85	0.028
261.07	0.028
261.28	0.028
261.49	0.028
261.71	0.028
261.92	0.028
262.13	0.028
262.34	0.028
262.56	0.028
262.77	0.027
262.98	0.027
263.19	0.027
263.41	0.026
263.62	0.026
263.83	0.026
264.04	0.025
264.26	0.025
264.47	0.025
264.68	0.025
264.89	0.024
265.11	0.024
265.32	0.024
265.53	0.024
265.74	0.024
265.96	0.024
266.17	0.023
266.38	0.023
266.59	0.023
266.81	0.023
267.02	0.022
267.23	0.021
267.44	0.021
267.65	0.020
267.87	0.020
268.08	0.019
268.29	0.019
268.50	0.019
268.72	0.019
268.93	0.018
269.14	0.018
269.35	0.018
269.57	0.018
269.78	0.018
269.99	0.018
270.20	0.017
270.41	0.017
270.63	0.017
270.84	0.017
271.05	0.016
271.26	0.016
271.48	0.015
271.69	0.015
271.90	0.014
272.11	0.014
272.32	0.013
272.54	0.013
272.75	0.013
272.96	0.012
273.17	0.012
273.39	0.012
273.60	0.012
273.81	0.011
274.02	0.011
274.23	0.012
274.45	0.011
274.66	0.011
274.87	0.011
275.08	0.011
275.29	0.011
275.51	0.011
275.72	0.011
275.93	0.011
276.14	0.011
276.35	0.011
276.57	0.011
276.78	0.011
276.99	0.011
277.20	0.011
277.41	0.011
277.63	0.011
277.84	0.011
278.05	0.011
278.26	0.011
278.47	0.011
278.69	0.011
278.90	0.011
279.11	0.012
279.32	0.012
279.53	0.012
279.74	0.012
279.96	0.013
280.17	0.013
280.38	0.013
280.59	0.013
280.80	0.013
281.02	0.013
281.23	0.013
281.44	0.013
281.65	0.013
281.86	0.014
282.07	0.014
282.29	0.014
282.50	0.014
282.71	0.014
282.92	0.015
283.13	0.015
283.35	0.015
283.56	0.015
283.77	0.015
283.98	0.016
284.19	0.016
284.40	0.016
284.62	0.017
284.83	0.017
285.04	0.018
285.25	0.018
285.46	0.019
285.67	0.019
285.88	0.019
286.10	0.020
286.31	0.021
286.52	0.021
286.73	0.022
286.94	0.022
287.15	0.023
287.37	0.024
287.58	0.024
287.79	0.025
288.00	0.026
288.21	0.026
288.42	0.026
288.63	0.027
288.85	0.027
289.06	0.028
289.27	0.029
289.48	0.029
289.69	0.029
289.90	0.030
290.11	0.030
290.33	0.031
290.54	0.031
290.75	0.032
290.96	0.032
291.17	0.032
291.38	0.033
291.59	0.033
291.81	0.033
292.02	0.034
292.23	0.034
292.44	0.034
292.65	0.034
292.86	0.034
293.07	0.035
293.28	0.035
293.50	0.035
293.71	0.035
293.92	0.035
294.13	0.036
294.34	0.036
294.55	0.036
294.76	0.036
294.97	0.036
295.19	0.036
295.40	0.036
295.61	0.036
295.82	0.036
296.03	0.036
296.24	0.036
296.45	0.036
296.66	0.036
296.87	0.036
297.09	0.036
297.30	0.036
297.51	0.036
297.72	0.036
297.93	0.036
298.14	0.037
298.35	0.037
298.56	0.036
298.77	0.036
298.99	0.037
299.20	0.037
299.41	0.037
299.62	0.037
299.83	0.036
300.04	0.036
300.25	0.036
300.46	0.036
300.67	0.036
300.88	0.036
301.10	0.036
301.31	0.036
301.52	0.036
301.73	0.036
301.94	0.036
302.15	0.036
302.36	0.036
302.57	0.036
302.78	0.036
302.99	0.036
303.20	0.036
303.41	0.036
303.63	0.036
303.84	0.036
304.05	0.036
304.26	0.036
304.47	0.036
304.68	0.036
304.89	0.036
305.10	0.036
305.31	0.036
305.52	0.036
305.73	0.036
305.94	0.036
306.15	0.036
306.37	0.036
306.58	0.036
306.79	0.036
307.00	0.036
307.21	0.036
307.42	0.036
307.63	0.036
307.84	0.036
308.05	0.036
308.26	0.035
308.47	0.036
308.68	0.036
308.89	0.035
309.10	0.035
309.31	0.035
309.52	0.035
309.73	0.035
309.95	0.035
310.16	0.035
310.37	0.035
310.58	0.035
310.79	0.035
311.00	0.035
311.21	0.035
311.42	0.035
311.63	0.035
311.84	0.035
312.05	0.035
312.26	0.035
312.47	0.035
312.68	0.035
312.89	0.035
313.10	0.035
313.31	0.035
313.52	0.035
313.73	0.035
313.94	0.035
314.15	0.035
314.36	0.035
314.57	0.035
314.78	0.035
314.99	0.035
315.21	0.035
315.42	0.035
315.63	0.035
315.84	0.034
316.05	0.034
316.26	0.034
316.47	0.034
316.68	0.034
316.89	0.034
317.10	0.034
317.31	0.034
317.52	0.034
317.73	0.034
317.94	0.034
318.15	0.034
318.36	0.034
318.57	0.034
318.78	0.034
318.99	0.034
319.20	0.034
319.41	0.034
319.62	0.034
319.83	0.034
320.04	0.034
320.25	0.034
320.46	0.034
320.67	0.034
320.88	0.034
321.09	0.034
321.30	0.034
321.51	0.034
321.72	0.034
321.93	0.034
322.14	0.033
322.35	0.033
322.56	0.033
322.77	0.033
322.98	0.033
323.19	0.034
323.40	0.034
323.61	0.034
323.82	0.034
324.03	0.034
324.24	0.034
324.45	0.034
324.66	0.034
324.87	0.034
325.08	0.034
325.29	0.034
325.50	0.033
325.71	0.033
325.92	0.033
326.13	0.033
326.34	0.033
326.55	0.033
326.76	0.033
326.97	0.033
327.18	0.033
327.39	0.034
327.60	0.034
327.80	0.034
328.01	0.033
328.22	0.033
328.43	0.034
328.64	0.034
328.85	0.034
329.06	0.034
329.27	0.034
329.48	0.034
329.69	0.033
329.90	0.034
330.11	0.034
330.32	0.034
330.53	0.034
330.74	0.033
330.95	0.033
331.16	0.033
331.37	0.034
331.58	0.034
331.79	0.034
332.00	0.034
332.21	0.034
332.42	0.034
332.63	0.034
332.83	0.034
333.04	0.034
333.25	0.034
333.46	0.034
333.67	0.034
333.88	0.034
334.09	0.034
334.30	0.034
334.51	0.034
334.72	0.034
334.93	0.034
335.14	0.034
335.35	0.034
335.56	0.034
335.77	0.034
335.98	0.034
336.18	0.034
336.39	0.034
336.60	0.034
336.81	0.034
337.02	0.034
337.23	0.034
337.44	0.034
337.65	0.034
337.86	0.034
338.07	0.034
338.28	0.034
338.49	0.034
338.70	0.034
338.91	0.034
339.11	0.034
339.32	0.034
339.53	0.034
339.74	0.034
339.95	0.034
340.16	0.034
340.37	0.034
340.58	0.034
340.79	0.034
341.00	0.034
341.21	0.034
341.41	0.034
341.62	0.034
341.83	0.034
342.04	0.034
342.25	0.034
342.46	0.034
342.67	0.034
342.88	0.034
343.09	0.034
343.30	0.035
343.50	0.035
343.71	0.035
343.92	0.035
344.13	0.035
344.34	0.035
344.55	0.035
344.76	0.035
344.97	0.035
345.18	0.035
345.38	0.035
345.59	0.035
345.80	0.035
346.01	0.035
346.22	0.035
346.43	0.035
346.64	0.035
346.85	0.035
347.06	0.035
347.26	0.035
347.47	0.035
347.68	0.035
347.89	0.035
348.10	0.035
348.31	0.035
348.52	0.035
348.73	0.035
348.93	0.035
349.14	0.035
349.35	0.035
349.56	0.034
349.77	0.034
349.98	0.034
350.19	0.034
350.39	0.035
350.60	0.035
350.81	0.035
351.02	0.035
351.23	0.035
351.44	0.035
351.65	0.035
351.86	0.035
352.06	0.035
352.27	0.035
352.48	0.035
352.69	0.035
352.90	0.035
353.11	0.035
353.31	0.035
353.52	0.035
353.73	0.035
353.94	0.035
354.15	0.035
354.36	0.035
354.57	0.035
354.77	0.035
354.98	0.035
355.19	0.035
355.40	0.035
355.61	0.035
355.82	0.036
356.02	0.036
356.23	0.036
356.44	0.036
356.65	0.036
356.86	0.036
357.07	0.035
357.27	0.036
357.48	0.036
357.69	0.036
357.90	0.036
358.11	0.036
358.32	0.035
358.52	0.035
358.73	0.036
358.94	0.036
359.15	0.036
359.36	0.036
359.56	0.036
359.77	0.036
359.98	0.036
360.19	0.036
360.40	0.036
360.61	0.036
360.81	0.036
361.02	0.036
361.23	0.036
361.44	0.036
361.65	0.036
361.85	0.036
362.06	0.036
362.27	0.036
362.48	0.036
362.69	0.036
362.89	0.036
363.10	0.036
363.31	0.036
363.52	0.036
363.73	0.036
363.93	0.036
364.14	0.036
364.35	0.036
364.56	0.036
364.77	0.036
364.97	0.036
365.18	0.036
365.39	0.036
365.60	0.036
365.81	0.036
366.01	0.036
366.22	0.036
366.43	0.036
366.64	0.036
366.84	0.036
367.05	0.036
367.26	0.036
367.47	0.036
367.68	0.036
367.88	0.036
368.09	0.036
368.30	0.037
368.51	0.036
368.71	0.036
368.92	0.037
369.13	0.036
369.34	0.036
369.55	0.036
369.75	0.036
369.96	0.036
370.17	0.036
370.38	0.036
370.58	0.036
370.79	0.036
371.00	0.036
371.21	0.036
371.41	0.036
371.62	0.036
371.83	0.036
372.04	0.036
372.24	0.036
372.45	0.036
372.66	0.036
372.87	0.036
373.07	0.036
373.28	0.036
373.49	0.036
373.70	0.036
373.90	0.036
374.11	0.036
374.32	0.036
374.53	0.036
374.73	0.036
374.94	0.036
375.15	0.036
375.36	0.036
375.56	0.036
375.77	0.036
375.98	0.036
376.19	0.036
376.39	0.036
376.60	0.036
376.81	0.036
377.02	0.036
377.22	0.036
377.43	0.036
377.64	0.036
377.84	0.036
378.05	0.036
378.26	0.036
378.47	0.036
378.67	0.036
378.88	0.035
379.09	0.035
379.30	0.035
379.50	0.035
379.71	0.035
379.92	0.035
380.12	0.035
380.33	0.035
380.54	0.036
380.75	0.036
380.95	0.035
381.16	0.036
381.37	0.036
381.57	0.036
381.78	0.035
381.99	0.036
382.20	0.036
382.40	0.036
382.61	0.036
382.82	0.036
383.02	0.036
383.23	0.036
383.44	0.036
383.64	0.036
383.85	0.036
384.06	0.036
384.27	0.036
384.47	0.036
384.68	0.036
384.89	0.036
385.09	0.036
385.30	0.036
385.51	0.035
385.71	0.035
385.92	0.035
386.13	0.035
386.33	0.035
386.54	0.035
386.75	0.035
386.95	0.035
387.16	0.035
387.37	0.035
387.58	0.035
387.78	0.035
387.99	0.035
388.20	0.035
388.40	0.035
388.61	0.035
388.82	0.035
389.02	0.035
389.23	0.035
389.44	0.035
389.64	0.035
389.85	0.035
390.06	0.035
390.26	0.035
390.47	0.035
390.68	0.035
390.88	0.035
391.09	0.035
391.30	0.035
391.50	0.035
391.71	0.035
391.92	0.035
392.12	0.035
392.33	0.035
392.53	0.035
392.74	0.035
392.95	0.035
393.15	0.035
393.36	0.035
393.57	0.035
393.77	0.035
393.98	0.035
394.19	0.035
394.39	0.035
394.60	0.035
394.81	0.035
395.01	0.035
395.22	0.035
395.43	0.035
395.63	0.035
395.84	0.035
396.04	0.035
396.25	0.035
396.46	0.034
396.66	0.034
396.87	0.034
397.08	0.034
397.28	0.034
397.49	0.034
397.69	0.034
397.90	0.034
398.11	0.034
398.31	0.034
398.52	0.034
398.73	0.034
398.93	0.034
399.14	0.034
399.34	0.034
399.55	0.034
399.76	0.034
399.96	0.034
400.17	0.034
400.37	0.034
400.58	0.034
400.79	0.035
400.99	0.035
401.20	0.035
401.41	0.035
401.61	0.035
401.82	0.035
402.02	0.035
402.23	0.035
402.44	0.035
402.64	0.035
402.85	0.035
403.05	0.034
403.26	0.034
403.47	0.034
403.67	0.034
403.88	0.034
404.08	0.034
404.29	0.034
404.50	0.034
404.70	0.034
404.91	0.034
405.11	0.034
405.32	0.034
405.52	0.034
405.73	0.034
405.94	0.034
406.14	0.034
406.35	0.034
406.55	0.034
406.76	0.034
406.97	0.034
407.17	0.034
407.38	0.034
407.58	0.034
407.79	0.034
407.99	0.034
408.20	0.034
408.41	0.034
408.61	0.034
408.82	0.034
409.02	0.034
409.23	0.034
409.43	0.034
409.64	0.034
409.84	0.034
410.05	0.034
410.26	0.034
410.46	0.034
410.67	0.034
410.87	0.034
411.08	0.034
411.28	0.034
411.49	0.034
411.69	0.034
411.90	0.034
412.11	0.034
412.31	0.034
412.52	0.034
412.72	0.034
412.93	0.034
413.13	0.033
413.34	0.033
413.54	0.033
413.75	0.033
413.95	0.033
414.16	0.033
414.37	0.033
414.57	0.034
414.78	0.034
414.98	0.034
415.19	0.034
415.39	0.034
415.60	0.034
415.80	0.034
416.01	0.034
416.21	0.034
416.42	0.034
416.62	0.033
416.83	0.033
417.03	0.033
417.24	0.033
417.44	0.033
417.65	0.033
417.86	0.033
418.06	0.033
418.27	0.033
418.47	0.033
418.68	0.033
418.88	0.032
419.09	0.033
419.29	0.033
419.50	0.032
419.70	0.032
419.91	0.033
420.11	0.032
420.32	0.033
420.52	0.033
420.73	0.033
420.93	0.033
421.14	0.033
421.34	0.033
421.55	0.033
421.75	0.033
421.96	0.033
422.16	0.033
422.37	0.033
422.57	0.033
422.78	0.033
422.98	0.033
423.19	0.033
423.39	0.033
423.60	0.033
423.80	0.033
424.01	0.033
424.21	0.033
424.42	0.033
424.62	0.033
424.83	0.033
425.03	0.033
425.23	0.033
425.44	0.033
425.64	0.033
425.85	0.033
426.05	0.033
426.26	0.033
426.46	0.033
426.67	0.033
426.87	0.032
427.08	0.032
427.28	0.032
427.49	0.032
427.69	0.032
427.90	0.032
428.10	0.032
428.31	0.032
428.51	0.032
428.71	0.032
428.92	0.032
429.12	0.032
429.33	0.032
429.53	0.032
429.74	0.032
429.94	0.032
430.15	0.032
430.35	0.032
430.56	0.032
430.76	0.033
430.96	0.032
431.17	0.033
431.37	0.033
431.58	0.033
431.78	0.033
431.99	0.033
432.19	0.033
432.40	0.033
432.60	0.033
432.80	0.033
433.01	0.033
433.21	0.033
433.42	0.033
433.62	0.033
433.83	0.033
434.03	0.033
434.23	0.033
434.44	0.032
434.64	0.032
434.85	0.032
435.05	0.032
435.26	0.032
435.46	0.032
435.66	0.032
435.87	0.032
436.07	0.032
436.28	0.032
436.48	0.032
436.69	0.032
436.89	0.032
437.09	0.032
437.30	0.032
437.50	0.032
437.71	0.032
437.91	0.032
438.11	0.032
438.32	0.032
438.52	0.032
438.73	0.032
438.93	0.032
439.13	0.032
439.34	0.032
439.54	0.032
439.75	0.032
439.95	0.031
440.15	0.031
440.36	0.031
440.56	0.031
440.77	0.031
440.97	0.031
441.17	0.031
441.38	0.031
441.58	0.031
441.79	0.031
441.99	0.031
442.19	0.031
442.40	0.031
442.60	0.031
442.81	0.031
443.01	0.031
443.21	0.031
443.42	0.031
443.62	0.031
443.82	0.031
444.03	0.031
444.23	0.031
444.44	0.032
444.64	0.031
444.84	0.031
445.05	0.031
445.25	0.031
445.45	0.031
445.66	0.031
445.86	0.032
446.06	0.031
446.27	0.032
446.47	0.032
446.68	0.032
446.88	0.032
447.08	0.031
447.29	0.031
447.49	0.031
447.69	0.032
447.90	0.032
448.10	0.032
448.30	0.031
448.51	0.031
448.71	0.031
448.91	0.031
449.12	0.031
449.32	0.032
449.52	0.032
449.73	0.032
449.93	0.032
450.14	0.032
450.34	0.031
450.54	0.031
450.75	0.031
450.95	0.031
451.15	0.031
451.36	0.031
451.56	0.031
451.76	0.031
451.97	0.031
452.17	0.031
452.37	0.031
452.58	0.031
452.78	0.031
452.98	0.031
453.19	0.031
453.39	0.031
453.59	0.031
453.79	0.031
454.00	0.031
454.20	0.031
454.40	0.031
454.61	0.031
454.81	0.031
455.01	0.031
455.22	0.031
455.42	0.031
455.62	0.031
455.83	0.031
456.03	0.031
456.23	0.031
456.44	0.031
456.64	0.031
456.84	0.031
457.04	0.031
457.25	0.031
457.45	0.031
457.65	0.031
457.86	0.031
458.06	0.031
458.26	0.031
458.47	0.031
458.67	0.031
458.87	0.031
459.07	0.031
459.28	0.030
459.48	0.030
459.68	0.030
459.89	0.030
460.09	0.031
460.29	0.030
460.49	0.030
460.70	0.030
460.90	0.030
461.10	0.031
461.31	0.030
461.51	0.031
461.71	0.031
461.91	0.031
462.12	0.031
462.32	0.031
462.52	0.031
462.72	0.031
462.93	0.031
463.13	0.030
463.33	0.030
463.53	0.030
463.74	0.030
463.94	0.030
464.14	0.030
464.35	0.030
464.55	0.030
464.75	0.030
464.95	0.030
465.16	0.030
465.36	0.030
465.56	0.030
465.76	0.030
465.97	0.030
466.17	0.030
466.37	0.030
466.57	0.030
466.78	0.030
466.98	0.031
467.18	0.031
467.38	0.031
467.59	0.031
467.79	0.031
467.99	0.031
468.19	0.031
468.39	0.031
468.60	0.031
468.80	0.030
469.00	0.031
469.20	0.030
469.41	0.030
469.61	0.030
469.81	0.030
470.01	0.030
470.22	0.030
470.42	0.030
470.62	0.030
470.82	0.030
471.02	0.030
471.23	0.030
471.43	0.030
471.63	0.030
471.83	0.030
472.04	0.030
472.24	0.030
472.44	0.029
472.64	0.029
472.84	0.029
473.05	0.029
473.25	0.029
473.45	0.029
473.65	0.029
473.85	0.029
474.06	0.029
474.26	0.029
474.46	0.029
474.66	0.030
474.86	0.030
475.07	0.030
475.27	0.030
475.47	0.030
475.67	0.030
475.87	0.030
476.08	0.030
476.28	0.030
476.48	0.030
476.68	0.030
476.88	0.030
477.09	0.030
477.29	0.030
477.49	0.030
477.69	0.030
477.89	0.030
478.09	0.030
478.30	0.029
478.50	0.029
478.70	0.029
478.90	0.029
479.10	0.029
479.31	0.029
479.51	0.029
479.71	0.029
479.91	0.029
480.11	0.029
480.31	0.029
480.52	0.029
480.72	0.029
480.92	0.029
481.12	0.029
481.32	0.029
481.52	0.029
481.72	0.028
481.93	0.029
482.13	0.028
482.33	0.028
482.53	0.028
482.73	0.028
482.93	0.028
483.14	0.028
483.34	0.028
483.54	0.028
483.74	0.028
483.94	0.028
484.14	0.028
484.34	0.028
484.55	0.028
484.75	0.029
484.95	0.029
485.15	0.029
485.35	0.029
485.55	0.029
485.75	0.029
485.96	0.029
486.16	0.029
486.36	0.029
486.56	0.029
486.76	0.030
486.96	0.030
487.16	0.030
487.36	0.030
487.57	0.030
487.77	0.030
487.97	0.030
488.17	0.030
488.37	0.030
488.57	0.030
488.77	0.030
488.97	0.030
489.18	0.030
489.38	0.030
489.58	0.030
489.78	0.030
489.98	0.030
490.18	0.030
490.38	0.030
490.58	0.029
490.78	0.029
490.98	0.029
491.19	0.029
491.39	0.029
491.59	0.029
491.79	0.029
491.99	0.029
492.19	0.029
492.39	0.029
492.59	0.029
492.79	0.029
492.99	0.029
493.20	0.029
493.40	0.029
493.60	0.029
493.80	0.029
494.00	0.029
494.20	0.029
494.40	0.029
494.60	0.029
494.80	0.029
495.00	0.029
495.20	0.029
495.40	0.029
495.61	0.029
495.81	0.029
496.01	0.029
496.21	0.030
496.41	0.030
496.61	0.030
496.81	0.030
497.01	0.030
497.21	0.030
497.41	0.030
497.61	0.030
497.81	0.030
498.01	0.030
498.21	0.030
498.41	0.030
498.61	0.030
498.82	0.030
499.02	0.030
499.22	0.030
499.42	0.030
499.62	0.030
499.82	0.029
500.02	0.029
500.22	0.029
500.42	0.029
500.62	0.029
500.82	0.029
501.02	0.029
501.22	0.029
501.42	0.029
501.62	0.029
501.82	0.029
502.02	0.029
502.22	0.029
502.42	0.029
502.62	0.029
502.82	0.029
503.02	0.029
503.22	0.029
503.42	0.029
503.63	0.029
503.83	0.029
504.03	0.029
504.23	0.029
504.43	0.029
504.63	0.030
504.83	0.030
505.03	0.030
505.23	0.030
505.43	0.030
505.63	0.030
505.83	0.030
506.03	0.030
506.23	0.030
506.43	0.030
506.63	0.030
506.83	0.030
507.03	0.030
507.23	0.030
507.43	0.030
507.63	0.030
507.83	0.030
508.03	0.030
508.23	0.029
508.43	0.029
508.63	0.030
508.83	0.030
509.03	0.030
509.23	0.030
509.43	0.030
509.63	0.030
509.83	0.030
510.03	0.030
510.23	0.030
510.43	0.030
510.63	0.030
510.83	0.030
511.03	0.029
511.23	0.029
511.43	0.029
511.63	0.029
511.83	0.029
512.03	0.030
512.22	0.029
512.42	0.030
512.62	0.030
512.82	0.030
513.02	0.030
513.22	0.030
513.42	0.030
513.62	0.030
513.82	0.030
514.02	0.030
514.22	0.030
514.42	0.030
514.62	0.030
514.82	0.030
515.02	0.030
515.22	0.029
515.42	0.029
515.62	0.030
515.82	0.029
516.02	0.029
516.22	0.029
516.42	0.029
516.62	0.029
516.82	0.029
517.01	0.029
517.21	0.029
517.41	0.029
517.61	0.030
517.81	0.030
518.01	0.030
518.21	0.030
518.41	0.030
518.61	0.030
518.81	0.030
519.01	0.030
519.21	0.030
519.41	0.030
519.61	0.030
519.81	0.030
520.00	0.030
520.20	0.030
520.40	0.030
520.60	0.030
520.80	0.030
521.00	0.030
521.20	0.030
521.40	0.030
521.60	0.030
521.80	0.030
522.00	0.030
522.20	0.030
522.39	0.030
522.59	0.029
522.79	0.029
522.99	0.029
523.19	0.030
523.39	0.029
523.59	0.029
523.79	0.029
523.99	0.029
524.19	0.029
524.38	0.029
524.58	0.029
524.78	0.029
524.98	0.029
525.18	0.029
525.38	0.029
525.58	0.029
525.78	0.029
525.98	0.029
526.18	0.029
526.37	0.029
526.57	0.029
526.77	0.029
526.97	0.029
527.17	0.029
527.37	0.029
527.57	0.029
527.77	0.029
527.96	0.029
528.16	0.029
528.36	0.029
528.56	0.029
528.76	0.029
528.96	0.029
529.16	0.029
529.36	0.029
529.55	0.029
529.75	0.029
529.95	0.029
530.15	0.029
530.35	0.029
530.55	0.029
530.75	0.030
530.94	0.030
531.14	0.030
531.34	0.029
531.54	0.029
531.74	0.029
531.94	0.029
532.13	0.029
532.33	0.029
532.53	0.029
532.73	0.029
532.93	0.029
533.13	0.029
533.33	0.029
533.52	0.029
533.72	0.029
533.92	0.029
534.12	0.029
534.32	0.029
534.52	0.029
534.71	0.029
534.91	0.029
535.11	0.029
535.31	0.029
535.51	0.029
535.71	0.029
535.90	0.029
536.10	0.029
536.30	0.029
536.50	0.029
536.70	0.029
536.89	0.029
537.09	0.029
537.29	0.029
537.49	0.029
537.69	0.029
537.89	0.029
538.08	0.029
538.28	0.029
538.48	0.029
538.68	0.029
538.88	0.029
539.07	0.029
539.27	0.029
539.47	0.029
539.67	0.029
539.87	0.029
540.06	0.029
540.26	0.029
540.46	0.029
540.66	0.029
540.86	0.029
541.05	0.029
541.25	0.030
541.45	0.030
541.65	0.029
541.84	0.029
542.04	0.029
542.24	0.029
542.44	0.029
542.64	0.029
542.83	0.029
543.03	0.029
543.23	0.029
543.43	0.029
543.62	0.029
543.82	0.029
544.02	0.029
544.22	0.029
544.42	0.029
544.61	0.029
544.81	0.029
545.01	0.029
545.21	0.028
545.40	0.029
545.60	0.029
545.80	0.029
546.00	0.029
546.19	0.029
546.39	0.029
546.59	0.029
546.79	0.029
546.98	0.029
547.18	0.029
547.38	0.029
547.58	0.029
547.77	0.029
547.97	0.029
548.17	0.029
548.37	0.029
548.56	0.029
548.76	0.029
548.96	0.029
549.16	0.029
549.35	0.030
549.55	0.030
549.75	0.029
549.95	0.029
550.14	0.029
550.34	0.029
550.54	0.029
550.73	0.029
550.93	0.029
551.13	0.029
551.33	0.029
551.52	0.029
551.72	0.029
551.92	0.029
552.12	0.029
552.31	0.029
552.51	0.029
552.71	0.029
552.90	0.029
553.10	0.029
553.30	0.029
553.50	0.029
553.69	0.029
553.89	0.029
554.09	0.029
554.28	0.029
554.48	0.029
554.68	0.029
554.87	0.029
555.07	0.029
555.27	0.029
555.47	0.029
555.66	0.029
555.86	0.029
556.06	0.029
556.25	0.029
556.45	0.030
556.65	0.030
556.84	0.030
557.04	0.030
557.24	0.030
557.43	0.030
557.63	0.030
557.83	0.030
558.02	0.029
558.22	0.029
558.42	0.029
558.61	0.029
558.81	0.028
559.01	0.028
559.21	0.028
559.40	0.028
559.60	0.028
559.80	0.028
559.99	0.028
560.19	0.028
560.39	0.028
560.58	0.028
560.78	0.028
560.97	0.028
561.17	0.028
561.37	0.028
561.56	0.028
561.76	0.028
561.96	0.028
562.15	0.029
562.35	0.029
562.55	0.029
562.74	0.029
562.94	0.029
563.14	0.029
563.33	0.029
563.53	0.029
563.73	0.029
563.92	0.029
564.12	0.029
564.31	0.029
564.51	0.029
564.71	0.029
564.90	0.029
565.10	0.028
565.30	0.028
565.49	0.028
565.69	0.028
565.89	0.028
566.08	0.028
566.28	0.028
566.47	0.028
566.67	0.028
566.87	0.028
567.06	0.028
567.26	0.027
567.46	0.027
567.65	0.027
567.85	0.027
568.04	0.027
568.24	0.027
568.44	0.027
568.63	0.027
568.83	0.026
569.02	0.026
569.22	0.026
569.42	0.026
569.61	0.026
569.81	0.026
570.00	0.026
570.20	0.026
570.40	0.026
570.59	0.026
570.79	0.026
570.98	0.026
571.18	0.026
571.38	0.026
571.57	0.026
571.77	0.026
571.96	0.026
572.16	0.027
572.35	0.027
572.55	0.027
572.75	0.027
572.94	0.027
573.14	0.028
573.33	0.028
573.53	0.028
573.73	0.028
573.92	0.028
574.12	0.028
574.31	0.028
574.51	0.028
574.70	0.027
574.90	0.025
575.09	0.023
575.29	0.021
575.49	0.019
575.68	0.016
575.88	0.014
576.07	0.011
576.27	0.009
576.46	0.007
576.66	0.004
576.86	0.003
577.05	0.002
577.25	0.001
577.44	0.001
577.64	0.001
577.83	0.000
578.03	0.000
578.22	0.000
578.42	0.000
578.61	-0.000
578.81	-0.000
579.00	-0.000
579.20	-0.000
579.40	-0.000
579.59	-0.000
579.79	-0.000
579.98	-0.000
580.18	-0.000
580.37	-0.000
580.57	-0.000
580.76	-0.000
580.96	-0.000
581.15	-0.000
581.35	-0.000
581.54	-0.000
581.74	-0.000
581.93	-0.000
582.13	-0.000
582.32	-0.000
582.52	-0.000
582.71	-0.000
582.91	-0.000
583.10	-0.000
583.30	0.001
583.49	0.002
583.69	0.003
583.88	0.004
584.08	0.006
584.27	0.008
584.47	0.009
584.66	0.010
584.86	0.012
585.05	0.013
585.25	0.013
585.44	0.013
585.64	0.013
585.83	0.012
586.03	0.012
586.22	0.013
586.42	0.014
586.61	0.015
586.81	0.017
587.00	0.018
587.20	0.020
587.39	0.022
587.59	0.024
587.78	0.026
587.98	0.028
588.17	0.029
588.37	0.030
588.56	0.029
588.76	0.029
588.95	0.029
589.15	0.029
589.34	0.028
589.54	0.028
589.73	0.028
589.92	0.027
590.12	0.027
590.31	0.027
590.51	0.027
590.70	0.026
590.90	0.026
591.09	0.026
591.29	0.026
591.48	0.026
591.68	0.026
591.87	0.026
592.06	0.027
592.26	0.027
592.45	0.027
592.65	0.027
592.84	0.027
593.04	0.027
593.23	0.027
593.43	0.027
593.62	0.027
593.81	0.028
594.01	0.028
594.20	0.028
594.40	0.028
594.59	0.029
594.79	0.029
594.98	0.029
595.17	0.029
595.37	0.029
595.56	0.028
595.76	0.028
595.95	0.028
596.14	0.027
596.34	0.027
596.53	0.027
596.73	0.026
596.92	0.026
597.12	0.025
597.31	0.025
597.50	0.025
597.70	0.025
597.89	0.025
598.09	0.025
598.28	0.025
598.47	0.026
598.67	0.026
598.86	0.026
599.06	0.026
599.25	0.026
599.44	0.027
599.64	0.027
599.83	0.027
600.03	0.027
600.22	0.028
600.41	0.028
600.61	0.028
600.80	0.028
601.00	0.028
601.19	0.028
601.38	0.028
601.58	0.029
601.77	0.029
601.96	0.028
602.16	0.028
602.35	0.028
602.55	0.028
602.74	0.028
602.93	0.027
603.13	0.027
603.32	0.027
603.51	0.026
603.71	0.026
603.90	0.026
604.09	0.026
604.29	0.025
604.48	0.025
604.68	0.025
604.87	0.026
605.06	0.026
605.26	0.026
605.45	0.026
605.64	0.026
605.84	0.026
606.03	0.026
606.22	0.027
606.42	0.027
606.61	0.027
606.80	0.027
607.00	0.027
607.19	0.027
607.38	0.027
607.58	0.027
607.77	0.028
607.96	0.028
608.16	0.028
608.35	0.028
608.54	0.028
608.74	0.028
608.93	0.029
609.12	0.029
609.32	0.028
609.51	0.029
609.70	0.029
609.90	0.029
610.09	0.028
610.28	0.028
610.48	0.028
610.67	0.028
610.86	0.028
611.06	0.028
611.25	0.028
611.44	0.027
611.64	0.027
611.83	0.027
612.02	0.027
612.21	0.027
612.41	0.027
612.60	0.027
612.79	0.027
612.99	0.027
613.18	0.027
613.37	0.027
613.57	0.027
613.76	0.027
613.95	0.027
614.14	0.027
614.34	0.027
614.53	0.028
614.72	0.028
614.92	0.028
615.11	0.028
615.30	0.028
615.49	0.028
615.69	0.028
615.88	0.028
616.07	0.028
616.26	0.029
616.46	0.029
616.65	0.029
616.84	0.029
617.04	0.029
617.23	0.029
617.42	0.029
617.61	0.029
617.81	0.029
618.00	0.029
618.19	0.029
618.38	0.029
618.58	0.028
618.77	0.028
618.96	0.028
619.15	0.028
619.35	0.028
619.54	0.028
619.73	0.028
619.92	0.028
620.12	0.028
620.31	0.028
620.50	0.028
620.69	0.028
620.89	0.028
621.08	0.028
621.27	0.028
621.46	0.028
621.66	0.028
621.85	0.028
622.04	0.028
622.23	0.028
622.43	0.028
622.62	0.028
622.81	0.028
623.00	0.028
623.19	0.028
623.39	0.028
623.58	0.028
623.77	0.028
623.96	0.028
624.16	0.028
624.35	0.028
624.54	0.028
624.73	0.028
624.92	0.028
625.12	0.028
625.31	0.028
625.50	0.028
625.69	0.028
625.88	0.029
626.08	0.029
626.27	0.029
626.46	0.029
626.65	0.029
626.84	0.029
627.04	0.029
627.23	0.029
627.42	0.029
627.61	0.029
627.80	0.029
628.00	0.029
628.19	0.029
628.38	0.029
628.57	0.029
628.76	0.029
628.96	0.029
629.15	0.029
629.34	0.029
629.53	0.029
629.72	0.029
629.91	0.029
630.11	0.029
630.30	0.029
630.49	0.029
630.68	0.029
630.87	0.029
631.06	0.029
631.26	0.030
631.45	0.030
631.64	0.030
631.83	0.030
632.02	0.030
632.21	0.030
632.41	0.030
632.60	0.030
632.79	0.030
632.98	0.029
633.17	0.029
633.36	0.029
633.55	0.029
633.75	0.029
633.94	0.029
634.13	0.029
634.32	0.029
634.51	0.029
634.70	0.029
634.89	0.029
635.09	0.029
635.28	0.029
635.47	0.029
635.66	0.029
635.85	0.030
636.04	0.029
636.23	0.029
636.43	0.029
636.62	0.029
636.81	0.029
637.00	0.029
637.19	0.029
637.38	0.029
637.57	0.029
637.76	0.029
637.95	0.029
638.15	0.029
638.34	0.029
638.53	0.029
638.72	0.030
638.91	0.030
639.10	0.030
639.29	0.030
639.48	0.030
639.67	0.030
639.87	0.030
640.06	0.030
640.25	0.030
640.44	0.030
640.63	0.030
640.82	0.030
641.01	0.030
641.20	0.030
641.39	0.030
641.58	0.030
641.78	0.030
641.97	0.030
642.16	0.029
642.35	0.030
642.54	0.029
642.73	0.029
642.92	0.029
643.11	0.029
643.30	0.029
643.49	0.029
643.68	0.029
643.87	0.029
644.06	0.029
644.25	0.029
644.45	0.029
644.64	0.030
644.83	0.030
645.02	0.030
645.21	0.029
645.40	0.030
645.59	0.029
645.78	0.029
645.97	0.029
646.16	0.029
646.35	0.029
646.54	0.028
646.73	0.028
646.92	0.028
647.11	0.028
647.30	0.028
647.49	0.028
647.68	0.028
647.88	0.028
648.07	0.028
648.26	0.028
648.45	0.028
648.64	0.028
648.83	0.028
649.02	0.028
649.21	0.028
649.40	0.029
649.59	0.029
649.78	0.029
649.97	0.029
650.16	0.029
650.35	0.029
650.54	0.029
650.73	0.029
650.92	0.029
651.11	0.030
651.30	0.029
651.49	0.029
651.68	0.029
651.87	0.030
652.06	0.029
652.25	0.029
652.44	0.029
652.63	0.028
652.82	0.026
653.01	0.025
653.20	0.024
653.39	0.023
653.58	0.023
653.77	0.023
653.96	0.022
654.15	0.022
654.34	0.022
654.53	0.022
654.72	0.023
654.91	0.024
655.10	0.025
655.29	0.025
655.48	0.025
655.67	0.026
655.86	0.026
656.05	0.026
656.24	0.026
656.43	0.026
656.62	0.026
656.81	0.027
657.00	0.028
657.19	0.029
657.38	0.030
657.57	0.031
657.76	0.031
657.95	0.032
658.14	0.033
658.33	0.033
658.51	0.034
658.70	0.034
658.89	0.034
659.08	0.033
659.27	0.032
659.46	0.031
659.65	0.031
659.84	0.030
660.03	0.030
660.22	0.030
660.41	0.030
660.60	0.030
660.79	0.030
660.98	0.030
661.17	0.030
661.36	0.030
661.55	0.030
661.74	0.029
661.92	0.029
662.11	0.029
662.30	0.029
662.49	0.029
662.68	0.029
662.87	0.029
663.06	0.029
663.25	0.029
663.44	0.029
663.63	0.029
663.82	0.029
664.01	0.029
664.20	0.029
664.38	0.029
664.57	0.029
664.76	0.029
664.95	0.029
665.14	0.029
665.33	0.029
665.52	0.029
665.71	0.029
665.90	0.029
666.09	0.029
666.28	0.029
666.46	0.029
666.65	0.029
666.84	0.029
667.03	0.029
667.22	0.029
667.41	0.029
667.60	0.029
667.79	0.029
667.98	0.029
668.16	0.029
668.35	0.029
668.54	0.028
668.73	0.028
668.92	0.028
669.11	0.028
669.30	0.028
669.49	0.028
669.67	0.028
669.86	0.028
670.05	0.028
670.24	0.028
670.43	0.028
670.62	0.028
670.81	0.028
671.00	0.028
671.18	0.028
671.37	0.028
671.56	0.028
671.75	0.028
671.94	0.028
672.13	0.028
672.32	0.028
672.50	0.028
672.69	0.028
672.88	0.028
673.07	0.028
673.26	0.028
673.45	0.029
673.63	0.029
673.82	0.029
674.01	0.029
674.20	0.029
674.39	0.029
674.58	0.029
674.76	0.029
674.95	0.029
675.14	0.029
675.33	0.029
675.52	0.029
675.71	0.029
675.89	0.029
676.08	0.029
676.27	0.029
676.46	0.029
676.65	0.029
676.84	0.029
677.02	0.029
677.21	0.029
677.40	0.029
677.59	0.029
677.78	0.029
677.96	0.029
678.15	0.029
678.34	0.029
678.53	0.029
678.72	0.029
678.90	0.029
679.09	0.029
679.28	0.029
679.47	0.028
679.66	0.029
679.84	0.029
680.03	0.029
680.22	0.029
680.41	0.029
680.60	0.029
680.78	0.028
680.97	0.028
681.16	0.028
681.35	0.029
681.53	0.028
681.72	0.028
681.91	0.028
682.10	0.028
682.29	0.028
682.47	0.028
682.66	0.028
682.85	0.028
683.04	0.028
683.22	0.028
683.41	0.028
683.60	0.028
683.79	0.028
683.97	0.028
684.16	0.028
684.35	0.028
684.54	0.028
684.72	0.028
684.91	0.028
685.10	0.028
685.29	0.028
685.47	0.028
685.66	0.028
685.85	0.028
686.04	0.028
686.22	0.028
686.41	0.028
686.60	0.028
686.79	0.028
686.97	0.028
687.16	0.028
687.35	0.028
687.54	0.028
687.72	0.028
687.91	0.028
688.10	0.028
688.29	0.028
688.47	0.028
688.66	0.028
688.85	0.028
689.03	0.028
689.22	0.028
689.41	0.028
689.60	0.028
689.78	0.028
689.97	0.028
690.16	0.028
690.34	0.028
690.53	0.028
690.72	0.028
690.91	0.028
691.09	0.028
691.28	0.028
691.47	0.028
691.65	0.028
691.84	0.028
692.03	0.028
692.21	0.028
692.40	0.028
692.59	0.028
692.77	0.028
692.96	0.029
693.15	0.029
693.34	0.029
693.52	0.029
693.71	0.029
693.90	0.029
694.08	0.028
694.27	0.028
694.46	0.029
694.64	0.028
694.83	0.028
695.02	0.028
695.20	0.028
695.39	0.028
695.58	0.028
695.76	0.028
695.95	0.028
696.14	0.028
696.32	0.028
696.51	0.028
696.70	0.028
696.88	0.028
697.07	0.028
697.26	0.028
697.44	0.028
697.63	0.028
697.81	0.028
698.00	0.028
698.19	0.028
698.37	0.028
698.56	0.029
698.75	0.029
698.93	0.029
699.12	0.029
699.31	0.029
699.49	0.029
699.68	0.029
699.87	0.029
700.05	0.029
700.24	0.029
700.42	0.029
700.61	0.029
700.80	0.029
700.98	0.028
701.17	0.028
701.36	0.028
701.54	0.028
701.73	0.029
701.91	0.029
702.10	0.029
702.29	0.029
702.47	0.029
702.66	0.029
702.84	0.029
703.03	0.029
703.22	0.029
703.40	0.029
703.59	0.029
703.77	0.029
703.96	0.029
704.15	0.029
704.33	0.028
704.52	0.029
704.70	0.029
704.89	0.029
705.08	0.029
705.26	0.029
705.45	0.028
705.63	0.028
705.82	0.028
706.00	0.028
706.19	0.028
706.38	0.028
706.56	0.028
706.75	0.027
706.93	0.027
707.12	0.027
707.30	0.027
707.49	0.027
707.68	0.028
707.86	0.027
708.05	0.027
708.23	0.027
708.42	0.028
708.60	0.028
708.79	0.028
708.98	0.028
709.16	0.028
709.35	0.028
709.53	0.028
709.72	0.028
709.90	0.029
710.09	0.029
710.27	0.029
710.46	0.029
710.64	0.029
710.83	0.029
711.02	0.029
711.20	0.029
711.39	0.028
711.57	0.028
711.76	0.028
711.94	0.028
712.13	0.028
712.31	0.028
712.50	0.028
712.68	0.028
712.87	0.028
713.05	0.028
713.24	0.028
713.42	0.028
713.61	0.028
713.79	0.028
713.98	0.028
714.16	0.028
714.35	0.028
714.54	0.028
714.72	0.028
714.91	0.028
715.09	0.028
715.28	0.028
715.46	0.029
715.65	0.028
715.83	0.028
716.02	0.028
716.20	0.028
716.39	0.028
716.57	0.028
716.76	0.028
716.94	0.028
717.12	0.028
717.31	0.028
717.49	0.028
717.68	0.028
717.86	0.027
718.05	0.027
718.23	0.027
718.42	0.027
718.60	0.027
718.79	0.027
718.97	0.027
719.16	0.027
719.34	0.027
719.53	0.027
719.71	0.027
719.90	0.027
720.08	0.028
720.27	0.028
720.45	0.028
720.63	0.028
720.82	0.028
721.00	0.028
721.19	0.028
721.37	0.028
721.56	0.028
721.74	0.028
721.93	0.028
722.11	0.028
722.30	0.028
722.48	0.028
722.66	0.028
722.85	0.028
723.03	0.028
723.22	0.028
723.40	0.028
723.59	0.028
723.77	0.028
723.95	0.028
724.14	0.027
724.32	0.027
724.51	0.027
724.69	0.027
724.88	0.027
725.06	0.027
725.24	0.026
725.43	0.026
725.61	0.026
725.80	0.026
725.98	0.025
726.16	0.025
726.35	0.025
726.53	0.025
726.72	0.025
726.90	0.025
727.09	0.025
727.27	0.025
727.45	0.025
727.64	0.025
727.82	0.026
728.01	0.026
728.19	0.026
728.37	0.026
728.56	0.026
728.74	0.026
728.92	0.026
729.11	0.026
729.29	0.027
729.48	0.027
729.66	0.027
729.84	0.026
730.03	0.026
730.21	0.026
730.40	0.026
730.58	0.026
730.76	0.026
730.95	0.026
731.13	0.026
731.31	0.026
731.50	0.026
731.68	0.026
731.86	0.026
732.05	0.026
732.23	0.026
732.42	0.026
732.60	0.026
732.78	0.026
732.97	0.026
733.15	0.025
733.33	0.025
733.52	0.025
733.70	0.024
733.88	0.024
734.07	0.024
734.25	0.024
734.43	0.024
734.62	0.024
734.80	0.024
734.98	0.023
735.17	0.023
735.35	0.023
735.53	0.023
735.72	0.023
735.90	0.023
736.08	0.024
736.27	0.023
736.45	0.023
736.63	0.023
736.82	0.023
737.00	0.022
737.18	0.023
737.37	0.022
737.55	0.023
737.73	0.022
737.92	0.022
738.10	0.021
738.28	0.022
738.46	0.022
738.65	0.021
738.83	0.021
739.01	0.022
739.20	0.022
739.38	0.022
739.56	0.022
739.75	0.022
739.93	0.022
740.11	0.022
740.29	0.022
740.48	0.022
740.66	0.022
740.84	0.023
741.03	0.022
741.21	0.022
741.39	0.023
741.57	0.023
741.76	0.022
741.94	0.022
742.12	0.022
742.31	0.021
742.49	0.022
742.67	0.022
742.85	0.022
743.04	0.021
743.22	0.021
743.40	0.021
743.58	0.021
743.77	0.021
743.95	0.021
744.13	0.022
744.31	0.022
744.50	0.022
744.68	0.022
744.86	0.023
745.04	0.023
745.23	0.023
745.41	0.023
745.59	0.023
745.77	0.023
745.96	0.023
746.14	0.023
746.32	0.022
746.50	0.023
746.69	0.022
746.87	0.022
747.05	0.022
747.23	0.022
747.42	0.022
747.60	0.023
747.78	0.023
747.96	0.023
748.14	0.023
748.33	0.023
748.51	0.023
748.69	0.024
748.87	0.024
749.06	0.024
749.24	0.024
749.42	0.024
749.60	0.024
749.78	0.024
749.97	0.024
750.15	0.024
750.33	0.024
750.51	0.024
750.69	0.023
750.88	0.023
751.06	0.023
751.24	0.023
751.42	0.023
751.60	0.023
751.79	0.024
751.97	0.023
752.15	0.023
752.33	0.023
752.51	0.023
752.69	0.023
752.88	0.023
753.06	0.024
753.24	0.024
753.42	0.024
753.60	0.024
753.78	0.023
753.97	0.023
754.15	0.023
754.33	0.023
754.51	0.023
754.69	0.022
754.87	0.022
755.06	0.021
755.24	0.021
755.42	0.021
755.60	0.021
755.78	0.021
755.96	0.022
756.15	0.022
756.33	0.022
756.51	0.022
756.69	0.022
756.87	0.023
757.05	0.023
757.23	0.023
757.42	0.022
757.60	0.022
757.78	0.022
757.96	0.022
758.14	0.022
758.32	0.023
758.50	0.023
758.69	0.023
758.87	0.023
759.05	0.024
759.23	0.024
759.41	0.024
759.59	0.025
759.77	0.025
759.95	0.024
760.13	0.024
760.32	0.024
760.50	0.025
760.68	0.025
760.86	0.025
761.04	0.025
761.22	0.025
761.40	0.025
761.58	0.024
761.76	0.025
761.95	0.025
762.13	0.025
762.31	0.025
762.49	0.025
762.67	0.025
762.85	0.024
763.03	0.024
763.21	0.025
763.39	0.024
763.57	0.025
763.75	0.024
763.94	0.024
764.12	0.024
764.30	0.023
764.48	0.024
764.66	0.024
764.84	0.024
765.02	0.024
765.20	0.023
765.38	0.023
765.56	0.023
765.74	0.023
765.92	0.023
766.10	0.023
766.28	0.023
766.46	0.023
766.65	0.024
766.83	0.024
767.01	0.024
767.19	0.024
767.37	0.024
767.55	0.025
767.73	0.026
767.91	0.025
768.09	0.026
768.27	0.026
768.45	0.026
768.63	0.026
768.81	0.025
768.99	0.026
769.17	0.026
769.35	0.026
769.53	0.026
769.71	0.026
769.89	0.026
770.07	0.026
770.25	0.026
770.43	0.027
770.61	0.026
770.79	0.027
770.97	0.026
771.15	0.026
771.33	0.026
771.51	0.026
771.69	0.027
771.87	0.027
772.05	0.027
772.24	0.026
772.42	0.026
772.60	0.026
772.78	0.026
772.96	0.027
773.14	0.027
773.32	0.027
773.49	0.027
773.67	0.027
773.85	0.026
774.03	0.026
774.21	0.027
774.39	0.026
774.57	0.026
774.75	0.026
774.93	0.026
775.11	0.026
775.29	0.026
775.47	0.026
775.65	0.025
775.83	0.026
776.01	0.026
776.19	0.026
776.37	0.026
776.55	0.026
776.73	0.026
776.91	0.025
777.09	0.026
777.27	0.025
777.45	0.026
777.63	0.025
777.81	0.025
777.99	0.025
778.17	0.025
778.35	0.025
778.53	0.025
778.71	0.025
778.89	0.025
779.07	0.025
779.24	0.025
779.42	0.024
779.60	0.025
779.78	0.025
779.96	0.025
780.14	0.025
780.32	0.024
780.50	0.024
780.68	0.024
780.86	0.024
781.04	0.025
781.22	0.026
781.40	0.026
781.58	0.026
781.75	0.026
781.93	0.026
782.11	0.027
782.29	0.027
782.47	0.027
782.65	0.028
782.83	0.028
783.01	0.028
783.19	0.028
783.37	0.027
783.55	0.027
783.72	0.027
783.90	0.027
784.08	0.027
784.26	0.027
784.44	0.027
784.62	0.027
784.80	0.027
784.98	0.027
785.16	0.027
785.33	0.027
785.51	0.027
785.69	0.027
785.87	0.027
786.05	0.027
786.23	0.027
786.41	0.027
786.59	0.026
786.77	0.027
786.94	0.026
787.12	0.026
787.30	0.026
787.48	0.026
787.66	0.026
787.84	0.026
788.02	0.027
788.19	0.026
788.37	0.027
788.55	0.027
788.73	0.026
788.91	0.027
789.09	0.027
789.27	0.028
789.44	0.028
789.62	0.027
789.80	0.027
789.98	0.027
790.16	0.027
790.34	0.027
790.51	0.027
790.69	0.027
790.87	0.027
791.05	0.027
791.23	0.027
791.41	0.027
791.58	0.027
791.76	0.027
791.94	0.027
792.12	0.027
792.30	0.027
792.48	0.027
792.65	0.027
792.83	0.027
793.01	0.027
793.19	0.027
793.37	0.027
793.54	0.027
793.72	0.027
793.90	0.027
794.08	0.027
794.26	0.027
794.43	0.027
794.61	0.027
794.79	0.027
794.97	0.027
795.15	0.027
795.32	0.027
795.50	0.027
795.68	0.028
795.86	0.028
796.04	0.028
796.21	0.028
796.39	0.028
796.57	0.028
796.75	0.028
796.92	0.028
797.10	0.028
797.28	0.028
797.46	0.027
797.64	0.027
797.81	0.027
797.99	0.026
798.17	0.027
798.35	0.028
798.52	0.027
798.70	0.027
798.88	0.027
799.06	0.027
799.23	0.027
799.41	0.027
799.59	0.028
799.77	0.028
799.94	0.028
800.12	0.028
800.30	0.027
800.48	0.027
800.65	0.027
800.83	0.027
801.01	0.027
801.19	0.027
801.36	0.027
801.54	0.027
801.72	0.027
801.90	0.027
802.07	0.027
802.25	0.027
802.43	0.027
802.60	0.028
802.78	0.028
802.96	0.028
803.14	0.027
803.31	0.027
803.49	0.027
803.67	0.027
803.84	0.027
804.02	0.027
804.20	0.028
804.38	0.028
804.55	0.027
804.73	0.027
804.91	0.028
805.08	0.028
805.26	0.028
805.44	0.028
805.61	0.029
805.79	0.029
805.97	0.029
806.15	0.028
806.32	0.028
806.50	0.028
806.68	0.028
806.85	0.028
807.03	0.028
807.21	0.027
807.38	0.027
807.56	0.027
807.74	0.027
807.91	0.027
808.09	0.027
808.27	0.027
808.44	0.027
808.62	0.028
808.80	0.028
808.97	0.028
809.15	0.028
809.33	0.028
809.50	0.028
809.68	0.028
809.86	0.028
810.03	0.028
810.21	0.028
810.39	0.028
810.56	0.028
810.74	0.028
810.91	0.028
811.09	0.027
811.27	0.027
811.44	0.027
811.62	0.027
811.80	0.027
811.97	0.026
812.15	0.027
812.33	0.027
812.50	0.027
812.68	0.027
812.85	0.026
813.03	0.027
813.21	0.027
813.38	0.027
813.56	0.027
813.74	0.027
813.91	0.027
814.09	0.027
814.26	0.027
814.44	0.027
814.62	0.027
814.79	0.027
814.97	0.027
815.14	0.027
815.32	0.027
815.50	0.027
815.67	0.027
815.85	0.028
816.02	0.028
816.20	0.028
816.38	0.028
816.55	0.028
816.73	0.028
816.90	0.028
817.08	0.027
817.26	0.028
817.43	0.027
817.61	0.027
817.78	0.027
817.96	0.027
818.13	0.027
818.31	0.027
818.49	0.026
818.66	0.026
818.84	0.026
819.01	0.026
819.19	0.026
819.36	0.027
819.54	0.026
819.71	0.027
819.89	0.026
820.07	0.026
820.24	0.026
820.42	0.026
820.59	0.026
820.77	0.027
820.94	0.027
821.12	0.028
821.29	0.027
821.47	0.027
821.64	0.027
821.82	0.028
822.00	0.028
822.17	0.028
822.35	0.028
822.52	0.028
822.70	0.027
822.87	0.026
823.05	0.026
823.22	0.026
823.40	0.026
823.57	0.025
823.75	0.025
823.92	0.025
824.10	0.024
824.27	0.025
824.45	0.024
824.62	0.024
824.80	0.025
824.97	0.025
825.15	0.025
825.32	0.025
825.50	0.025
825.67	0.026
825.85	0.025
826.02	0.026
826.20	0.026
826.37	0.026
826.55	0.027
826.72	0.027
826.90	0.027
827.07	0.028
827.25	0.027
827.42	0.027
827.60	0.027
827.77	0.028
827.95	0.027
828.12	0.028
828.30	0.028
828.47	0.027
828.65	0.027
828.82	0.027
829.00	0.026
829.17	0.027
829.34	0.028
829.52	0.027
829.69	0.027
829.87	0.027
830.04	0.026
830.22	0.027
830.39	0.027
830.57	0.027
830.74	0.027
830.92	0.027
831.09	0.027
831.26	0.027
831.44	0.027
831.61	0.028
831.79	0.028
831.96	0.029
832.14	0.028
832.31	0.028
832.49	0.028
832.66	0.028
832.83	0.030
833.01	0.029
833.18	0.029
833.36	0.028
833.53	0.027
833.70	0.026
833.88	0.026
834.05	0.026
834.23	0.025
834.40	0.025
834.58	0.024
834.75	0.023
834.92	0.023
835.10	0.021
835.27	0.021
835.45	0.020
835.62	0.021
835.79	0.022
835.97	0.020
836.14	0.019
836.32	0.019
836.49	0.020
836.66	0.019
836.84	0.017
837.01	0.017
837.18	0.019
837.36	0.019
837.53	0.019
837.71	0.017
837.88	0.020
838.05	0.020
838.23	0.020
838.40	0.021
838.58	0.022
838.75	0.022
838.92	0.021
839.10	0.020
839.27	0.021
839.44	0.021
839.62	0.021
839.79	0.020
839.96	0.024
840.14	0.024
840.31	0.024
840.48	0.023
840.66	0.025
840.83	0.026
841.01	0.027
841.18	0.026
841.35	0.026
841.53	0.026
841.70	0.027
841.87	0.025
842.05	0.026
842.22	0.025
842.39	0.027
842.57	0.025
842.74	0.025
842.91	0.026
843.09	0.027
843.26	0.026
843.43	0.028
843.60	0.027
843.78	0.027
843.95	0.025
844.12	0.024
844.30	0.025
844.47	0.025
844.64	0.028
844.82	0.026
844.99	0.024
845.16	0.026
845.34	0.025
845.51	0.026
845.68	0.026
845.85	0.028
846.03	0.028
846.20	0.029
846.37	0.029
846.55	0.028
846.72	0.030
846.89	0.031
847.06	0.028
847.24	0.029
847.41	0.028
847.58	0.025
847.76	0.027
847.93	0.027
848.10	0.022
848.27	0.022
848.45	0.022
848.62	0.021
848.79	0.020
848.97	0.022
849.14	0.021
849.31	0.022
849.48	0.025
849.66	0.023
849.83	0.023
850.00	0.026
850.17	0.024
850.35	0.020
850.52	0.018
850.69	0.020
850.86	0.020
851.04	0.021
851.21	0.019
851.38	0.016
851.55	0.013
851.72	0.013
851.90	0.015
852.07	0.017
852.24	0.021
852.41	0.021
852.59	0.021
852.76	0.021
852.93	0.020
853.10	0.021
853.28	0.024
853.45	0.025
853.62	0.025
853.79	0.024
853.96	0.022
854.14	0.023
854.31	0.024
854.48	0.024
854.65	0.024
854.82	0.026
855.00	0.028
855.17	0.027
855.34	0.030
855.51	0.030
855.68	0.029
855.86	0.032
856.03	0.029
856.20	0.026
856.37	0.026
856.54	0.025
856.72	0.022
856.89	0.019
857.06	0.020
857.23	0.020
857.40	0.021
857.57	0.022
857.75	0.023
857.92	0.025
858.09	0.026
858.26	0.025
858.43	0.022
858.60	0.025
858.78	0.025
858.95	0.026
859.12	0.028
859.29	0.025
859.46	0.023
859.63	0.024
859.81	0.025
859.98	0.025
860.15	0.029
860.32	0.034
860.49	0.031
860.66	0.032
860.83	0.028
861.01	0.025
861.18	0.026
861.35	0.027
861.52	0.026
861.69	0.022
861.86	0.022
862.03	0.018
862.21	0.020
862.38	0.023
862.55	0.019
862.72	0.023
862.89	0.025
863.06	0.026
863.23	0.030
863.40	0.028
863.58	0.025
863.75	0.027
863.92	0.027
864.09	0.025
864.26	0.027
864.43	0.029
864.60	0.028
864.77	0.027
864.94	0.029
865.11	0.023
865.29	0.023
865.46	0.026
865.63	0.024
865.80	0.025
865.97	0.022
866.14	0.020
866.31	0.022
866.48	0.021
866.65	0.027
866.82	0.022
866.99	0.023
867.16	0.022
867.34	0.021
867.51	0.024
867.68	0.022
867.85	0.023
868.02	0.019
868.19	0.017
868.36	0.015
868.53	0.007
868.70	0.006
868.87	0.004
869.04	0.008
869.21	0.013
869.38	0.013
869.55	0.015
869.72	0.015
869.89	0.019
870.06	0.020
870.24	0.022
870.41	0.019
870.58	0.021
870.75	0.026
870.92	0.026
871.09	0.026
871.26	0.027
871.43	0.028
871.60	0.031
871.77	0.027
871.94	0.031
872.11	0.030
872.28	0.034
872.45	0.034
872.62	0.033
872.79	0.026
872.96	0.027
873.13	0.023
873.30	0.024
873.47	0.023
873.64	0.028
873.81	0.024
873.98	0.026
874.15	0.031
874.32	0.029
874.49	0.034
874.66	0.034
874.83	0.034
875.00	0.036
875.17	0.036
875.34	0.039
875.51	0.039
875.68	0.044
875.85	0.044
876.02	0.036
876.19	0.039
876.36	0.031
876.53	0.037
876.70	0.035
876.87	0.034
877.04	0.033
877.21	0.031
877.38	0.029
877.55	0.027
877.72	0.029
877.89	0.031
878.06	0.028
878.23	0.026
878.39	0.026
878.56	0.031
878.73	0.032
878.90	0.029
879.07	0.025
879.24	0.024
879.41	0.021
879.58	0.016
879.75	0.021
879.92	0.021
880.09	0.023
880.26	0.021
880.43	0.016
880.60	0.017
880.77	0.026
880.94	0.029
881.11	0.029
881.27	0.032
881.44	0.033
881.61	0.030
881.78	0.029
881.95	0.031
882.12	0.025
882.29	0.026
882.46	0.020
882.63	0.019
882.80	0.025
882.97	0.027
883.14	0.025
883.30	0.025
883.47	0.028
883.64	0.028
883.81	0.031
883.98	0.036
884.15	0.032
884.32	0.032
884.49	0.026
884.66	0.020
884.82	0.020
884.99	0.021
885.16	0.023
885.33	0.016
885.50	0.021
885.67	0.024
885.84	0.030
886.01	0.029
886.17	0.030
886.34	0.038
886.51	0.041
886.68	0.040
886.85	0.038
887.02	0.046
887.19	0.039
887.36	0.036
887.52	0.035
887.69	0.036
887.86	0.042
888.03	0.041
888.20	0.039
888.37	0.029
888.54	0.022
888.70	0.020
888.87	0.010
889.04	0.025
889.21	0.015
889.38	0.017
889.55	-0.002
889.71	0.030
889.88	0.071
890.05	-0.119
890.22	0.079
890.39	-0.103
>>>>>End Processed Spectral Data<<<<<
