SpectraSuite Data File
++++++++++++++++++++++++++++++++++++
Date: Mon Jun 15 05:25:04 PDT 2015
User: introlabs
Dark Spectrum Present: Yes
Reference Spectrum Present: Yes
Number of Sampled Component Spectra: 1
Spectrometers: USB4H08886
Integration Time (usec): 99009 (USB4H08886)
Spectra Averaged: 20 (USB4H08886)
Boxcar Smoothing: 5 (USB4H08886)
Correct for Electrical Dark: Yes (USB4H08886)
Strobe/Lamp Enabled: No (USB4H08886)
Correct for Detector Non-linearity: Yes (USB4H08886)
Correct for Stray Light: Yes (USB4H08886)
Number of Pixels in Processed Spectrum: 3648
>>>>>Begin Processed Spectral Data<<<<<
178.14	0.485
178.36	0.485
178.57	0.485
178.79	-0.651
179.01	0.196
179.22	-0.080
179.44	0.171
179.65	0.173
179.87	0.217
180.08	0.336
180.30	0.247
180.52	0.863
180.73	-0.000
180.95	-0.540
181.16	-0.601
181.38	-0.429
181.59	-0.382
181.81	-0.369
182.03	-0.380
182.24	-0.367
182.46	-0.369
182.67	-0.375
182.89	-0.370
183.10	-0.380
183.32	-0.371
183.54	-0.363
183.75	-0.371
183.97	-0.366
184.18	-0.362
184.40	-0.357
184.61	-0.373
184.83	-0.396
185.04	-0.392
185.26	-0.408
185.48	-0.382
185.69	-0.386
185.91	-0.383
186.12	-0.394
186.34	-0.405
186.55	-0.399
186.77	-0.391
186.98	-0.383
187.20	-0.377
187.42	-0.389
187.63	-0.392
187.85	-0.413
188.06	-0.417
188.28	-0.410
188.49	-0.404
188.71	-0.396
188.92	-0.396
189.14	-0.397
189.36	-0.395
189.57	-0.403
189.79	-0.383
190.00	-0.362
190.22	-0.355
190.43	-0.350
190.65	-0.362
190.86	-0.353
191.08	-0.351
191.29	-0.346
191.51	-0.367
191.72	-0.361
191.94	-0.349
192.16	-0.363
192.37	-0.355
192.59	-0.357
192.80	-0.367
193.02	-0.353
193.23	-0.358
193.45	-0.364
193.66	-0.376
193.88	-0.364
194.09	-0.371
194.31	-0.371
194.52	-0.367
194.74	-0.391
194.95	-0.390
195.17	-0.391
195.38	-0.407
195.60	-0.409
195.81	-0.397
196.03	-0.399
196.25	-0.393
196.46	-0.396
196.68	-0.405
196.89	-0.402
197.11	-0.395
197.32	-0.396
197.54	-0.391
197.75	-0.395
197.97	-0.384
198.18	-0.384
198.40	-0.382
198.61	-0.383
198.83	-0.374
199.04	-0.367
199.26	-0.364
199.47	-0.359
199.69	-0.360
199.90	-0.360
200.12	-0.342
200.33	-0.353
200.55	-0.359
200.76	-0.365
200.98	-0.361
201.19	-0.359
201.41	-0.366
201.62	-0.374
201.84	-0.375
202.05	-0.378
202.27	-0.368
202.48	-0.378
202.70	-0.367
202.91	-0.376
203.13	-0.369
203.34	-0.371
203.56	-0.382
203.77	-0.379
203.99	-0.373
204.20	-0.355
204.42	-0.353
204.63	-0.353
204.85	-0.347
205.06	-0.352
205.28	-0.343
205.49	-0.350
205.71	-0.363
205.92	-0.365
206.14	-0.360
206.35	-0.360
206.56	-0.368
206.78	-0.360
206.99	-0.358
207.21	-0.368
207.42	-0.374
207.64	-0.384
207.85	-0.361
208.07	-0.354
208.28	-0.354
208.50	-0.344
208.71	-0.342
208.93	-0.344
209.14	-0.355
209.36	-0.369
209.57	-0.367
209.79	-0.368
210.00	-0.359
210.22	-0.376
210.43	-0.374
210.64	-0.372
210.86	-0.384
211.07	-0.390
211.29	-0.396
211.50	-0.397
211.72	-0.390
211.93	-0.386
212.15	-0.379
212.36	-0.373
212.58	-0.372
212.79	-0.366
213.01	-0.354
213.22	-0.362
213.43	-0.359
213.65	-0.356
213.86	-0.352
214.08	-0.356
214.29	-0.349
214.51	-0.349
214.72	-0.359
214.94	-0.365
215.15	-0.369
215.36	-0.383
215.58	-0.376
215.79	-0.383
216.01	-0.394
216.22	-0.393
216.44	-0.394
216.65	-0.403
216.87	-0.409
217.08	-0.394
217.29	-0.384
217.51	-0.386
217.72	-0.373
217.94	-0.382
218.15	-0.379
218.37	-0.378
218.58	-0.385
218.80	-0.378
219.01	-0.378
219.22	-0.378
219.44	-0.387
219.65	-0.386
219.87	-0.376
220.08	-0.383
220.30	-0.381
220.51	-0.378
220.72	-0.371
220.94	-0.367
221.15	-0.383
221.37	-0.390
221.58	-0.381
221.79	-0.383
222.01	-0.395
222.22	-0.401
222.44	-0.400
222.65	-0.392
222.87	-0.391
223.08	-0.394
223.29	-0.398
223.51	-0.387
223.72	-0.375
223.94	-0.381
224.15	-0.382
224.36	-0.377
224.58	-0.395
224.79	-0.391
225.01	-0.405
225.22	-0.407
225.44	-0.419
225.65	-0.411
225.86	-0.407
226.08	-0.416
226.29	-0.414
226.51	-0.417
226.72	-0.419
226.93	-0.416
227.15	-0.424
227.36	-0.411
227.58	-0.414
227.79	-0.412
228.00	-0.412
228.22	-0.420
228.43	-0.417
228.65	-0.421
228.86	-0.425
229.07	-0.418
229.29	-0.405
229.50	-0.408
229.72	-0.414
229.93	-0.416
230.14	-0.418
230.36	-0.421
230.57	-0.418
230.78	-0.425
231.00	-0.426
231.21	-0.420
231.43	-0.433
231.64	-0.440
231.85	-0.434
232.07	-0.437
232.28	-0.433
232.50	-0.433
232.71	-0.435
232.92	-0.434
233.14	-0.432
233.35	-0.433
233.56	-0.434
233.78	-0.430
233.99	-0.433
234.21	-0.439
234.42	-0.438
234.63	-0.447
234.85	-0.448
235.06	-0.451
235.27	-0.455
235.49	-0.462
235.70	-0.465
235.91	-0.471
236.13	-0.471
236.34	-0.470
236.56	-0.469
236.77	-0.472
236.98	-0.470
237.20	-0.470
237.41	-0.469
237.62	-0.470
237.84	-0.468
238.05	-0.467
238.26	-0.463
238.48	-0.464
238.69	-0.463
238.91	-0.463
239.12	-0.462
239.33	-0.462
239.55	-0.460
239.76	-0.460
239.97	-0.459
240.19	-0.459
240.40	-0.459
240.61	-0.460
240.83	-0.459
241.04	-0.460
241.25	-0.460
241.47	-0.460
241.68	-0.459
241.89	-0.458
242.11	-0.458
242.32	-0.457
242.53	-0.457
242.75	-0.456
242.96	-0.457
243.17	-0.455
243.39	-0.455
243.60	-0.453
243.81	-0.452
244.03	-0.451
244.24	-0.451
244.45	-0.450
244.67	-0.449
244.88	-0.448
245.09	-0.448
245.31	-0.448
245.52	-0.448
245.73	-0.447
245.95	-0.447
246.16	-0.447
246.37	-0.447
246.59	-0.447
246.80	-0.446
247.01	-0.447
247.23	-0.448
247.44	-0.447
247.65	-0.446
247.87	-0.446
248.08	-0.445
248.29	-0.445
248.51	-0.445
248.72	-0.444
248.93	-0.444
249.15	-0.444
249.36	-0.444
249.57	-0.443
249.78	-0.444
250.00	-0.443
250.21	-0.443
250.42	-0.443
250.64	-0.443
250.85	-0.443
251.06	-0.443
251.28	-0.443
251.49	-0.443
251.70	-0.443
251.92	-0.443
252.13	-0.442
252.34	-0.443
252.55	-0.442
252.77	-0.442
252.98	-0.442
253.19	-0.442
253.41	-0.442
253.62	-0.441
253.83	-0.441
254.05	-0.441
254.26	-0.441
254.47	-0.440
254.68	-0.441
254.90	-0.440
255.11	-0.440
255.32	-0.440
255.54	-0.440
255.75	-0.440
255.96	-0.440
256.17	-0.440
256.39	-0.440
256.60	-0.440
256.81	-0.441
257.03	-0.440
257.24	-0.441
257.45	-0.442
257.66	-0.442
257.88	-0.442
258.09	-0.441
258.30	-0.441
258.51	-0.441
258.73	-0.441
258.94	-0.441
259.15	-0.441
259.37	-0.440
259.58	-0.440
259.79	-0.440
260.00	-0.440
260.22	-0.440
260.43	-0.440
260.64	-0.440
260.85	-0.440
261.07	-0.440
261.28	-0.440
261.49	-0.441
261.71	-0.440
261.92	-0.440
262.13	-0.440
262.34	-0.440
262.56	-0.440
262.77	-0.440
262.98	-0.440
263.19	-0.440
263.41	-0.440
263.62	-0.439
263.83	-0.439
264.04	-0.439
264.26	-0.439
264.47	-0.439
264.68	-0.439
264.89	-0.438
265.11	-0.438
265.32	-0.438
265.53	-0.438
265.74	-0.438
265.96	-0.438
266.17	-0.438
266.38	-0.437
266.59	-0.437
266.81	-0.437
267.02	-0.437
267.23	-0.437
267.44	-0.437
267.65	-0.437
267.87	-0.436
268.08	-0.436
268.29	-0.436
268.50	-0.436
268.72	-0.435
268.93	-0.435
269.14	-0.436
269.35	-0.436
269.57	-0.435
269.78	-0.435
269.99	-0.436
270.20	-0.436
270.41	-0.435
270.63	-0.435
270.84	-0.435
271.05	-0.435
271.26	-0.434
271.48	-0.433
271.69	-0.433
271.90	-0.432
272.11	-0.432
272.32	-0.431
272.54	-0.430
272.75	-0.430
272.96	-0.430
273.17	-0.429
273.39	-0.429
273.60	-0.428
273.81	-0.428
274.02	-0.429
274.23	-0.429
274.45	-0.428
274.66	-0.427
274.87	-0.427
275.08	-0.427
275.29	-0.426
275.51	-0.426
275.72	-0.425
275.93	-0.425
276.14	-0.424
276.35	-0.424
276.57	-0.423
276.78	-0.422
276.99	-0.422
277.20	-0.422
277.41	-0.421
277.63	-0.420
277.84	-0.420
278.05	-0.419
278.26	-0.419
278.47	-0.419
278.69	-0.418
278.90	-0.418
279.11	-0.417
279.32	-0.416
279.53	-0.416
279.74	-0.415
279.96	-0.415
280.17	-0.414
280.38	-0.414
280.59	-0.413
280.80	-0.413
281.02	-0.412
281.23	-0.412
281.44	-0.411
281.65	-0.411
281.86	-0.411
282.07	-0.410
282.29	-0.410
282.50	-0.409
282.71	-0.409
282.92	-0.408
283.13	-0.408
283.35	-0.407
283.56	-0.407
283.77	-0.406
283.98	-0.406
284.19	-0.405
284.40	-0.405
284.62	-0.404
284.83	-0.404
285.04	-0.403
285.25	-0.403
285.46	-0.402
285.67	-0.402
285.88	-0.401
286.10	-0.401
286.31	-0.400
286.52	-0.400
286.73	-0.399
286.94	-0.398
287.15	-0.398
287.37	-0.397
287.58	-0.397
287.79	-0.397
288.00	-0.396
288.21	-0.396
288.42	-0.395
288.63	-0.395
288.85	-0.394
289.06	-0.394
289.27	-0.393
289.48	-0.393
289.69	-0.393
289.90	-0.392
290.11	-0.392
290.33	-0.391
290.54	-0.390
290.75	-0.390
290.96	-0.390
291.17	-0.389
291.38	-0.389
291.59	-0.389
291.81	-0.388
292.02	-0.388
292.23	-0.387
292.44	-0.387
292.65	-0.387
292.86	-0.387
293.07	-0.386
293.28	-0.386
293.50	-0.385
293.71	-0.385
293.92	-0.385
294.13	-0.384
294.34	-0.384
294.55	-0.384
294.76	-0.384
294.97	-0.384
295.19	-0.383
295.40	-0.383
295.61	-0.383
295.82	-0.383
296.03	-0.382
296.24	-0.382
296.45	-0.382
296.66	-0.381
296.87	-0.381
297.09	-0.381
297.30	-0.381
297.51	-0.381
297.72	-0.380
297.93	-0.380
298.14	-0.380
298.35	-0.380
298.56	-0.380
298.77	-0.380
298.99	-0.379
299.20	-0.379
299.41	-0.379
299.62	-0.379
299.83	-0.379
300.04	-0.379
300.25	-0.378
300.46	-0.378
300.67	-0.378
300.88	-0.378
301.10	-0.377
301.31	-0.378
301.52	-0.377
301.73	-0.377
301.94	-0.377
302.15	-0.377
302.36	-0.377
302.57	-0.377
302.78	-0.376
302.99	-0.376
303.20	-0.376
303.41	-0.376
303.63	-0.375
303.84	-0.375
304.05	-0.375
304.26	-0.375
304.47	-0.375
304.68	-0.375
304.89	-0.375
305.10	-0.374
305.31	-0.374
305.52	-0.374
305.73	-0.374
305.94	-0.374
306.15	-0.374
306.37	-0.373
306.58	-0.373
306.79	-0.373
307.00	-0.373
307.21	-0.373
307.42	-0.373
307.63	-0.373
307.84	-0.373
308.05	-0.373
308.26	-0.372
308.47	-0.372
308.68	-0.372
308.89	-0.372
309.10	-0.372
309.31	-0.372
309.52	-0.372
309.73	-0.372
309.95	-0.371
310.16	-0.371
310.37	-0.371
310.58	-0.371
310.79	-0.371
311.00	-0.371
311.21	-0.370
311.42	-0.370
311.63	-0.370
311.84	-0.370
312.05	-0.369
312.26	-0.369
312.47	-0.369
312.68	-0.369
312.89	-0.369
313.10	-0.369
313.31	-0.369
313.52	-0.369
313.73	-0.369
313.94	-0.369
314.15	-0.369
314.36	-0.369
314.57	-0.368
314.78	-0.368
314.99	-0.368
315.21	-0.368
315.42	-0.368
315.63	-0.368
315.84	-0.367
316.05	-0.367
316.26	-0.367
316.47	-0.367
316.68	-0.367
316.89	-0.367
317.10	-0.367
317.31	-0.367
317.52	-0.367
317.73	-0.367
317.94	-0.367
318.15	-0.367
318.36	-0.366
318.57	-0.366
318.78	-0.366
318.99	-0.366
319.20	-0.366
319.41	-0.366
319.62	-0.366
319.83	-0.366
320.04	-0.365
320.25	-0.365
320.46	-0.365
320.67	-0.365
320.88	-0.365
321.09	-0.365
321.30	-0.366
321.51	-0.366
321.72	-0.366
321.93	-0.365
322.14	-0.365
322.35	-0.365
322.56	-0.365
322.77	-0.365
322.98	-0.364
323.19	-0.364
323.40	-0.364
323.61	-0.364
323.82	-0.364
324.03	-0.364
324.24	-0.364
324.45	-0.364
324.66	-0.363
324.87	-0.363
325.08	-0.363
325.29	-0.363
325.50	-0.363
325.71	-0.363
325.92	-0.363
326.13	-0.363
326.34	-0.363
326.55	-0.363
326.76	-0.363
326.97	-0.363
327.18	-0.363
327.39	-0.363
327.60	-0.362
327.80	-0.362
328.01	-0.362
328.22	-0.362
328.43	-0.362
328.64	-0.362
328.85	-0.362
329.06	-0.362
329.27	-0.362
329.48	-0.362
329.69	-0.362
329.90	-0.362
330.11	-0.362
330.32	-0.362
330.53	-0.361
330.74	-0.361
330.95	-0.361
331.16	-0.361
331.37	-0.361
331.58	-0.361
331.79	-0.361
332.00	-0.361
332.21	-0.360
332.42	-0.360
332.63	-0.360
332.83	-0.360
333.04	-0.360
333.25	-0.360
333.46	-0.360
333.67	-0.360
333.88	-0.360
334.09	-0.360
334.30	-0.360
334.51	-0.360
334.72	-0.360
334.93	-0.360
335.14	-0.360
335.35	-0.360
335.56	-0.360
335.77	-0.360
335.98	-0.360
336.18	-0.360
336.39	-0.360
336.60	-0.360
336.81	-0.359
337.02	-0.359
337.23	-0.359
337.44	-0.359
337.65	-0.359
337.86	-0.359
338.07	-0.359
338.28	-0.359
338.49	-0.359
338.70	-0.359
338.91	-0.359
339.11	-0.359
339.32	-0.359
339.53	-0.359
339.74	-0.359
339.95	-0.359
340.16	-0.359
340.37	-0.359
340.58	-0.359
340.79	-0.359
341.00	-0.359
341.21	-0.359
341.41	-0.358
341.62	-0.358
341.83	-0.358
342.04	-0.358
342.25	-0.358
342.46	-0.358
342.67	-0.358
342.88	-0.358
343.09	-0.358
343.30	-0.358
343.50	-0.358
343.71	-0.358
343.92	-0.358
344.13	-0.358
344.34	-0.358
344.55	-0.358
344.76	-0.358
344.97	-0.358
345.18	-0.358
345.38	-0.358
345.59	-0.358
345.80	-0.357
346.01	-0.357
346.22	-0.357
346.43	-0.357
346.64	-0.357
346.85	-0.357
347.06	-0.357
347.26	-0.357
347.47	-0.357
347.68	-0.357
347.89	-0.357
348.10	-0.357
348.31	-0.357
348.52	-0.357
348.73	-0.357
348.93	-0.357
349.14	-0.357
349.35	-0.357
349.56	-0.357
349.77	-0.357
349.98	-0.357
350.19	-0.357
350.39	-0.357
350.60	-0.357
350.81	-0.357
351.02	-0.357
351.23	-0.357
351.44	-0.357
351.65	-0.357
351.86	-0.357
352.06	-0.357
352.27	-0.356
352.48	-0.356
352.69	-0.356
352.90	-0.356
353.11	-0.356
353.31	-0.356
353.52	-0.356
353.73	-0.356
353.94	-0.356
354.15	-0.356
354.36	-0.356
354.57	-0.356
354.77	-0.356
354.98	-0.356
355.19	-0.356
355.40	-0.356
355.61	-0.356
355.82	-0.356
356.02	-0.356
356.23	-0.355
356.44	-0.355
356.65	-0.355
356.86	-0.355
357.07	-0.355
357.27	-0.355
357.48	-0.355
357.69	-0.355
357.90	-0.355
358.11	-0.355
358.32	-0.355
358.52	-0.355
358.73	-0.355
358.94	-0.355
359.15	-0.355
359.36	-0.355
359.56	-0.355
359.77	-0.355
359.98	-0.355
360.19	-0.355
360.40	-0.355
360.61	-0.355
360.81	-0.354
361.02	-0.354
361.23	-0.354
361.44	-0.354
361.65	-0.354
361.85	-0.353
362.06	-0.353
362.27	-0.353
362.48	-0.353
362.69	-0.353
362.89	-0.353
363.10	-0.353
363.31	-0.353
363.52	-0.352
363.73	-0.352
363.93	-0.352
364.14	-0.352
364.35	-0.351
364.56	-0.351
364.77	-0.350
364.97	-0.350
365.18	-0.349
365.39	-0.349
365.60	-0.348
365.81	-0.347
366.01	-0.347
366.22	-0.346
366.43	-0.345
366.64	-0.345
366.84	-0.345
367.05	-0.344
367.26	-0.343
367.47	-0.344
367.68	-0.343
367.88	-0.343
368.09	-0.343
368.30	-0.343
368.51	-0.343
368.71	-0.342
368.92	-0.342
369.13	-0.343
369.34	-0.343
369.55	-0.343
369.75	-0.344
369.96	-0.345
370.17	-0.345
370.38	-0.346
370.58	-0.346
370.79	-0.347
371.00	-0.347
371.21	-0.348
371.41	-0.348
371.62	-0.348
371.83	-0.348
372.04	-0.348
372.24	-0.348
372.45	-0.348
372.66	-0.348
372.87	-0.348
373.07	-0.348
373.28	-0.348
373.49	-0.348
373.70	-0.348
373.90	-0.348
374.11	-0.348
374.32	-0.348
374.53	-0.348
374.73	-0.348
374.94	-0.348
375.15	-0.348
375.36	-0.348
375.56	-0.347
375.77	-0.347
375.98	-0.347
376.19	-0.347
376.39	-0.347
376.60	-0.346
376.81	-0.346
377.02	-0.346
377.22	-0.345
377.43	-0.344
377.64	-0.344
377.84	-0.343
378.05	-0.343
378.26	-0.342
378.47	-0.341
378.67	-0.341
378.88	-0.340
379.09	-0.339
379.30	-0.339
379.50	-0.339
379.71	-0.338
379.92	-0.338
380.12	-0.338
380.33	-0.338
380.54	-0.338
380.75	-0.339
380.95	-0.339
381.16	-0.340
381.37	-0.340
381.57	-0.341
381.78	-0.341
381.99	-0.342
382.20	-0.343
382.40	-0.343
382.61	-0.344
382.82	-0.345
383.02	-0.345
383.23	-0.346
383.44	-0.346
383.64	-0.346
383.85	-0.346
384.06	-0.347
384.27	-0.347
384.47	-0.347
384.68	-0.347
384.89	-0.347
385.09	-0.347
385.30	-0.347
385.51	-0.347
385.71	-0.347
385.92	-0.347
386.13	-0.346
386.33	-0.346
386.54	-0.346
386.75	-0.345
386.95	-0.345
387.16	-0.345
387.37	-0.345
387.58	-0.345
387.78	-0.345
387.99	-0.345
388.20	-0.345
388.40	-0.345
388.61	-0.345
388.82	-0.345
389.02	-0.345
389.23	-0.345
389.44	-0.344
389.64	-0.345
389.85	-0.344
390.06	-0.344
390.26	-0.343
390.47	-0.343
390.68	-0.342
390.88	-0.341
391.09	-0.340
391.30	-0.339
391.50	-0.337
391.71	-0.337
391.92	-0.335
392.12	-0.334
392.33	-0.333
392.53	-0.333
392.74	-0.332
392.95	-0.332
393.15	-0.331
393.36	-0.331
393.57	-0.331
393.77	-0.332
393.98	-0.332
394.19	-0.333
394.39	-0.334
394.60	-0.335
394.81	-0.336
395.01	-0.337
395.22	-0.338
395.43	-0.339
395.63	-0.340
395.84	-0.340
396.04	-0.340
396.25	-0.340
396.46	-0.340
396.66	-0.338
396.87	-0.337
397.08	-0.335
397.28	-0.334
397.49	-0.332
397.69	-0.331
397.90	-0.329
398.11	-0.328
398.31	-0.327
398.52	-0.326
398.73	-0.325
398.93	-0.324
399.14	-0.325
399.34	-0.325
399.55	-0.325
399.76	-0.325
399.96	-0.326
400.17	-0.328
400.37	-0.330
400.58	-0.331
400.79	-0.332
400.99	-0.334
401.20	-0.335
401.41	-0.337
401.61	-0.338
401.82	-0.340
402.02	-0.341
402.23	-0.342
402.44	-0.342
402.64	-0.342
402.85	-0.343
403.05	-0.343
403.26	-0.343
403.47	-0.343
403.67	-0.343
403.88	-0.342
404.08	-0.341
404.29	-0.341
404.50	-0.341
404.70	-0.341
404.91	-0.340
405.11	-0.340
405.32	-0.340
405.52	-0.340
405.73	-0.340
405.94	-0.340
406.14	-0.340
406.35	-0.340
406.55	-0.340
406.76	-0.340
406.97	-0.340
407.17	-0.341
407.38	-0.341
407.58	-0.341
407.79	-0.341
407.99	-0.342
408.20	-0.342
408.41	-0.343
408.61	-0.343
408.82	-0.343
409.02	-0.343
409.23	-0.343
409.43	-0.343
409.64	-0.343
409.84	-0.343
410.05	-0.343
410.26	-0.343
410.46	-0.344
410.67	-0.343
410.87	-0.343
411.08	-0.343
411.28	-0.343
411.49	-0.343
411.69	-0.343
411.90	-0.343
412.11	-0.343
412.31	-0.343
412.52	-0.343
412.72	-0.343
412.93	-0.343
413.13	-0.343
413.34	-0.343
413.54	-0.343
413.75	-0.344
413.95	-0.343
414.16	-0.344
414.37	-0.344
414.57	-0.344
414.78	-0.344
414.98	-0.344
415.19	-0.345
415.39	-0.345
415.60	-0.345
415.80	-0.344
416.01	-0.345
416.21	-0.345
416.42	-0.345
416.62	-0.345
416.83	-0.345
417.03	-0.345
417.24	-0.345
417.44	-0.345
417.65	-0.345
417.86	-0.345
418.06	-0.345
418.27	-0.345
418.47	-0.345
418.68	-0.345
418.88	-0.344
419.09	-0.344
419.29	-0.344
419.50	-0.344
419.70	-0.343
419.91	-0.342
420.11	-0.341
420.32	-0.340
420.52	-0.340
420.73	-0.338
420.93	-0.337
421.14	-0.336
421.34	-0.335
421.55	-0.334
421.75	-0.332
421.96	-0.332
422.16	-0.331
422.37	-0.330
422.57	-0.330
422.78	-0.330
422.98	-0.331
423.19	-0.332
423.39	-0.332
423.60	-0.333
423.80	-0.334
424.01	-0.335
424.21	-0.336
424.42	-0.338
424.62	-0.339
424.83	-0.340
425.03	-0.341
425.23	-0.342
425.44	-0.343
425.64	-0.344
425.85	-0.344
426.05	-0.344
426.26	-0.344
426.46	-0.344
426.67	-0.344
426.87	-0.344
427.08	-0.344
427.28	-0.343
427.49	-0.342
427.69	-0.342
427.90	-0.341
428.10	-0.339
428.31	-0.338
428.51	-0.337
428.71	-0.335
428.92	-0.333
429.12	-0.331
429.33	-0.329
429.53	-0.327
429.74	-0.326
429.94	-0.325
430.15	-0.323
430.35	-0.322
430.56	-0.322
430.76	-0.321
430.96	-0.321
431.17	-0.322
431.37	-0.323
431.58	-0.324
431.78	-0.327
431.99	-0.328
432.19	-0.330
432.40	-0.333
432.60	-0.335
432.80	-0.337
433.01	-0.339
433.21	-0.340
433.42	-0.341
433.62	-0.342
433.83	-0.343
434.03	-0.343
434.23	-0.343
434.44	-0.343
434.64	-0.343
434.85	-0.343
435.05	-0.343
435.26	-0.343
435.46	-0.343
435.66	-0.342
435.87	-0.342
436.07	-0.342
436.28	-0.342
436.48	-0.342
436.69	-0.342
436.89	-0.342
437.09	-0.341
437.30	-0.341
437.50	-0.342
437.71	-0.341
437.91	-0.341
438.11	-0.342
438.32	-0.342
438.52	-0.342
438.73	-0.342
438.93	-0.342
439.13	-0.343
439.34	-0.343
439.54	-0.343
439.75	-0.343
439.95	-0.343
440.15	-0.343
440.36	-0.343
440.56	-0.343
440.77	-0.343
440.97	-0.343
441.17	-0.343
441.38	-0.343
441.58	-0.343
441.79	-0.343
441.99	-0.343
442.19	-0.343
442.40	-0.343
442.60	-0.343
442.81	-0.343
443.01	-0.343
443.21	-0.343
443.42	-0.343
443.62	-0.342
443.82	-0.342
444.03	-0.342
444.23	-0.342
444.44	-0.342
444.64	-0.342
444.84	-0.342
445.05	-0.342
445.25	-0.342
445.45	-0.341
445.66	-0.341
445.86	-0.341
446.06	-0.341
446.27	-0.342
446.47	-0.342
446.68	-0.342
446.88	-0.342
447.08	-0.342
447.29	-0.343
447.49	-0.343
447.69	-0.343
447.90	-0.343
448.10	-0.343
448.30	-0.343
448.51	-0.343
448.71	-0.343
448.91	-0.343
449.12	-0.343
449.32	-0.343
449.52	-0.343
449.73	-0.343
449.93	-0.343
450.14	-0.342
450.34	-0.342
450.54	-0.342
450.75	-0.342
450.95	-0.342
451.15	-0.342
451.36	-0.342
451.56	-0.342
451.76	-0.342
451.97	-0.342
452.17	-0.342
452.37	-0.342
452.58	-0.342
452.78	-0.342
452.98	-0.342
453.19	-0.342
453.39	-0.342
453.59	-0.342
453.79	-0.342
454.00	-0.342
454.20	-0.341
454.40	-0.341
454.61	-0.341
454.81	-0.341
455.01	-0.341
455.22	-0.341
455.42	-0.341
455.62	-0.341
455.83	-0.341
456.03	-0.341
456.23	-0.341
456.44	-0.341
456.64	-0.341
456.84	-0.341
457.04	-0.341
457.25	-0.341
457.45	-0.341
457.65	-0.341
457.86	-0.341
458.06	-0.341
458.26	-0.341
458.47	-0.341
458.67	-0.341
458.87	-0.341
459.07	-0.341
459.28	-0.341
459.48	-0.341
459.68	-0.341
459.89	-0.341
460.09	-0.342
460.29	-0.342
460.49	-0.342
460.70	-0.342
460.90	-0.342
461.10	-0.342
461.31	-0.342
461.51	-0.342
461.71	-0.342
461.91	-0.341
462.12	-0.341
462.32	-0.341
462.52	-0.341
462.72	-0.341
462.93	-0.341
463.13	-0.341
463.33	-0.341
463.53	-0.341
463.74	-0.341
463.94	-0.341
464.14	-0.341
464.35	-0.341
464.55	-0.341
464.75	-0.341
464.95	-0.341
465.16	-0.341
465.36	-0.341
465.56	-0.341
465.76	-0.341
465.97	-0.341
466.17	-0.341
466.37	-0.341
466.57	-0.341
466.78	-0.341
466.98	-0.342
467.18	-0.342
467.38	-0.342
467.59	-0.342
467.79	-0.342
467.99	-0.342
468.19	-0.341
468.39	-0.341
468.60	-0.341
468.80	-0.341
469.00	-0.341
469.20	-0.341
469.41	-0.341
469.61	-0.341
469.81	-0.341
470.01	-0.341
470.22	-0.341
470.42	-0.341
470.62	-0.341
470.82	-0.341
471.02	-0.341
471.23	-0.341
471.43	-0.341
471.63	-0.341
471.83	-0.341
472.04	-0.341
472.24	-0.341
472.44	-0.341
472.64	-0.341
472.84	-0.341
473.05	-0.341
473.25	-0.341
473.45	-0.341
473.65	-0.340
473.85	-0.339
474.06	-0.337
474.26	-0.336
474.46	-0.334
474.66	-0.332
474.86	-0.330
475.07	-0.328
475.27	-0.326
475.47	-0.324
475.67	-0.322
475.87	-0.319
476.08	-0.318
476.28	-0.317
476.48	-0.316
476.68	-0.314
476.88	-0.313
477.09	-0.312
477.29	-0.312
477.49	-0.311
477.69	-0.310
477.89	-0.309
478.09	-0.308
478.30	-0.307
478.50	-0.306
478.70	-0.304
478.90	-0.302
479.10	-0.300
479.31	-0.298
479.51	-0.295
479.71	-0.292
479.91	-0.290
480.11	-0.287
480.31	-0.284
480.52	-0.281
480.72	-0.279
480.92	-0.276
481.12	-0.273
481.32	-0.270
481.52	-0.268
481.72	-0.265
481.93	-0.263
482.13	-0.260
482.33	-0.257
482.53	-0.254
482.73	-0.252
482.93	-0.248
483.14	-0.244
483.34	-0.241
483.54	-0.238
483.74	-0.234
483.94	-0.230
484.14	-0.226
484.34	-0.222
484.55	-0.218
484.75	-0.214
484.95	-0.210
485.15	-0.207
485.35	-0.204
485.55	-0.201
485.75	-0.198
485.96	-0.196
486.16	-0.195
486.36	-0.193
486.56	-0.192
486.76	-0.192
486.96	-0.192
487.16	-0.193
487.36	-0.194
487.57	-0.195
487.77	-0.197
487.97	-0.200
488.17	-0.202
488.37	-0.205
488.57	-0.208
488.77	-0.211
488.97	-0.214
489.18	-0.217
489.38	-0.219
489.58	-0.222
489.78	-0.224
489.98	-0.226
490.18	-0.227
490.38	-0.229
490.58	-0.230
490.78	-0.231
490.98	-0.232
491.19	-0.232
491.39	-0.232
491.59	-0.232
491.79	-0.232
491.99	-0.232
492.19	-0.232
492.39	-0.232
492.59	-0.231
492.79	-0.230
492.99	-0.230
493.20	-0.229
493.40	-0.228
493.60	-0.227
493.80	-0.225
494.00	-0.224
494.20	-0.222
494.40	-0.220
494.60	-0.219
494.80	-0.217
495.00	-0.216
495.20	-0.215
495.40	-0.214
495.61	-0.213
495.81	-0.213
496.01	-0.213
496.21	-0.213
496.41	-0.213
496.61	-0.213
496.81	-0.214
497.01	-0.214
497.21	-0.215
497.41	-0.216
497.61	-0.217
497.81	-0.219
498.01	-0.220
498.21	-0.222
498.41	-0.224
498.61	-0.226
498.82	-0.228
499.02	-0.229
499.22	-0.231
499.42	-0.233
499.62	-0.234
499.82	-0.235
500.02	-0.235
500.22	-0.235
500.42	-0.235
500.62	-0.235
500.82	-0.235
501.02	-0.234
501.22	-0.234
501.42	-0.233
501.62	-0.233
501.82	-0.232
502.02	-0.232
502.22	-0.231
502.42	-0.231
502.62	-0.231
502.82	-0.230
503.02	-0.230
503.22	-0.231
503.42	-0.231
503.63	-0.231
503.83	-0.232
504.03	-0.233
504.23	-0.234
504.43	-0.236
504.63	-0.237
504.83	-0.239
505.03	-0.240
505.23	-0.242
505.43	-0.243
505.63	-0.245
505.83	-0.247
506.03	-0.249
506.23	-0.251
506.43	-0.252
506.63	-0.254
506.83	-0.256
507.03	-0.258
507.23	-0.260
507.43	-0.261
507.63	-0.263
507.83	-0.265
508.03	-0.266
508.23	-0.268
508.43	-0.269
508.63	-0.270
508.83	-0.271
509.03	-0.272
509.23	-0.273
509.43	-0.274
509.63	-0.275
509.83	-0.277
510.03	-0.278
510.23	-0.279
510.43	-0.280
510.63	-0.281
510.83	-0.282
511.03	-0.283
511.23	-0.284
511.43	-0.285
511.63	-0.286
511.83	-0.288
512.03	-0.289
512.22	-0.290
512.42	-0.292
512.62	-0.293
512.82	-0.296
513.02	-0.297
513.22	-0.299
513.42	-0.301
513.62	-0.302
513.82	-0.304
514.02	-0.306
514.22	-0.307
514.42	-0.308
514.62	-0.309
514.82	-0.310
515.02	-0.311
515.22	-0.312
515.42	-0.313
515.62	-0.314
515.82	-0.315
516.02	-0.316
516.22	-0.317
516.42	-0.318
516.62	-0.318
516.82	-0.318
517.01	-0.318
517.21	-0.318
517.41	-0.318
517.61	-0.318
517.81	-0.319
518.01	-0.319
518.21	-0.319
518.41	-0.320
518.61	-0.320
518.81	-0.321
519.01	-0.322
519.21	-0.323
519.41	-0.325
519.61	-0.325
519.81	-0.327
520.00	-0.328
520.20	-0.329
520.40	-0.329
520.60	-0.331
520.80	-0.332
521.00	-0.333
521.20	-0.334
521.40	-0.335
521.60	-0.335
521.80	-0.336
522.00	-0.337
522.20	-0.338
522.39	-0.338
522.59	-0.339
522.79	-0.339
522.99	-0.339
523.19	-0.340
523.39	-0.340
523.59	-0.340
523.79	-0.340
523.99	-0.341
524.19	-0.341
524.38	-0.342
524.58	-0.342
524.78	-0.342
524.98	-0.343
525.18	-0.343
525.38	-0.343
525.58	-0.344
525.78	-0.344
525.98	-0.344
526.18	-0.344
526.37	-0.344
526.57	-0.344
526.77	-0.344
526.97	-0.344
527.17	-0.344
527.37	-0.344
527.57	-0.344
527.77	-0.344
527.96	-0.344
528.16	-0.344
528.36	-0.344
528.56	-0.344
528.76	-0.344
528.96	-0.344
529.16	-0.344
529.36	-0.345
529.55	-0.344
529.75	-0.345
529.95	-0.345
530.15	-0.345
530.35	-0.345
530.55	-0.345
530.75	-0.345
530.94	-0.345
531.14	-0.345
531.34	-0.346
531.54	-0.346
531.74	-0.346
531.94	-0.345
532.13	-0.345
532.33	-0.345
532.53	-0.344
532.73	-0.344
532.93	-0.343
533.13	-0.342
533.33	-0.342
533.52	-0.341
533.72	-0.341
533.92	-0.340
534.12	-0.340
534.32	-0.339
534.52	-0.339
534.71	-0.339
534.91	-0.339
535.11	-0.339
535.31	-0.339
535.51	-0.339
535.71	-0.339
535.90	-0.338
536.10	-0.338
536.30	-0.338
536.50	-0.338
536.70	-0.337
536.89	-0.337
537.09	-0.336
537.29	-0.336
537.49	-0.335
537.69	-0.335
537.89	-0.334
538.08	-0.334
538.28	-0.333
538.48	-0.333
538.68	-0.332
538.88	-0.332
539.07	-0.331
539.27	-0.331
539.47	-0.331
539.67	-0.331
539.87	-0.331
540.06	-0.331
540.26	-0.331
540.46	-0.332
540.66	-0.333
540.86	-0.334
541.05	-0.335
541.25	-0.336
541.45	-0.337
541.65	-0.338
541.84	-0.339
542.04	-0.340
542.24	-0.340
542.44	-0.340
542.64	-0.340
542.83	-0.341
543.03	-0.341
543.23	-0.341
543.43	-0.340
543.62	-0.340
543.82	-0.340
544.02	-0.340
544.22	-0.340
544.42	-0.339
544.61	-0.339
544.81	-0.338
545.01	-0.337
545.21	-0.336
545.40	-0.335
545.60	-0.334
545.80	-0.333
546.00	-0.332
546.19	-0.331
546.39	-0.330
546.59	-0.330
546.79	-0.330
546.98	-0.331
547.18	-0.331
547.38	-0.332
547.58	-0.333
547.77	-0.334
547.97	-0.335
548.17	-0.336
548.37	-0.338
548.56	-0.339
548.76	-0.340
548.96	-0.342
549.16	-0.343
549.35	-0.345
549.55	-0.346
549.75	-0.347
549.95	-0.349
550.14	-0.350
550.34	-0.350
550.54	-0.351
550.73	-0.352
550.93	-0.352
551.13	-0.352
551.33	-0.352
551.52	-0.352
551.72	-0.352
551.92	-0.351
552.12	-0.350
552.31	-0.350
552.51	-0.348
552.71	-0.347
552.90	-0.346
553.10	-0.345
553.30	-0.344
553.50	-0.343
553.69	-0.343
553.89	-0.342
554.09	-0.341
554.28	-0.342
554.48	-0.342
554.68	-0.343
554.87	-0.345
555.07	-0.346
555.27	-0.348
555.47	-0.349
555.66	-0.351
555.86	-0.352
556.06	-0.353
556.25	-0.354
556.45	-0.355
556.65	-0.355
556.84	-0.356
557.04	-0.356
557.24	-0.356
557.43	-0.356
557.63	-0.356
557.83	-0.356
558.02	-0.356
558.22	-0.356
558.42	-0.356
558.61	-0.356
558.81	-0.355
559.01	-0.355
559.21	-0.355
559.40	-0.355
559.60	-0.355
559.80	-0.355
559.99	-0.355
560.19	-0.355
560.39	-0.355
560.58	-0.354
560.78	-0.353
560.97	-0.352
561.17	-0.350
561.37	-0.349
561.56	-0.348
561.76	-0.346
561.96	-0.345
562.15	-0.345
562.35	-0.344
562.55	-0.344
562.74	-0.345
562.94	-0.346
563.14	-0.347
563.33	-0.348
563.53	-0.350
563.73	-0.351
563.92	-0.352
564.12	-0.354
564.31	-0.355
564.51	-0.356
564.71	-0.357
564.90	-0.357
565.10	-0.358
565.30	-0.358
565.49	-0.358
565.69	-0.358
565.89	-0.358
566.08	-0.358
566.28	-0.358
566.47	-0.358
566.67	-0.357
566.87	-0.355
567.06	-0.353
567.26	-0.350
567.46	-0.347
567.65	-0.343
567.85	-0.338
568.04	-0.333
568.24	-0.327
568.44	-0.320
568.63	-0.313
568.83	-0.305
569.02	-0.298
569.22	-0.290
569.42	-0.282
569.61	-0.275
569.81	-0.268
570.00	-0.261
570.20	-0.254
570.40	-0.248
570.59	-0.242
570.79	-0.236
570.98	-0.231
571.18	-0.226
571.38	-0.221
571.57	-0.216
571.77	-0.211
571.96	-0.206
572.16	-0.201
572.35	-0.197
572.55	-0.192
572.75	-0.189
572.94	-0.186
573.14	-0.183
573.33	-0.181
573.53	-0.179
573.73	-0.176
573.92	-0.175
574.12	-0.173
574.31	-0.172
574.51	-0.171
574.70	-0.169
574.90	-0.166
575.09	-0.163
575.29	-0.159
575.49	-0.156
575.68	-0.152
575.88	-0.149
576.07	-0.146
576.27	-0.143
576.46	-0.141
576.66	-0.138
576.86	-0.136
577.05	-0.135
577.25	-0.134
577.44	-0.133
577.64	-0.133
577.83	-0.132
578.03	-0.132
578.22	-0.130
578.42	-0.127
578.61	-0.124
578.81	-0.121
579.00	-0.118
579.20	-0.116
579.40	-0.113
579.59	-0.110
579.79	-0.108
579.98	-0.106
580.18	-0.104
580.37	-0.104
580.57	-0.104
580.76	-0.105
580.96	-0.107
581.15	-0.108
581.35	-0.110
581.54	-0.111
581.74	-0.112
581.93	-0.113
582.13	-0.113
582.32	-0.114
582.52	-0.114
582.71	-0.116
582.91	-0.117
583.10	-0.119
583.30	-0.121
583.49	-0.123
583.69	-0.126
583.88	-0.129
584.08	-0.133
584.27	-0.137
584.47	-0.141
584.66	-0.144
584.86	-0.146
585.05	-0.148
585.25	-0.149
585.44	-0.149
585.64	-0.148
585.83	-0.148
586.03	-0.147
586.22	-0.148
586.42	-0.149
586.61	-0.150
586.81	-0.153
587.00	-0.156
587.20	-0.160
587.39	-0.164
587.59	-0.169
587.78	-0.175
587.98	-0.182
588.17	-0.188
588.37	-0.194
588.56	-0.200
588.76	-0.206
588.95	-0.212
589.15	-0.217
589.34	-0.222
589.54	-0.228
589.73	-0.232
589.92	-0.235
590.12	-0.238
590.31	-0.240
590.51	-0.240
590.70	-0.240
590.90	-0.239
591.09	-0.238
591.29	-0.236
591.48	-0.233
591.68	-0.231
591.87	-0.228
592.06	-0.226
592.26	-0.224
592.45	-0.222
592.65	-0.221
592.84	-0.220
593.04	-0.220
593.23	-0.220
593.43	-0.220
593.62	-0.220
593.81	-0.221
594.01	-0.223
594.20	-0.226
594.40	-0.229
594.59	-0.233
594.79	-0.237
594.98	-0.242
595.17	-0.247
595.37	-0.252
595.56	-0.257
595.76	-0.261
595.95	-0.263
596.14	-0.265
596.34	-0.266
596.53	-0.266
596.73	-0.265
596.92	-0.262
597.12	-0.258
597.31	-0.254
597.50	-0.248
597.70	-0.243
597.89	-0.238
598.09	-0.233
598.28	-0.228
598.47	-0.224
598.67	-0.220
598.86	-0.217
599.06	-0.215
599.25	-0.214
599.44	-0.213
599.64	-0.213
599.83	-0.215
600.03	-0.217
600.22	-0.221
600.41	-0.225
600.61	-0.229
600.80	-0.235
601.00	-0.240
601.19	-0.245
601.38	-0.252
601.58	-0.258
601.77	-0.265
601.96	-0.271
602.16	-0.277
602.35	-0.282
602.55	-0.287
602.74	-0.291
602.93	-0.294
603.13	-0.296
603.32	-0.298
603.51	-0.297
603.71	-0.297
603.90	-0.295
604.09	-0.292
604.29	-0.288
604.48	-0.284
604.68	-0.280
604.87	-0.275
605.06	-0.272
605.26	-0.268
605.45	-0.265
605.64	-0.262
605.84	-0.260
606.03	-0.258
606.22	-0.257
606.42	-0.257
606.61	-0.258
606.80	-0.259
607.00	-0.261
607.19	-0.263
607.38	-0.266
607.58	-0.269
607.77	-0.273
607.96	-0.277
608.16	-0.282
608.35	-0.287
608.54	-0.293
608.74	-0.298
608.93	-0.305
609.12	-0.312
609.32	-0.318
609.51	-0.324
609.70	-0.330
609.90	-0.336
610.09	-0.341
610.28	-0.346
610.48	-0.350
610.67	-0.353
610.86	-0.356
611.06	-0.357
611.25	-0.359
611.44	-0.359
611.64	-0.359
611.83	-0.358
612.02	-0.357
612.21	-0.354
612.41	-0.352
612.60	-0.349
612.79	-0.347
612.99	-0.344
613.18	-0.342
613.37	-0.339
613.57	-0.337
613.76	-0.335
613.95	-0.333
614.14	-0.332
614.34	-0.332
614.53	-0.332
614.72	-0.334
614.92	-0.335
615.11	-0.337
615.30	-0.338
615.49	-0.341
615.69	-0.343
615.88	-0.346
616.07	-0.350
616.26	-0.355
616.46	-0.359
616.65	-0.364
616.84	-0.368
617.04	-0.374
617.23	-0.379
617.42	-0.383
617.61	-0.388
617.81	-0.392
618.00	-0.396
618.19	-0.400
618.38	-0.401
618.58	-0.404
618.77	-0.403
618.96	-0.405
619.15	-0.402
619.35	-0.402
619.54	-0.400
619.73	-0.399
619.92	-0.395
620.12	-0.393
620.31	-0.389
620.50	-0.387
620.69	-0.383
620.89	-0.381
621.08	-0.378
621.27	-0.377
621.46	-0.374
621.66	-0.374
621.85	-0.373
622.04	-0.372
622.23	-0.372
622.43	-0.372
622.62	-0.372
622.81	-0.371
623.00	-0.371
623.19	-0.372
623.39	-0.372
623.58	-0.372
623.77	-0.372
623.96	-0.372
624.16	-0.372
624.35	-0.373
624.54	-0.373
624.73	-0.373
624.92	-0.373
625.12	-0.374
625.31	-0.374
625.50	-0.374
625.69	-0.375
625.88	-0.375
626.08	-0.375
626.27	-0.376
626.46	-0.376
626.65	-0.376
626.84	-0.376
627.04	-0.377
627.23	-0.377
627.42	-0.377
627.61	-0.377
627.80	-0.377
628.00	-0.377
628.19	-0.377
628.38	-0.377
628.57	-0.378
628.76	-0.378
628.96	-0.378
629.15	-0.378
629.34	-0.379
629.53	-0.379
629.72	-0.379
629.91	-0.380
630.11	-0.380
630.30	-0.380
630.49	-0.381
630.68	-0.381
630.87	-0.382
631.06	-0.382
631.26	-0.382
631.45	-0.383
631.64	-0.383
631.83	-0.384
632.02	-0.384
632.21	-0.384
632.41	-0.385
632.60	-0.385
632.79	-0.385
632.98	-0.385
633.17	-0.386
633.36	-0.386
633.55	-0.386
633.75	-0.387
633.94	-0.387
634.13	-0.387
634.32	-0.387
634.51	-0.387
634.70	-0.387
634.89	-0.387
635.09	-0.387
635.28	-0.387
635.47	-0.387
635.66	-0.387
635.85	-0.387
636.04	-0.387
636.23	-0.387
636.43	-0.387
636.62	-0.387
636.81	-0.387
637.00	-0.387
637.19	-0.387
637.38	-0.387
637.57	-0.387
637.76	-0.388
637.95	-0.388
638.15	-0.388
638.34	-0.388
638.53	-0.389
638.72	-0.389
638.91	-0.389
639.10	-0.389
639.29	-0.389
639.48	-0.390
639.67	-0.390
639.87	-0.390
640.06	-0.391
640.25	-0.391
640.44	-0.391
640.63	-0.391
640.82	-0.392
641.01	-0.392
641.20	-0.392
641.39	-0.392
641.58	-0.392
641.78	-0.392
641.97	-0.392
642.16	-0.392
642.35	-0.392
642.54	-0.392
642.73	-0.392
642.92	-0.392
643.11	-0.392
643.30	-0.392
643.49	-0.393
643.68	-0.392
643.87	-0.393
644.06	-0.393
644.25	-0.393
644.45	-0.393
644.64	-0.393
644.83	-0.393
645.02	-0.393
645.21	-0.393
645.40	-0.393
645.59	-0.393
645.78	-0.393
645.97	-0.393
646.16	-0.393
646.35	-0.393
646.54	-0.393
646.73	-0.393
646.92	-0.392
647.11	-0.392
647.30	-0.392
647.49	-0.391
647.68	-0.391
647.88	-0.391
648.07	-0.390
648.26	-0.390
648.45	-0.390
648.64	-0.390
648.83	-0.390
649.02	-0.390
649.21	-0.389
649.40	-0.389
649.59	-0.389
649.78	-0.390
649.97	-0.389
650.16	-0.389
650.35	-0.390
650.54	-0.390
650.73	-0.390
650.92	-0.390
651.11	-0.390
651.30	-0.391
651.49	-0.391
651.68	-0.390
651.87	-0.390
652.06	-0.391
652.25	-0.391
652.44	-0.391
652.63	-0.391
652.82	-0.389
653.01	-0.388
653.20	-0.385
653.39	-0.380
653.58	-0.374
653.77	-0.367
653.96	-0.359
654.15	-0.350
654.34	-0.342
654.53	-0.334
654.72	-0.325
654.91	-0.317
655.10	-0.308
655.29	-0.300
655.48	-0.294
655.67	-0.288
655.86	-0.284
656.05	-0.280
656.24	-0.277
656.43	-0.275
656.62	-0.273
656.81	-0.273
657.00	-0.275
657.19	-0.280
657.38	-0.289
657.57	-0.299
657.76	-0.312
657.95	-0.324
658.14	-0.335
658.33	-0.346
658.51	-0.357
658.70	-0.369
658.89	-0.381
659.08	-0.392
659.27	-0.398
659.46	-0.400
659.65	-0.399
659.84	-0.396
660.03	-0.393
660.22	-0.394
660.41	-0.394
660.60	-0.395
660.79	-0.395
660.98	-0.396
661.17	-0.396
661.36	-0.396
661.55	-0.396
661.74	-0.397
661.92	-0.397
662.11	-0.397
662.30	-0.397
662.49	-0.397
662.68	-0.397
662.87	-0.397
663.06	-0.397
663.25	-0.397
663.44	-0.397
663.63	-0.397
663.82	-0.397
664.01	-0.397
664.20	-0.397
664.38	-0.397
664.57	-0.397
664.76	-0.397
664.95	-0.397
665.14	-0.397
665.33	-0.397
665.52	-0.398
665.71	-0.398
665.90	-0.398
666.09	-0.398
666.28	-0.398
666.46	-0.398
666.65	-0.399
666.84	-0.399
667.03	-0.399
667.22	-0.399
667.41	-0.399
667.60	-0.399
667.79	-0.399
667.98	-0.399
668.16	-0.398
668.35	-0.398
668.54	-0.398
668.73	-0.398
668.92	-0.398
669.11	-0.397
669.30	-0.397
669.49	-0.397
669.67	-0.396
669.86	-0.396
670.05	-0.396
670.24	-0.395
670.43	-0.395
670.62	-0.394
670.81	-0.394
671.00	-0.394
671.18	-0.394
671.37	-0.394
671.56	-0.394
671.75	-0.394
671.94	-0.394
672.13	-0.394
672.32	-0.394
672.50	-0.394
672.69	-0.394
672.88	-0.394
673.07	-0.394
673.26	-0.394
673.45	-0.394
673.63	-0.395
673.82	-0.395
674.01	-0.395
674.20	-0.395
674.39	-0.395
674.58	-0.396
674.76	-0.396
674.95	-0.396
675.14	-0.396
675.33	-0.396
675.52	-0.396
675.71	-0.396
675.89	-0.396
676.08	-0.396
676.27	-0.396
676.46	-0.396
676.65	-0.396
676.84	-0.396
677.02	-0.395
677.21	-0.395
677.40	-0.395
677.59	-0.395
677.78	-0.395
677.96	-0.394
678.15	-0.394
678.34	-0.394
678.53	-0.394
678.72	-0.394
678.90	-0.394
679.09	-0.394
679.28	-0.393
679.47	-0.394
679.66	-0.393
679.84	-0.393
680.03	-0.393
680.22	-0.394
680.41	-0.394
680.60	-0.394
680.78	-0.394
680.97	-0.394
681.16	-0.394
681.35	-0.394
681.53	-0.394
681.72	-0.395
681.91	-0.395
682.10	-0.395
682.29	-0.395
682.47	-0.395
682.66	-0.395
682.85	-0.394
683.04	-0.394
683.22	-0.394
683.41	-0.394
683.60	-0.394
683.79	-0.394
683.97	-0.393
684.16	-0.393
684.35	-0.393
684.54	-0.393
684.72	-0.393
684.91	-0.393
685.10	-0.392
685.29	-0.392
685.47	-0.392
685.66	-0.392
685.85	-0.392
686.04	-0.392
686.22	-0.392
686.41	-0.392
686.60	-0.392
686.79	-0.393
686.97	-0.393
687.16	-0.393
687.35	-0.393
687.54	-0.394
687.72	-0.394
687.91	-0.394
688.10	-0.394
688.29	-0.394
688.47	-0.394
688.66	-0.395
688.85	-0.395
689.03	-0.395
689.22	-0.395
689.41	-0.395
689.60	-0.395
689.78	-0.395
689.97	-0.395
690.16	-0.395
690.34	-0.395
690.53	-0.395
690.72	-0.395
690.91	-0.395
691.09	-0.395
691.28	-0.395
691.47	-0.395
691.65	-0.395
691.84	-0.395
692.03	-0.395
692.21	-0.395
692.40	-0.395
692.59	-0.396
692.77	-0.396
692.96	-0.396
693.15	-0.396
693.34	-0.396
693.52	-0.396
693.71	-0.397
693.90	-0.397
694.08	-0.397
694.27	-0.397
694.46	-0.396
694.64	-0.396
694.83	-0.396
695.02	-0.396
695.20	-0.396
695.39	-0.395
695.58	-0.395
695.76	-0.395
695.95	-0.395
696.14	-0.395
696.32	-0.395
696.51	-0.394
696.70	-0.395
696.88	-0.395
697.07	-0.395
697.26	-0.395
697.44	-0.395
697.63	-0.395
697.81	-0.395
698.00	-0.395
698.19	-0.395
698.37	-0.395
698.56	-0.396
698.75	-0.396
698.93	-0.396
699.12	-0.397
699.31	-0.397
699.49	-0.397
699.68	-0.397
699.87	-0.398
700.05	-0.398
700.24	-0.398
700.42	-0.399
700.61	-0.399
700.80	-0.399
700.98	-0.399
701.17	-0.399
701.36	-0.399
701.54	-0.399
701.73	-0.399
701.91	-0.399
702.10	-0.399
702.29	-0.399
702.47	-0.399
702.66	-0.399
702.84	-0.399
703.03	-0.399
703.22	-0.399
703.40	-0.399
703.59	-0.399
703.77	-0.399
703.96	-0.399
704.15	-0.399
704.33	-0.399
704.52	-0.399
704.70	-0.399
704.89	-0.399
705.08	-0.399
705.26	-0.399
705.45	-0.398
705.63	-0.398
705.82	-0.398
706.00	-0.398
706.19	-0.397
706.38	-0.397
706.56	-0.397
706.75	-0.396
706.93	-0.396
707.12	-0.396
707.30	-0.396
707.49	-0.395
707.68	-0.395
707.86	-0.395
708.05	-0.395
708.23	-0.395
708.42	-0.395
708.60	-0.395
708.79	-0.395
708.98	-0.395
709.16	-0.396
709.35	-0.396
709.53	-0.397
709.72	-0.397
709.90	-0.397
710.09	-0.398
710.27	-0.398
710.46	-0.398
710.64	-0.399
710.83	-0.399
711.02	-0.399
711.20	-0.399
711.39	-0.399
711.57	-0.399
711.76	-0.398
711.94	-0.398
712.13	-0.398
712.31	-0.398
712.50	-0.398
712.68	-0.398
712.87	-0.397
713.05	-0.397
713.24	-0.397
713.42	-0.397
713.61	-0.397
713.79	-0.397
713.98	-0.397
714.16	-0.397
714.35	-0.397
714.54	-0.397
714.72	-0.397
714.91	-0.397
715.09	-0.397
715.28	-0.398
715.46	-0.398
715.65	-0.398
715.83	-0.398
716.02	-0.398
716.20	-0.398
716.39	-0.398
716.57	-0.398
716.76	-0.399
716.94	-0.399
717.12	-0.399
717.31	-0.399
717.49	-0.399
717.68	-0.399
717.86	-0.399
718.05	-0.399
718.23	-0.399
718.42	-0.399
718.60	-0.399
718.79	-0.399
718.97	-0.399
719.16	-0.399
719.34	-0.399
719.53	-0.400
719.71	-0.400
719.90	-0.400
720.08	-0.400
720.27	-0.400
720.45	-0.400
720.63	-0.400
720.82	-0.401
721.00	-0.401
721.19	-0.401
721.37	-0.401
721.56	-0.401
721.74	-0.401
721.93	-0.401
722.11	-0.401
722.30	-0.401
722.48	-0.401
722.66	-0.401
722.85	-0.401
723.03	-0.401
723.22	-0.400
723.40	-0.400
723.59	-0.400
723.77	-0.400
723.95	-0.400
724.14	-0.400
724.32	-0.400
724.51	-0.400
724.69	-0.400
724.88	-0.400
725.06	-0.400
725.24	-0.400
725.43	-0.400
725.61	-0.400
725.80	-0.400
725.98	-0.399
726.16	-0.399
726.35	-0.399
726.53	-0.399
726.72	-0.398
726.90	-0.398
727.09	-0.398
727.27	-0.398
727.45	-0.398
727.64	-0.398
727.82	-0.398
728.01	-0.399
728.19	-0.398
728.37	-0.399
728.56	-0.399
728.74	-0.399
728.92	-0.399
729.11	-0.399
729.29	-0.399
729.48	-0.399
729.66	-0.398
729.84	-0.398
730.03	-0.398
730.21	-0.397
730.40	-0.397
730.58	-0.397
730.76	-0.396
730.95	-0.396
731.13	-0.395
731.31	-0.395
731.50	-0.395
731.68	-0.394
731.86	-0.394
732.05	-0.394
732.23	-0.395
732.42	-0.394
732.60	-0.395
732.78	-0.395
732.97	-0.394
733.15	-0.394
733.33	-0.394
733.52	-0.394
733.70	-0.394
733.88	-0.394
734.07	-0.395
734.25	-0.394
734.43	-0.394
734.62	-0.394
734.80	-0.394
734.98	-0.395
735.17	-0.394
735.35	-0.395
735.53	-0.395
735.72	-0.395
735.90	-0.395
736.08	-0.395
736.27	-0.395
736.45	-0.395
736.63	-0.396
736.82	-0.396
737.00	-0.396
737.18	-0.396
737.37	-0.395
737.55	-0.395
737.73	-0.395
737.92	-0.396
738.10	-0.396
738.28	-0.395
738.46	-0.396
738.65	-0.396
738.83	-0.396
739.01	-0.396
739.20	-0.396
739.38	-0.397
739.56	-0.397
739.75	-0.398
739.93	-0.398
740.11	-0.398
740.29	-0.399
740.48	-0.399
740.66	-0.399
740.84	-0.400
741.03	-0.400
741.21	-0.400
741.39	-0.400
741.57	-0.400
741.76	-0.401
741.94	-0.401
742.12	-0.401
742.31	-0.402
742.49	-0.402
742.67	-0.402
742.85	-0.403
743.04	-0.403
743.22	-0.403
743.40	-0.403
743.58	-0.404
743.77	-0.404
743.95	-0.404
744.13	-0.404
744.31	-0.404
744.50	-0.404
744.68	-0.404
744.86	-0.404
745.04	-0.405
745.23	-0.406
745.41	-0.405
745.59	-0.406
745.77	-0.405
745.96	-0.406
746.14	-0.406
746.32	-0.406
746.50	-0.407
746.69	-0.407
746.87	-0.408
747.05	-0.407
747.23	-0.407
747.42	-0.407
747.60	-0.408
747.78	-0.409
747.96	-0.409
748.14	-0.408
748.33	-0.408
748.51	-0.407
748.69	-0.408
748.87	-0.407
749.06	-0.408
749.24	-0.408
749.42	-0.408
749.60	-0.407
749.78	-0.406
749.97	-0.406
750.15	-0.406
750.33	-0.406
750.51	-0.406
750.69	-0.406
750.88	-0.406
751.06	-0.405
751.24	-0.404
751.42	-0.404
751.60	-0.405
751.79	-0.405
751.97	-0.405
752.15	-0.405
752.33	-0.405
752.51	-0.405
752.69	-0.404
752.88	-0.405
753.06	-0.405
753.24	-0.406
753.42	-0.405
753.60	-0.405
753.78	-0.404
753.97	-0.404
754.15	-0.404
754.33	-0.405
754.51	-0.404
754.69	-0.405
754.87	-0.405
755.06	-0.404
755.24	-0.403
755.42	-0.402
755.60	-0.403
755.78	-0.403
755.96	-0.403
756.15	-0.402
756.33	-0.402
756.51	-0.402
756.69	-0.401
756.87	-0.400
757.05	-0.400
757.23	-0.400
757.42	-0.401
757.60	-0.399
757.78	-0.399
757.96	-0.399
758.14	-0.400
758.32	-0.400
758.50	-0.400
758.69	-0.400
758.87	-0.401
759.05	-0.401
759.23	-0.401
759.41	-0.401
759.59	-0.402
759.77	-0.402
759.95	-0.402
760.13	-0.402
760.32	-0.401
760.50	-0.402
760.68	-0.401
760.86	-0.401
761.04	-0.401
761.22	-0.401
761.40	-0.401
761.58	-0.401
761.76	-0.400
761.95	-0.401
762.13	-0.400
762.31	-0.400
762.49	-0.400
762.67	-0.400
762.85	-0.400
763.03	-0.401
763.21	-0.400
763.39	-0.401
763.57	-0.401
763.75	-0.401
763.94	-0.401
764.12	-0.401
764.30	-0.401
764.48	-0.402
764.66	-0.402
764.84	-0.402
765.02	-0.401
765.20	-0.402
765.38	-0.402
765.56	-0.402
765.74	-0.402
765.92	-0.402
766.10	-0.402
766.28	-0.403
766.46	-0.403
766.65	-0.403
766.83	-0.404
767.01	-0.404
767.19	-0.404
767.37	-0.404
767.55	-0.405
767.73	-0.405
767.91	-0.406
768.09	-0.406
768.27	-0.407
768.45	-0.407
768.63	-0.407
768.81	-0.407
768.99	-0.408
769.17	-0.408
769.35	-0.407
769.53	-0.406
769.71	-0.406
769.89	-0.406
770.07	-0.406
770.25	-0.406
770.43	-0.405
770.61	-0.405
770.79	-0.405
770.97	-0.405
771.15	-0.405
771.33	-0.405
771.51	-0.406
771.69	-0.406
771.87	-0.407
772.05	-0.407
772.24	-0.407
772.42	-0.407
772.60	-0.408
772.78	-0.408
772.96	-0.409
773.14	-0.409
773.32	-0.409
773.49	-0.410
773.67	-0.410
773.85	-0.410
774.03	-0.410
774.21	-0.410
774.39	-0.410
774.57	-0.410
774.75	-0.410
774.93	-0.410
775.11	-0.410
775.29	-0.411
775.47	-0.411
775.65	-0.411
775.83	-0.410
776.01	-0.410
776.19	-0.411
776.37	-0.411
776.55	-0.411
776.73	-0.411
776.91	-0.411
777.09	-0.411
777.27	-0.411
777.45	-0.411
777.63	-0.411
777.81	-0.411
777.99	-0.411
778.17	-0.410
778.35	-0.410
778.53	-0.410
778.71	-0.410
778.89	-0.410
779.07	-0.409
779.24	-0.409
779.42	-0.409
779.60	-0.409
779.78	-0.409
779.96	-0.408
780.14	-0.409
780.32	-0.409
780.50	-0.408
780.68	-0.408
780.86	-0.408
781.04	-0.408
781.22	-0.408
781.40	-0.407
781.58	-0.407
781.75	-0.407
781.93	-0.407
782.11	-0.407
782.29	-0.407
782.47	-0.407
782.65	-0.407
782.83	-0.406
783.01	-0.407
783.19	-0.407
783.37	-0.407
783.55	-0.407
783.72	-0.407
783.90	-0.407
784.08	-0.406
784.26	-0.407
784.44	-0.407
784.62	-0.407
784.80	-0.408
784.98	-0.407
785.16	-0.408
785.33	-0.408
785.51	-0.408
785.69	-0.408
785.87	-0.408
786.05	-0.407
786.23	-0.407
786.41	-0.407
786.59	-0.406
786.77	-0.406
786.94	-0.406
787.12	-0.406
787.30	-0.405
787.48	-0.404
787.66	-0.405
787.84	-0.405
788.02	-0.405
788.19	-0.405
788.37	-0.405
788.55	-0.406
788.73	-0.406
788.91	-0.406
789.09	-0.406
789.27	-0.407
789.44	-0.408
789.62	-0.408
789.80	-0.408
789.98	-0.408
790.16	-0.408
790.34	-0.408
790.51	-0.408
790.69	-0.408
790.87	-0.408
791.05	-0.407
791.23	-0.407
791.41	-0.407
791.58	-0.407
791.76	-0.407
791.94	-0.406
792.12	-0.406
792.30	-0.405
792.48	-0.405
792.65	-0.405
792.83	-0.405
793.01	-0.404
793.19	-0.404
793.37	-0.404
793.54	-0.404
793.72	-0.404
793.90	-0.404
794.08	-0.404
794.26	-0.404
794.43	-0.404
794.61	-0.404
794.79	-0.404
794.97	-0.404
795.15	-0.404
795.32	-0.404
795.50	-0.404
795.68	-0.405
795.86	-0.405
796.04	-0.405
796.21	-0.405
796.39	-0.406
796.57	-0.406
796.75	-0.407
796.92	-0.408
797.10	-0.408
797.28	-0.409
797.46	-0.409
797.64	-0.409
797.81	-0.409
797.99	-0.410
798.17	-0.410
798.35	-0.410
798.52	-0.410
798.70	-0.410
798.88	-0.410
799.06	-0.410
799.23	-0.411
799.41	-0.411
799.59	-0.412
799.77	-0.412
799.94	-0.412
800.12	-0.412
800.30	-0.413
800.48	-0.413
800.65	-0.413
800.83	-0.413
801.01	-0.413
801.19	-0.413
801.36	-0.413
801.54	-0.413
801.72	-0.412
801.90	-0.413
802.07	-0.413
802.25	-0.413
802.43	-0.413
802.60	-0.413
802.78	-0.414
802.96	-0.414
803.14	-0.413
803.31	-0.413
803.49	-0.413
803.67	-0.413
803.84	-0.413
804.02	-0.413
804.20	-0.412
804.38	-0.412
804.55	-0.412
804.73	-0.413
804.91	-0.412
805.08	-0.412
805.26	-0.411
805.44	-0.411
805.61	-0.411
805.79	-0.412
805.97	-0.412
806.15	-0.412
806.32	-0.412
806.50	-0.412
806.68	-0.411
806.85	-0.411
807.03	-0.411
807.21	-0.411
807.38	-0.410
807.56	-0.411
807.74	-0.411
807.91	-0.410
808.09	-0.410
808.27	-0.410
808.44	-0.410
808.62	-0.409
808.80	-0.409
808.97	-0.409
809.15	-0.410
809.33	-0.411
809.50	-0.410
809.68	-0.410
809.86	-0.411
810.03	-0.411
810.21	-0.412
810.39	-0.412
810.56	-0.412
810.74	-0.413
810.91	-0.413
811.09	-0.412
811.27	-0.413
811.44	-0.413
811.62	-0.413
811.80	-0.414
811.97	-0.414
812.15	-0.414
812.33	-0.414
812.50	-0.414
812.68	-0.414
812.85	-0.413
813.03	-0.414
813.21	-0.413
813.38	-0.413
813.56	-0.412
813.74	-0.412
813.91	-0.412
814.09	-0.411
814.26	-0.411
814.44	-0.411
814.62	-0.410
814.79	-0.410
814.97	-0.410
815.14	-0.410
815.32	-0.410
815.50	-0.411
815.67	-0.411
815.85	-0.412
816.02	-0.412
816.20	-0.412
816.38	-0.413
816.55	-0.413
816.73	-0.413
816.90	-0.414
817.08	-0.414
817.26	-0.414
817.43	-0.414
817.61	-0.413
817.78	-0.413
817.96	-0.413
818.13	-0.412
818.31	-0.412
818.49	-0.412
818.66	-0.412
818.84	-0.412
819.01	-0.412
819.19	-0.412
819.36	-0.412
819.54	-0.411
819.71	-0.411
819.89	-0.411
820.07	-0.411
820.24	-0.411
820.42	-0.410
820.59	-0.410
820.77	-0.410
820.94	-0.410
821.12	-0.410
821.29	-0.410
821.47	-0.411
821.64	-0.411
821.82	-0.412
822.00	-0.412
822.17	-0.412
822.35	-0.412
822.52	-0.413
822.70	-0.413
822.87	-0.413
823.05	-0.413
823.22	-0.414
823.40	-0.414
823.57	-0.413
823.75	-0.413
823.92	-0.413
824.10	-0.412
824.27	-0.413
824.45	-0.412
824.62	-0.412
824.80	-0.413
824.97	-0.413
825.15	-0.413
825.32	-0.413
825.50	-0.414
825.67	-0.415
825.85	-0.415
826.02	-0.414
826.20	-0.414
826.37	-0.414
826.55	-0.414
826.72	-0.413
826.90	-0.413
827.07	-0.413
827.25	-0.413
827.42	-0.414
827.60	-0.413
827.77	-0.413
827.95	-0.412
828.12	-0.413
828.30	-0.413
828.47	-0.412
828.65	-0.412
828.82	-0.413
829.00	-0.413
829.17	-0.413
829.34	-0.413
829.52	-0.414
829.69	-0.414
829.87	-0.415
830.04	-0.416
830.22	-0.417
830.39	-0.417
830.57	-0.418
830.74	-0.418
830.92	-0.418
831.09	-0.419
831.26	-0.418
831.44	-0.417
831.61	-0.417
831.79	-0.417
831.96	-0.416
832.14	-0.417
832.31	-0.416
832.49	-0.415
832.66	-0.414
832.83	-0.414
833.01	-0.411
833.18	-0.413
833.36	-0.413
833.53	-0.414
833.70	-0.414
833.88	-0.412
834.05	-0.410
834.23	-0.412
834.40	-0.413
834.58	-0.415
834.75	-0.415
834.92	-0.417
835.10	-0.417
835.27	-0.418
835.45	-0.418
835.62	-0.419
835.79	-0.418
835.97	-0.418
836.14	-0.417
836.32	-0.417
836.49	-0.418
836.66	-0.419
836.84	-0.420
837.01	-0.420
837.18	-0.420
837.36	-0.421
837.53	-0.422
837.71	-0.424
837.88	-0.422
838.05	-0.423
838.23	-0.423
838.40	-0.420
838.58	-0.419
838.75	-0.418
838.92	-0.417
839.10	-0.417
839.27	-0.415
839.44	-0.416
839.62	-0.415
839.79	-0.417
839.96	-0.415
840.14	-0.415
840.31	-0.415
840.48	-0.415
840.66	-0.414
840.83	-0.414
841.01	-0.414
841.18	-0.415
841.35	-0.413
841.53	-0.413
841.70	-0.413
841.87	-0.416
842.05	-0.417
842.22	-0.418
842.39	-0.419
842.57	-0.422
842.74	-0.422
842.91	-0.421
843.09	-0.421
843.26	-0.424
843.43	-0.423
843.60	-0.423
843.78	-0.423
843.95	-0.421
844.12	-0.423
844.30	-0.423
844.47	-0.419
844.64	-0.418
844.82	-0.418
844.99	-0.419
845.16	-0.420
845.34	-0.419
845.51	-0.418
845.68	-0.417
845.85	-0.417
846.03	-0.415
846.20	-0.416
846.37	-0.416
846.55	-0.415
846.72	-0.415
846.89	-0.412
847.06	-0.407
847.24	-0.411
847.41	-0.416
847.58	-0.416
847.76	-0.418
847.93	-0.415
848.10	-0.413
848.27	-0.417
848.45	-0.417
848.62	-0.417
848.79	-0.419
848.97	-0.422
849.14	-0.416
849.31	-0.412
849.48	-0.409
849.66	-0.408
849.83	-0.409
850.00	-0.410
850.17	-0.407
850.35	-0.408
850.52	-0.407
850.69	-0.408
850.86	-0.405
851.04	-0.409
851.21	-0.412
851.38	-0.414
851.55	-0.415
851.72	-0.417
851.90	-0.416
852.07	-0.417
852.24	-0.420
852.41	-0.421
852.59	-0.419
852.76	-0.423
852.93	-0.423
853.10	-0.424
853.28	-0.424
853.45	-0.424
853.62	-0.430
853.79	-0.430
853.96	-0.434
854.14	-0.430
854.31	-0.429
854.48	-0.429
854.65	-0.426
854.82	-0.426
855.00	-0.424
855.17	-0.424
855.34	-0.419
855.51	-0.415
855.68	-0.411
855.86	-0.404
856.03	-0.405
856.20	-0.405
856.37	-0.405
856.54	-0.408
856.72	-0.406
856.89	-0.404
857.06	-0.402
857.23	-0.407
857.40	-0.403
857.57	-0.408
857.75	-0.411
857.92	-0.409
858.09	-0.412
858.26	-0.409
858.43	-0.407
858.60	-0.410
858.78	-0.409
858.95	-0.414
859.12	-0.415
859.29	-0.416
859.46	-0.408
859.63	-0.409
859.81	-0.416
859.98	-0.410
860.15	-0.410
860.32	-0.412
860.49	-0.409
860.66	-0.413
860.83	-0.410
861.01	-0.407
861.18	-0.413
861.35	-0.423
861.52	-0.423
861.69	-0.416
861.86	-0.419
862.03	-0.422
862.21	-0.421
862.38	-0.422
862.55	-0.419
862.72	-0.417
862.89	-0.413
863.06	-0.409
863.23	-0.408
863.40	-0.402
863.58	-0.402
863.75	-0.403
863.92	-0.407
864.09	-0.405
864.26	-0.402
864.43	-0.401
864.60	-0.407
864.77	-0.411
864.94	-0.413
865.11	-0.409
865.29	-0.412
865.46	-0.412
865.63	-0.413
865.80	-0.410
865.97	-0.407
866.14	-0.410
866.31	-0.410
866.48	-0.406
866.65	-0.406
866.82	-0.402
866.99	-0.404
867.16	-0.408
867.34	-0.410
867.51	-0.414
867.68	-0.415
867.85	-0.417
868.02	-0.420
868.19	-0.419
868.36	-0.423
868.53	-0.424
868.70	-0.429
868.87	-0.431
869.04	-0.425
869.21	-0.427
869.38	-0.423
869.55	-0.416
869.72	-0.417
869.89	-0.418
870.06	-0.415
870.24	-0.413
870.41	-0.415
870.58	-0.412
870.75	-0.415
870.92	-0.417
871.09	-0.412
871.26	-0.410
871.43	-0.411
871.60	-0.411
871.77	-0.402
871.94	-0.408
872.11	-0.412
872.28	-0.404
872.45	-0.407
872.62	-0.411
872.79	-0.414
872.96	-0.410
873.13	-0.413
873.30	-0.410
873.47	-0.419
873.64	-0.425
873.81	-0.428
873.98	-0.428
874.15	-0.428
874.32	-0.430
874.49	-0.426
874.66	-0.419
874.83	-0.429
875.00	-0.427
875.17	-0.431
875.34	-0.414
875.51	-0.410
875.68	-0.406
875.85	-0.397
876.02	-0.400
876.19	-0.392
876.36	-0.385
876.53	-0.379
876.70	-0.379
876.87	-0.380
877.04	-0.397
877.21	-0.414
877.38	-0.410
877.55	-0.410
877.72	-0.408
877.89	-0.413
878.06	-0.415
878.23	-0.420
878.39	-0.432
878.56	-0.435
878.73	-0.431
878.90	-0.410
879.07	-0.399
879.24	-0.410
879.41	-0.411
879.58	-0.412
879.75	-0.412
879.92	-0.409
880.09	-0.416
880.26	-0.420
880.43	-0.420
880.60	-0.417
880.77	-0.413
880.94	-0.414
881.11	-0.414
881.27	-0.411
881.44	-0.415
881.61	-0.406
881.78	-0.410
881.95	-0.400
882.12	-0.392
882.29	-0.388
882.46	-0.391
882.63	-0.389
882.80	-0.395
882.97	-0.386
883.14	-0.384
883.30	-0.384
883.47	-0.377
883.64	-0.374
883.81	-0.387
883.98	-0.388
884.15	-0.382
884.32	-0.382
884.49	-0.396
884.66	-0.388
884.82	-0.394
884.99	-0.395
885.16	-0.399
885.33	-0.409
885.50	-0.418
885.67	-0.408
885.84	-0.416
886.01	-0.408
886.17	-0.395
886.34	-0.392
886.51	-0.385
886.68	-0.378
886.85	-0.383
887.02	-0.379
887.19	-0.373
887.36	-0.354
887.52	-0.344
887.69	-0.341
887.86	-0.342
888.03	-0.349
888.20	-0.354
888.37	-0.374
888.54	-0.377
888.70	-0.380
888.87	-0.373
889.04	-0.374
889.21	-0.382
889.38	-0.383
889.55	-0.386
889.71	-0.318
889.88	-0.353
890.05	-0.364
890.22	-0.304
890.39	-0.497
>>>>>End Processed Spectral Data<<<<<
