SpectraSuite Data File
++++++++++++++++++++++++++++++++++++
Date: Mon Jun 15 08:50:28 PDT 2015
User: introlabs
Dark Spectrum Present: Yes
Reference Spectrum Present: Yes
Number of Sampled Component Spectra: 1
Spectrometers: USB4H08886
Integration Time (usec): 44366 (USB4H08886)
Spectra Averaged: 20 (USB4H08886)
Boxcar Smoothing: 5 (USB4H08886)
Correct for Electrical Dark: Yes (USB4H08886)
Strobe/Lamp Enabled: No (USB4H08886)
Correct for Detector Non-linearity: Yes (USB4H08886)
Correct for Stray Light: Yes (USB4H08886)
Number of Pixels in Processed Spectrum: 3648
>>>>>Begin Processed Spectral Data<<<<<
178.14	-0.000
178.36	-0.000
178.57	-0.000
178.79	-0.000
179.01	-0.513
179.22	-0.000
179.44	-0.000
179.65	0.386
179.87	0.152
180.08	0.189
180.30	0.091
180.52	-0.005
180.73	-0.084
180.95	-0.069
181.16	-0.017
181.38	-0.002
181.59	-0.006
181.81	0.002
182.03	0.006
182.24	0.027
182.46	0.025
182.67	0.032
182.89	0.032
183.10	0.028
183.32	0.032
183.54	0.015
183.75	0.016
183.97	0.015
184.18	0.008
184.40	0.004
184.61	0.011
184.83	0.018
185.04	0.020
185.26	0.021
185.48	0.023
185.69	0.025
185.91	0.036
186.12	0.037
186.34	0.049
186.55	0.041
186.77	0.039
186.98	0.024
187.20	0.013
187.42	0.018
187.63	0.016
187.85	0.018
188.06	0.017
188.28	0.018
188.49	0.017
188.71	0.016
188.92	0.022
189.14	0.014
189.36	0.029
189.57	0.036
189.79	0.030
190.00	0.029
190.22	0.027
190.43	0.028
190.65	0.020
190.86	0.030
191.08	0.027
191.29	0.026
191.51	0.037
191.72	0.027
191.94	0.028
192.16	0.025
192.37	0.029
192.59	0.034
192.80	0.029
193.02	0.039
193.23	0.033
193.45	0.025
193.66	0.027
193.88	0.030
194.09	0.030
194.31	0.026
194.52	0.028
194.74	0.019
194.95	0.013
195.17	0.017
195.38	0.011
195.60	0.004
195.81	0.012
196.03	0.005
196.25	0.006
196.46	0.007
196.68	0.009
196.89	0.003
197.11	0.014
197.32	0.014
197.54	0.014
197.75	0.025
197.97	0.021
198.18	0.024
198.40	0.036
198.61	0.027
198.83	0.026
199.04	0.026
199.26	0.018
199.47	0.017
199.69	0.022
199.90	0.032
200.12	0.021
200.33	0.033
200.55	0.019
200.76	0.003
200.98	0.002
201.19	-0.002
201.41	-0.003
201.62	0.010
201.84	0.011
202.05	0.009
202.27	-0.001
202.48	0.001
202.70	0.001
202.91	0.008
203.13	0.017
203.34	0.007
203.56	0.012
203.77	0.013
203.99	0.007
204.20	-0.000
204.42	-0.006
204.63	-0.005
204.85	-0.009
205.06	-0.016
205.28	-0.014
205.49	-0.014
205.71	0.007
205.92	0.008
206.14	0.004
206.35	0.009
206.56	0.023
206.78	0.027
206.99	0.028
207.21	0.035
207.42	0.039
207.64	0.035
207.85	0.033
208.07	0.032
208.28	0.035
208.50	0.043
208.71	0.040
208.93	0.034
209.14	0.038
209.36	0.037
209.57	0.038
209.79	0.042
210.00	0.045
210.22	0.049
210.43	0.041
210.64	0.040
210.86	0.030
211.07	0.026
211.29	0.022
211.50	0.016
211.72	0.012
211.93	0.006
212.15	0.008
212.36	0.006
212.58	0.002
212.79	0.008
213.01	0.001
213.22	0.010
213.43	0.015
213.65	0.017
213.86	0.020
214.08	0.028
214.29	0.030
214.51	0.023
214.72	0.021
214.94	0.021
215.15	0.018
215.36	0.019
215.58	0.010
215.79	0.010
216.01	0.010
216.22	0.011
216.44	0.006
216.65	0.009
216.87	0.016
217.08	0.015
217.29	0.018
217.51	0.017
217.72	0.020
217.94	0.030
218.15	0.030
218.37	0.026
218.58	0.023
218.80	0.029
219.01	0.024
219.22	0.015
219.44	0.018
219.65	0.016
219.87	0.020
220.08	0.014
220.30	0.007
220.51	0.004
220.72	0.013
220.94	0.010
221.15	0.006
221.37	0.001
221.58	0.005
221.79	0.014
222.01	0.008
222.22	-0.002
222.44	-0.003
222.65	-0.006
222.87	-0.009
223.08	-0.010
223.29	-0.008
223.51	-0.008
223.72	-0.008
223.94	-0.010
224.15	-0.020
224.36	-0.015
224.58	-0.018
224.79	-0.013
225.01	-0.011
225.22	-0.011
225.44	-0.011
225.65	-0.007
225.86	-0.005
226.08	-0.005
226.29	-0.007
226.51	-0.002
226.72	-0.001
226.93	0.007
227.15	0.003
227.36	0.004
227.58	0.008
227.79	0.010
228.00	0.006
228.22	-0.001
228.43	0.000
228.65	-0.001
228.86	-0.003
229.07	-0.005
229.29	-0.011
229.50	-0.011
229.72	-0.011
229.93	-0.015
230.14	-0.019
230.36	-0.020
230.57	-0.017
230.78	-0.017
231.00	-0.019
231.21	-0.022
231.43	-0.022
231.64	-0.021
231.85	-0.020
232.07	-0.023
232.28	-0.021
232.50	-0.022
232.71	-0.024
232.92	-0.024
233.14	-0.025
233.35	-0.024
233.56	-0.023
233.78	-0.023
233.99	-0.024
234.21	-0.025
234.42	-0.025
234.63	-0.028
234.85	-0.028
235.06	-0.028
235.27	-0.028
235.49	-0.027
235.70	-0.026
235.91	-0.027
236.13	-0.027
236.34	-0.029
236.56	-0.029
236.77	-0.029
236.98	-0.027
237.20	-0.028
237.41	-0.027
237.62	-0.028
237.84	-0.029
238.05	-0.030
238.26	-0.029
238.48	-0.029
238.69	-0.028
238.91	-0.027
239.12	-0.027
239.33	-0.027
239.55	-0.026
239.76	-0.026
239.97	-0.025
240.19	-0.025
240.40	-0.024
240.61	-0.023
240.83	-0.023
241.04	-0.023
241.25	-0.022
241.47	-0.021
241.68	-0.020
241.89	-0.020
242.11	-0.018
242.32	-0.017
242.53	-0.017
242.75	-0.016
242.96	-0.015
243.17	-0.014
243.39	-0.013
243.60	-0.013
243.81	-0.013
244.03	-0.013
244.24	-0.012
244.45	-0.011
244.67	-0.011
244.88	-0.010
245.09	-0.009
245.31	-0.008
245.52	-0.008
245.73	-0.007
245.95	-0.007
246.16	-0.006
246.37	-0.006
246.59	-0.006
246.80	-0.006
247.01	-0.005
247.23	-0.006
247.44	-0.006
247.65	-0.006
247.87	-0.006
248.08	-0.006
248.29	-0.005
248.51	-0.005
248.72	-0.004
248.93	-0.004
249.15	-0.003
249.36	-0.003
249.57	-0.003
249.78	-0.002
250.00	-0.002
250.21	-0.001
250.42	-0.001
250.64	-0.001
250.85	-0.000
251.06	-0.000
251.28	-0.000
251.49	0.000
251.70	0.000
251.92	0.001
252.13	0.001
252.34	0.002
252.55	0.001
252.77	0.001
252.98	0.002
253.19	0.001
253.41	0.002
253.62	0.002
253.83	0.003
254.05	0.003
254.26	0.003
254.47	0.002
254.68	0.002
254.90	0.003
255.11	0.004
255.32	0.004
255.54	0.004
255.75	0.004
255.96	0.004
256.17	0.004
256.39	0.004
256.60	0.004
256.81	0.004
257.03	0.005
257.24	0.005
257.45	0.005
257.66	0.004
257.88	0.004
258.09	0.004
258.30	0.004
258.51	0.004
258.73	0.004
258.94	0.004
259.15	0.004
259.37	0.004
259.58	0.004
259.79	0.004
260.00	0.004
260.22	0.005
260.43	0.005
260.64	0.004
260.85	0.004
261.07	0.004
261.28	0.004
261.49	0.004
261.71	0.004
261.92	0.004
262.13	0.004
262.34	0.003
262.56	0.003
262.77	0.003
262.98	0.003
263.19	0.003
263.41	0.003
263.62	0.003
263.83	0.002
264.04	0.003
264.26	0.002
264.47	0.002
264.68	0.002
264.89	0.002
265.11	0.002
265.32	0.002
265.53	0.002
265.74	0.002
265.96	0.002
266.17	0.002
266.38	0.002
266.59	0.002
266.81	0.002
267.02	0.002
267.23	0.002
267.44	0.001
267.65	0.000
267.87	0.000
268.08	0.000
268.29	0.000
268.50	0.000
268.72	0.000
268.93	-0.000
269.14	-0.000
269.35	-0.001
269.57	-0.001
269.78	-0.001
269.99	-0.001
270.20	-0.001
270.41	-0.001
270.63	-0.002
270.84	-0.003
271.05	-0.003
271.26	-0.003
271.48	-0.003
271.69	-0.003
271.90	-0.003
272.11	-0.004
272.32	-0.004
272.54	-0.004
272.75	-0.004
272.96	-0.004
273.17	-0.004
273.39	-0.004
273.60	-0.005
273.81	-0.005
274.02	-0.005
274.23	-0.005
274.45	-0.005
274.66	-0.005
274.87	-0.005
275.08	-0.005
275.29	-0.005
275.51	-0.005
275.72	-0.005
275.93	-0.005
276.14	-0.005
276.35	-0.005
276.57	-0.005
276.78	-0.005
276.99	-0.005
277.20	-0.005
277.41	-0.005
277.63	-0.005
277.84	-0.005
278.05	-0.005
278.26	-0.005
278.47	-0.005
278.69	-0.005
278.90	-0.004
279.11	-0.004
279.32	-0.004
279.53	-0.004
279.74	-0.004
279.96	-0.003
280.17	-0.003
280.38	-0.003
280.59	-0.003
280.80	-0.002
281.02	-0.002
281.23	-0.002
281.44	-0.002
281.65	-0.002
281.86	-0.002
282.07	-0.002
282.29	-0.002
282.50	-0.002
282.71	-0.002
282.92	-0.002
283.13	-0.002
283.35	-0.002
283.56	-0.001
283.77	-0.001
283.98	-0.001
284.19	-0.000
284.40	0.000
284.62	0.001
284.83	0.001
285.04	0.001
285.25	0.002
285.46	0.002
285.67	0.003
285.88	0.003
286.10	0.004
286.31	0.004
286.52	0.005
286.73	0.005
286.94	0.005
287.15	0.006
287.37	0.006
287.58	0.007
287.79	0.008
288.00	0.008
288.21	0.008
288.42	0.009
288.63	0.009
288.85	0.010
289.06	0.010
289.27	0.011
289.48	0.011
289.69	0.012
289.90	0.012
290.11	0.012
290.33	0.013
290.54	0.013
290.75	0.014
290.96	0.014
291.17	0.014
291.38	0.014
291.59	0.015
291.81	0.015
292.02	0.015
292.23	0.016
292.44	0.016
292.65	0.016
292.86	0.016
293.07	0.017
293.28	0.017
293.50	0.017
293.71	0.017
293.92	0.017
294.13	0.017
294.34	0.018
294.55	0.018
294.76	0.018
294.97	0.018
295.19	0.018
295.40	0.018
295.61	0.018
295.82	0.018
296.03	0.018
296.24	0.018
296.45	0.018
296.66	0.018
296.87	0.018
297.09	0.018
297.30	0.018
297.51	0.019
297.72	0.019
297.93	0.019
298.14	0.019
298.35	0.019
298.56	0.019
298.77	0.019
298.99	0.019
299.20	0.019
299.41	0.019
299.62	0.019
299.83	0.019
300.04	0.020
300.25	0.020
300.46	0.020
300.67	0.020
300.88	0.020
301.10	0.020
301.31	0.020
301.52	0.020
301.73	0.019
301.94	0.020
302.15	0.020
302.36	0.020
302.57	0.020
302.78	0.020
302.99	0.020
303.20	0.020
303.41	0.020
303.63	0.020
303.84	0.020
304.05	0.020
304.26	0.020
304.47	0.020
304.68	0.020
304.89	0.021
305.10	0.021
305.31	0.021
305.52	0.021
305.73	0.021
305.94	0.021
306.15	0.021
306.37	0.021
306.58	0.021
306.79	0.021
307.00	0.021
307.21	0.021
307.42	0.021
307.63	0.021
307.84	0.022
308.05	0.022
308.26	0.022
308.47	0.022
308.68	0.022
308.89	0.022
309.10	0.022
309.31	0.022
309.52	0.022
309.73	0.022
309.95	0.022
310.16	0.022
310.37	0.022
310.58	0.022
310.79	0.022
311.00	0.022
311.21	0.022
311.42	0.022
311.63	0.022
311.84	0.022
312.05	0.022
312.26	0.022
312.47	0.022
312.68	0.023
312.89	0.023
313.10	0.023
313.31	0.023
313.52	0.023
313.73	0.023
313.94	0.023
314.15	0.023
314.36	0.023
314.57	0.023
314.78	0.024
314.99	0.023
315.21	0.024
315.42	0.023
315.63	0.024
315.84	0.024
316.05	0.024
316.26	0.024
316.47	0.024
316.68	0.024
316.89	0.024
317.10	0.024
317.31	0.024
317.52	0.024
317.73	0.024
317.94	0.024
318.15	0.024
318.36	0.024
318.57	0.024
318.78	0.024
318.99	0.024
319.20	0.024
319.41	0.025
319.62	0.025
319.83	0.025
320.04	0.025
320.25	0.025
320.46	0.025
320.67	0.025
320.88	0.025
321.09	0.025
321.30	0.025
321.51	0.025
321.72	0.025
321.93	0.025
322.14	0.025
322.35	0.025
322.56	0.025
322.77	0.025
322.98	0.025
323.19	0.025
323.40	0.025
323.61	0.025
323.82	0.025
324.03	0.025
324.24	0.025
324.45	0.025
324.66	0.025
324.87	0.025
325.08	0.025
325.29	0.025
325.50	0.025
325.71	0.025
325.92	0.025
326.13	0.025
326.34	0.025
326.55	0.025
326.76	0.025
326.97	0.025
327.18	0.025
327.39	0.025
327.60	0.025
327.80	0.025
328.01	0.025
328.22	0.025
328.43	0.025
328.64	0.025
328.85	0.025
329.06	0.025
329.27	0.025
329.48	0.025
329.69	0.025
329.90	0.025
330.11	0.025
330.32	0.025
330.53	0.025
330.74	0.024
330.95	0.024
331.16	0.024
331.37	0.024
331.58	0.024
331.79	0.024
332.00	0.024
332.21	0.024
332.42	0.024
332.63	0.024
332.83	0.024
333.04	0.024
333.25	0.024
333.46	0.024
333.67	0.023
333.88	0.023
334.09	0.023
334.30	0.023
334.51	0.023
334.72	0.023
334.93	0.023
335.14	0.023
335.35	0.022
335.56	0.022
335.77	0.022
335.98	0.022
336.18	0.022
336.39	0.022
336.60	0.022
336.81	0.022
337.02	0.022
337.23	0.022
337.44	0.021
337.65	0.021
337.86	0.021
338.07	0.021
338.28	0.021
338.49	0.021
338.70	0.020
338.91	0.020
339.11	0.020
339.32	0.020
339.53	0.020
339.74	0.020
339.95	0.019
340.16	0.019
340.37	0.019
340.58	0.019
340.79	0.019
341.00	0.019
341.21	0.019
341.41	0.018
341.62	0.018
341.83	0.018
342.04	0.018
342.25	0.017
342.46	0.017
342.67	0.017
342.88	0.017
343.09	0.017
343.30	0.017
343.50	0.016
343.71	0.016
343.92	0.016
344.13	0.016
344.34	0.016
344.55	0.016
344.76	0.016
344.97	0.016
345.18	0.015
345.38	0.015
345.59	0.015
345.80	0.015
346.01	0.015
346.22	0.015
346.43	0.015
346.64	0.014
346.85	0.014
347.06	0.014
347.26	0.014
347.47	0.014
347.68	0.014
347.89	0.014
348.10	0.014
348.31	0.013
348.52	0.013
348.73	0.013
348.93	0.013
349.14	0.013
349.35	0.013
349.56	0.013
349.77	0.013
349.98	0.012
350.19	0.012
350.39	0.012
350.60	0.012
350.81	0.012
351.02	0.012
351.23	0.012
351.44	0.012
351.65	0.012
351.86	0.012
352.06	0.011
352.27	0.011
352.48	0.011
352.69	0.011
352.90	0.011
353.11	0.011
353.31	0.011
353.52	0.011
353.73	0.011
353.94	0.011
354.15	0.011
354.36	0.011
354.57	0.011
354.77	0.010
354.98	0.010
355.19	0.010
355.40	0.010
355.61	0.010
355.82	0.010
356.02	0.010
356.23	0.010
356.44	0.010
356.65	0.010
356.86	0.010
357.07	0.010
357.27	0.010
357.48	0.010
357.69	0.010
357.90	0.010
358.11	0.009
358.32	0.009
358.52	0.009
358.73	0.009
358.94	0.009
359.15	0.009
359.36	0.009
359.56	0.009
359.77	0.009
359.98	0.008
360.19	0.008
360.40	0.008
360.61	0.008
360.81	0.008
361.02	0.008
361.23	0.008
361.44	0.008
361.65	0.008
361.85	0.008
362.06	0.008
362.27	0.008
362.48	0.008
362.69	0.008
362.89	0.008
363.10	0.008
363.31	0.008
363.52	0.008
363.73	0.008
363.93	0.008
364.14	0.008
364.35	0.008
364.56	0.008
364.77	0.008
364.97	0.008
365.18	0.007
365.39	0.007
365.60	0.007
365.81	0.007
366.01	0.007
366.22	0.007
366.43	0.007
366.64	0.007
366.84	0.007
367.05	0.007
367.26	0.007
367.47	0.007
367.68	0.007
367.88	0.007
368.09	0.007
368.30	0.007
368.51	0.007
368.71	0.007
368.92	0.007
369.13	0.007
369.34	0.007
369.55	0.007
369.75	0.007
369.96	0.007
370.17	0.007
370.38	0.007
370.58	0.006
370.79	0.006
371.00	0.006
371.21	0.006
371.41	0.006
371.62	0.006
371.83	0.006
372.04	0.006
372.24	0.006
372.45	0.006
372.66	0.006
372.87	0.006
373.07	0.006
373.28	0.006
373.49	0.006
373.70	0.006
373.90	0.006
374.11	0.005
374.32	0.005
374.53	0.005
374.73	0.005
374.94	0.005
375.15	0.005
375.36	0.005
375.56	0.005
375.77	0.005
375.98	0.005
376.19	0.005
376.39	0.005
376.60	0.005
376.81	0.005
377.02	0.005
377.22	0.005
377.43	0.005
377.64	0.005
377.84	0.005
378.05	0.005
378.26	0.005
378.47	0.005
378.67	0.005
378.88	0.005
379.09	0.005
379.30	0.005
379.50	0.005
379.71	0.005
379.92	0.005
380.12	0.005
380.33	0.004
380.54	0.005
380.75	0.004
380.95	0.004
381.16	0.004
381.37	0.004
381.57	0.004
381.78	0.004
381.99	0.004
382.20	0.004
382.40	0.004
382.61	0.004
382.82	0.004
383.02	0.004
383.23	0.004
383.44	0.004
383.64	0.004
383.85	0.004
384.06	0.004
384.27	0.004
384.47	0.004
384.68	0.004
384.89	0.004
385.09	0.004
385.30	0.004
385.51	0.004
385.71	0.004
385.92	0.004
386.13	0.004
386.33	0.003
386.54	0.003
386.75	0.003
386.95	0.003
387.16	0.003
387.37	0.003
387.58	0.004
387.78	0.004
387.99	0.004
388.20	0.004
388.40	0.004
388.61	0.004
388.82	0.004
389.02	0.004
389.23	0.004
389.44	0.004
389.64	0.004
389.85	0.003
390.06	0.003
390.26	0.003
390.47	0.003
390.68	0.003
390.88	0.003
391.09	0.003
391.30	0.003
391.50	0.003
391.71	0.003
391.92	0.003
392.12	0.003
392.33	0.003
392.53	0.003
392.74	0.003
392.95	0.003
393.15	0.003
393.36	0.003
393.57	0.003
393.77	0.003
393.98	0.003
394.19	0.003
394.39	0.003
394.60	0.003
394.81	0.003
395.01	0.003
395.22	0.003
395.43	0.003
395.63	0.003
395.84	0.003
396.04	0.003
396.25	0.003
396.46	0.003
396.66	0.003
396.87	0.003
397.08	0.003
397.28	0.003
397.49	0.003
397.69	0.003
397.90	0.003
398.11	0.003
398.31	0.003
398.52	0.003
398.73	0.003
398.93	0.003
399.14	0.002
399.34	0.002
399.55	0.002
399.76	0.002
399.96	0.002
400.17	0.002
400.37	0.002
400.58	0.002
400.79	0.003
400.99	0.002
401.20	0.002
401.41	0.002
401.61	0.003
401.82	0.003
402.02	0.003
402.23	0.002
402.44	0.002
402.64	0.002
402.85	0.002
403.05	0.002
403.26	0.002
403.47	0.002
403.67	0.002
403.88	0.002
404.08	0.002
404.29	0.002
404.50	0.002
404.70	0.002
404.91	0.002
405.11	0.002
405.32	0.002
405.52	0.002
405.73	0.002
405.94	0.002
406.14	0.002
406.35	0.002
406.55	0.002
406.76	0.002
406.97	0.002
407.17	0.002
407.38	0.002
407.58	0.002
407.79	0.002
407.99	0.002
408.20	0.002
408.41	0.002
408.61	0.002
408.82	0.002
409.02	0.002
409.23	0.002
409.43	0.002
409.64	0.002
409.84	0.002
410.05	0.002
410.26	0.002
410.46	0.002
410.67	0.002
410.87	0.002
411.08	0.002
411.28	0.002
411.49	0.002
411.69	0.002
411.90	0.001
412.11	0.001
412.31	0.001
412.52	0.001
412.72	0.001
412.93	0.001
413.13	0.001
413.34	0.001
413.54	0.001
413.75	0.001
413.95	0.001
414.16	0.001
414.37	0.001
414.57	0.001
414.78	0.001
414.98	0.001
415.19	0.001
415.39	0.001
415.60	0.001
415.80	0.001
416.01	0.001
416.21	0.001
416.42	0.001
416.62	0.001
416.83	0.001
417.03	0.001
417.24	0.001
417.44	0.001
417.65	0.001
417.86	0.000
418.06	0.000
418.27	0.000
418.47	0.000
418.68	0.000
418.88	0.000
419.09	0.000
419.29	0.000
419.50	0.000
419.70	0.000
419.91	0.001
420.11	0.001
420.32	0.001
420.52	0.000
420.73	0.000
420.93	0.000
421.14	0.001
421.34	0.000
421.55	0.000
421.75	0.001
421.96	0.000
422.16	0.001
422.37	0.000
422.57	0.000
422.78	0.001
422.98	0.001
423.19	0.001
423.39	0.001
423.60	0.001
423.80	0.001
424.01	0.001
424.21	0.001
424.42	0.001
424.62	0.001
424.83	0.001
425.03	0.001
425.23	0.001
425.44	0.001
425.64	0.001
425.85	0.001
426.05	0.001
426.26	0.001
426.46	0.001
426.67	0.000
426.87	0.000
427.08	0.000
427.28	0.000
427.49	0.000
427.69	0.000
427.90	0.000
428.10	0.000
428.31	0.000
428.51	0.000
428.71	-0.000
428.92	0.000
429.12	0.000
429.33	-0.000
429.53	-0.000
429.74	0.000
429.94	0.000
430.15	0.000
430.35	0.000
430.56	0.000
430.76	0.000
430.96	0.000
431.17	0.000
431.37	0.000
431.58	0.000
431.78	0.001
431.99	0.001
432.19	0.001
432.40	0.001
432.60	0.001
432.80	0.001
433.01	0.001
433.21	0.001
433.42	0.001
433.62	0.001
433.83	0.001
434.03	0.001
434.23	0.000
434.44	0.000
434.64	0.000
434.85	0.000
435.05	0.000
435.26	0.000
435.46	0.000
435.66	0.000
435.87	0.000
436.07	0.000
436.28	-0.000
436.48	-0.000
436.69	-0.000
436.89	-0.000
437.09	-0.000
437.30	-0.000
437.50	-0.000
437.71	-0.000
437.91	0.000
438.11	-0.000
438.32	-0.000
438.52	0.000
438.73	0.000
438.93	0.000
439.13	0.000
439.34	0.000
439.54	0.000
439.75	0.000
439.95	0.000
440.15	0.000
440.36	0.000
440.56	0.001
440.77	0.001
440.97	0.000
441.17	0.000
441.38	0.000
441.58	0.000
441.79	0.000
441.99	-0.000
442.19	-0.000
442.40	-0.000
442.60	-0.000
442.81	-0.000
443.01	-0.000
443.21	-0.000
443.42	-0.000
443.62	-0.000
443.82	-0.000
444.03	-0.000
444.23	-0.000
444.44	-0.000
444.64	-0.000
444.84	0.000
445.05	0.000
445.25	0.000
445.45	-0.000
445.66	-0.000
445.86	-0.000
446.06	-0.000
446.27	-0.000
446.47	-0.000
446.68	-0.000
446.88	0.000
447.08	-0.000
447.29	-0.000
447.49	-0.000
447.69	-0.000
447.90	0.000
448.10	0.000
448.30	0.000
448.51	0.000
448.71	0.000
448.91	0.000
449.12	0.000
449.32	0.000
449.52	0.000
449.73	0.000
449.93	0.000
450.14	0.000
450.34	-0.000
450.54	0.000
450.75	-0.000
450.95	-0.000
451.15	0.000
451.36	-0.000
451.56	0.000
451.76	0.000
451.97	-0.000
452.17	-0.000
452.37	-0.000
452.58	-0.000
452.78	-0.000
452.98	-0.000
453.19	-0.000
453.39	-0.001
453.59	-0.001
453.79	-0.001
454.00	-0.000
454.20	-0.000
454.40	-0.000
454.61	-0.000
454.81	-0.000
455.01	-0.000
455.22	-0.000
455.42	-0.000
455.62	-0.000
455.83	-0.000
456.03	-0.000
456.23	-0.000
456.44	0.000
456.64	0.000
456.84	0.000
457.04	0.000
457.25	0.000
457.45	-0.000
457.65	-0.000
457.86	-0.000
458.06	-0.000
458.26	-0.000
458.47	-0.000
458.67	-0.000
458.87	-0.000
459.07	-0.000
459.28	-0.001
459.48	-0.000
459.68	-0.000
459.89	-0.000
460.09	-0.000
460.29	-0.000
460.49	-0.001
460.70	-0.000
460.90	-0.000
461.10	-0.000
461.31	-0.000
461.51	-0.000
461.71	0.000
461.91	0.000
462.12	0.000
462.32	-0.000
462.52	0.000
462.72	0.000
462.93	-0.000
463.13	-0.000
463.33	-0.000
463.53	-0.000
463.74	-0.000
463.94	-0.001
464.14	-0.001
464.35	-0.001
464.55	-0.001
464.75	-0.001
464.95	-0.001
465.16	-0.001
465.36	-0.001
465.56	-0.001
465.76	-0.001
465.97	-0.001
466.17	-0.001
466.37	-0.001
466.57	-0.001
466.78	-0.000
466.98	-0.000
467.18	-0.000
467.38	-0.000
467.59	-0.000
467.79	-0.000
467.99	-0.000
468.19	-0.000
468.39	-0.000
468.60	-0.000
468.80	-0.001
469.00	-0.001
469.20	-0.001
469.41	-0.001
469.61	-0.001
469.81	-0.001
470.01	-0.001
470.22	-0.001
470.42	-0.001
470.62	-0.001
470.82	-0.001
471.02	-0.001
471.23	-0.001
471.43	-0.001
471.63	-0.001
471.83	-0.001
472.04	-0.001
472.24	-0.001
472.44	-0.001
472.64	-0.001
472.84	-0.001
473.05	-0.001
473.25	-0.001
473.45	-0.001
473.65	-0.001
473.85	-0.001
474.06	-0.001
474.26	-0.001
474.46	-0.001
474.66	-0.001
474.86	-0.001
475.07	-0.000
475.27	-0.000
475.47	-0.000
475.67	-0.000
475.87	-0.000
476.08	-0.000
476.28	-0.000
476.48	-0.000
476.68	-0.000
476.88	-0.000
477.09	-0.000
477.29	-0.000
477.49	-0.000
477.69	-0.001
477.89	-0.001
478.09	-0.001
478.30	-0.001
478.50	-0.001
478.70	-0.001
478.90	-0.001
479.10	-0.001
479.31	-0.001
479.51	-0.001
479.71	-0.001
479.91	-0.001
480.11	-0.001
480.31	-0.001
480.52	-0.001
480.72	-0.001
480.92	-0.001
481.12	-0.001
481.32	-0.001
481.52	-0.001
481.72	-0.001
481.93	-0.001
482.13	-0.001
482.33	-0.001
482.53	-0.001
482.73	-0.001
482.93	-0.001
483.14	-0.001
483.34	-0.001
483.54	-0.001
483.74	-0.001
483.94	-0.001
484.14	-0.001
484.34	-0.001
484.55	-0.001
484.75	-0.001
484.95	-0.001
485.15	-0.001
485.35	-0.001
485.55	-0.001
485.75	-0.001
485.96	-0.001
486.16	-0.001
486.36	-0.001
486.56	-0.001
486.76	-0.001
486.96	-0.001
487.16	-0.001
487.36	-0.001
487.57	-0.001
487.77	-0.001
487.97	-0.001
488.17	-0.001
488.37	-0.001
488.57	-0.001
488.77	-0.001
488.97	-0.000
489.18	-0.000
489.38	-0.000
489.58	-0.000
489.78	-0.000
489.98	-0.000
490.18	-0.000
490.38	-0.000
490.58	-0.000
490.78	-0.000
490.98	-0.000
491.19	-0.000
491.39	-0.000
491.59	-0.001
491.79	-0.001
491.99	-0.001
492.19	-0.001
492.39	-0.001
492.59	-0.001
492.79	-0.001
492.99	-0.001
493.20	-0.001
493.40	-0.001
493.60	-0.001
493.80	-0.001
494.00	-0.001
494.20	-0.001
494.40	-0.001
494.60	-0.001
494.80	-0.001
495.00	-0.001
495.20	-0.001
495.40	-0.001
495.61	-0.001
495.81	-0.001
496.01	-0.001
496.21	-0.000
496.41	-0.000
496.61	-0.000
496.81	-0.000
497.01	-0.000
497.21	-0.000
497.41	-0.000
497.61	-0.000
497.81	0.000
498.01	0.000
498.21	0.000
498.41	0.000
498.61	0.000
498.82	-0.000
499.02	-0.000
499.22	0.000
499.42	-0.000
499.62	-0.000
499.82	-0.000
500.02	-0.000
500.22	-0.000
500.42	-0.001
500.62	-0.000
500.82	-0.000
501.02	-0.000
501.22	-0.000
501.42	-0.001
501.62	-0.000
501.82	-0.000
502.02	-0.000
502.22	-0.000
502.42	-0.000
502.62	-0.000
502.82	-0.000
503.02	-0.000
503.22	-0.000
503.42	-0.000
503.63	-0.000
503.83	-0.000
504.03	-0.000
504.23	-0.000
504.43	-0.000
504.63	-0.000
504.83	-0.000
505.03	-0.000
505.23	-0.000
505.43	-0.000
505.63	-0.000
505.83	0.000
506.03	0.000
506.23	-0.000
506.43	-0.000
506.63	-0.000
506.83	-0.000
507.03	-0.000
507.23	-0.000
507.43	-0.000
507.63	-0.000
507.83	-0.000
508.03	-0.000
508.23	-0.000
508.43	-0.000
508.63	-0.000
508.83	-0.000
509.03	-0.000
509.23	-0.000
509.43	-0.000
509.63	-0.000
509.83	-0.000
510.03	-0.000
510.23	-0.000
510.43	-0.000
510.63	-0.000
510.83	-0.000
511.03	-0.000
511.23	-0.000
511.43	-0.000
511.63	-0.000
511.83	-0.000
512.03	-0.000
512.22	-0.000
512.42	-0.000
512.62	-0.000
512.82	-0.000
513.02	-0.000
513.22	-0.000
513.42	-0.000
513.62	-0.000
513.82	-0.000
514.02	-0.000
514.22	-0.000
514.42	-0.000
514.62	-0.000
514.82	-0.001
515.02	-0.000
515.22	-0.001
515.42	-0.001
515.62	-0.001
515.82	-0.001
516.02	-0.001
516.22	-0.001
516.42	-0.000
516.62	-0.000
516.82	-0.001
517.01	-0.000
517.21	-0.000
517.41	-0.000
517.61	-0.000
517.81	-0.000
518.01	-0.000
518.21	-0.000
518.41	-0.000
518.61	-0.000
518.81	-0.000
519.01	0.000
519.21	0.000
519.41	0.000
519.61	0.000
519.81	-0.000
520.00	-0.000
520.20	-0.000
520.40	0.000
520.60	0.000
520.80	0.000
521.00	0.000
521.20	0.000
521.40	0.000
521.60	0.000
521.80	0.000
522.00	0.000
522.20	0.000
522.39	0.000
522.59	0.000
522.79	0.000
522.99	-0.000
523.19	-0.000
523.39	-0.000
523.59	-0.000
523.79	-0.000
523.99	-0.000
524.19	-0.000
524.38	-0.000
524.58	-0.000
524.78	0.000
524.98	-0.000
525.18	0.000
525.38	0.000
525.58	0.000
525.78	0.000
525.98	0.000
526.18	-0.000
526.37	-0.000
526.57	-0.000
526.77	0.000
526.97	-0.000
527.17	-0.000
527.37	-0.000
527.57	-0.000
527.77	-0.000
527.96	-0.000
528.16	-0.000
528.36	-0.000
528.56	-0.000
528.76	-0.000
528.96	-0.000
529.16	-0.000
529.36	-0.000
529.55	-0.000
529.75	-0.000
529.95	-0.000
530.15	0.000
530.35	0.000
530.55	0.000
530.75	0.000
530.94	0.000
531.14	0.000
531.34	0.000
531.54	-0.000
531.74	-0.000
531.94	0.000
532.13	-0.000
532.33	-0.000
532.53	-0.000
532.73	-0.000
532.93	-0.000
533.13	-0.000
533.33	-0.000
533.52	-0.000
533.72	0.000
533.92	0.000
534.12	0.000
534.32	0.000
534.52	0.000
534.71	0.000
534.91	0.000
535.11	0.000
535.31	0.000
535.51	-0.000
535.71	-0.000
535.90	-0.000
536.10	-0.000
536.30	-0.000
536.50	-0.000
536.70	-0.000
536.89	-0.000
537.09	-0.000
537.29	-0.000
537.49	-0.000
537.69	0.000
537.89	0.000
538.08	-0.000
538.28	-0.000
538.48	-0.000
538.68	0.000
538.88	0.000
539.07	-0.000
539.27	-0.000
539.47	-0.000
539.67	-0.000
539.87	0.000
540.06	0.000
540.26	0.000
540.46	0.000
540.66	0.000
540.86	0.000
541.05	0.000
541.25	0.000
541.45	0.001
541.65	0.000
541.84	0.000
542.04	0.000
542.24	0.000
542.44	0.000
542.64	0.000
542.83	-0.000
543.03	-0.000
543.23	-0.000
543.43	-0.000
543.62	-0.000
543.82	-0.000
544.02	-0.000
544.22	-0.000
544.42	-0.000
544.61	-0.000
544.81	-0.000
545.01	-0.000
545.21	-0.000
545.40	-0.000
545.60	0.000
545.80	-0.000
546.00	0.000
546.19	0.000
546.39	0.000
546.59	0.000
546.79	0.000
546.98	0.000
547.18	0.000
547.38	0.000
547.58	0.000
547.77	0.000
547.97	0.000
548.17	0.000
548.37	0.000
548.56	0.000
548.76	0.000
548.96	0.000
549.16	0.001
549.35	0.000
549.55	0.000
549.75	0.000
549.95	0.000
550.14	0.001
550.34	0.000
550.54	0.000
550.73	0.000
550.93	0.000
551.13	0.000
551.33	0.000
551.52	0.000
551.72	0.000
551.92	0.000
552.12	0.000
552.31	-0.000
552.51	0.000
552.71	0.000
552.90	0.000
553.10	0.000
553.30	0.000
553.50	0.000
553.69	0.000
553.89	0.000
554.09	0.000
554.28	0.000
554.48	0.000
554.68	0.000
554.87	0.001
555.07	0.000
555.27	0.001
555.47	0.001
555.66	0.000
555.86	0.001
556.06	0.001
556.25	0.001
556.45	0.001
556.65	0.001
556.84	0.001
557.04	0.001
557.24	0.001
557.43	0.001
557.63	0.000
557.83	0.000
558.02	0.000
558.22	0.000
558.42	0.000
558.61	0.000
558.81	0.000
559.01	0.000
559.21	-0.000
559.40	-0.000
559.60	-0.000
559.80	-0.000
559.99	-0.000
560.19	-0.000
560.39	-0.000
560.58	-0.000
560.78	-0.000
560.97	-0.000
561.17	0.000
561.37	0.000
561.56	0.000
561.76	0.000
561.96	0.000
562.15	0.000
562.35	0.000
562.55	0.000
562.74	0.000
562.94	0.000
563.14	0.000
563.33	0.000
563.53	0.000
563.73	0.000
563.92	0.000
564.12	0.000
564.31	-0.000
564.51	-0.000
564.71	0.000
564.90	0.000
565.10	-0.000
565.30	-0.000
565.49	0.000
565.69	-0.000
565.89	0.000
566.08	0.000
566.28	0.000
566.47	0.000
566.67	0.000
566.87	0.000
567.06	-0.000
567.26	-0.000
567.46	-0.000
567.65	-0.000
567.85	-0.000
568.04	-0.000
568.24	-0.001
568.44	-0.001
568.63	-0.001
568.83	-0.001
569.02	-0.001
569.22	-0.001
569.42	-0.001
569.61	-0.001
569.81	-0.001
570.00	-0.001
570.20	-0.001
570.40	-0.001
570.59	-0.001
570.79	-0.001
570.98	-0.001
571.18	-0.001
571.38	-0.001
571.57	-0.001
571.77	-0.001
571.96	-0.001
572.16	-0.001
572.35	-0.001
572.55	-0.001
572.75	-0.001
572.94	-0.001
573.14	-0.001
573.33	-0.000
573.53	-0.000
573.73	-0.000
573.92	-0.000
574.12	-0.000
574.31	-0.000
574.51	-0.000
574.70	-0.000
574.90	-0.000
575.09	-0.000
575.29	-0.000
575.49	-0.000
575.68	-0.000
575.88	-0.000
576.07	-0.000
576.27	-0.000
576.46	-0.000
576.66	-0.000
576.86	-0.000
577.05	-0.000
577.25	-0.000
577.44	-0.000
577.64	-0.000
577.83	-0.000
578.03	-0.000
578.22	-0.000
578.42	-0.000
578.61	-0.000
578.81	-0.000
579.00	-0.000
579.20	-0.000
579.40	-0.000
579.59	-0.000
579.79	-0.000
579.98	-0.000
580.18	-0.000
580.37	-0.000
580.57	-0.000
580.76	-0.000
580.96	-0.000
581.15	-0.000
581.35	-0.000
581.54	-0.000
581.74	-0.000
581.93	-0.000
582.13	-0.000
582.32	-0.000
582.52	-0.000
582.71	-0.000
582.91	-0.000
583.10	-0.000
583.30	-0.000
583.49	-0.000
583.69	-0.000
583.88	-0.000
584.08	-0.000
584.27	-0.000
584.47	-0.000
584.66	-0.000
584.86	-0.000
585.05	-0.000
585.25	-0.000
585.44	-0.000
585.64	-0.000
585.83	-0.000
586.03	-0.000
586.22	-0.000
586.42	-0.000
586.61	0.000
586.81	0.000
587.00	0.000
587.20	0.000
587.39	0.000
587.59	0.000
587.78	0.000
587.98	0.000
588.17	0.001
588.37	0.001
588.56	0.001
588.76	0.001
588.95	0.001
589.15	0.001
589.34	0.000
589.54	0.000
589.73	0.000
589.92	0.000
590.12	0.000
590.31	-0.000
590.51	-0.000
590.70	-0.000
590.90	-0.000
591.09	-0.000
591.29	-0.001
591.48	-0.000
591.68	-0.000
591.87	-0.000
592.06	-0.000
592.26	-0.000
592.45	-0.000
592.65	-0.000
592.84	-0.000
593.04	-0.000
593.23	-0.000
593.43	0.000
593.62	0.000
593.81	0.000
594.01	0.000
594.20	0.000
594.40	0.000
594.59	0.001
594.79	0.001
594.98	0.001
595.17	0.001
595.37	0.001
595.56	0.000
595.76	0.000
595.95	0.000
596.14	0.000
596.34	0.000
596.53	-0.000
596.73	-0.000
596.92	-0.001
597.12	-0.001
597.31	-0.001
597.50	-0.001
597.70	-0.001
597.89	-0.001
598.09	-0.001
598.28	-0.001
598.47	-0.001
598.67	-0.001
598.86	-0.001
599.06	-0.001
599.25	-0.000
599.44	-0.000
599.64	-0.000
599.83	-0.000
600.03	0.000
600.22	0.000
600.41	0.000
600.61	0.000
600.80	0.000
601.00	0.000
601.19	0.001
601.38	0.001
601.58	0.001
601.77	0.001
601.96	0.001
602.16	0.001
602.35	0.001
602.55	0.000
602.74	0.000
602.93	0.000
603.13	0.000
603.32	-0.000
603.51	-0.000
603.71	-0.000
603.90	-0.000
604.09	-0.001
604.29	-0.001
604.48	-0.001
604.68	-0.001
604.87	-0.000
605.06	-0.000
605.26	-0.000
605.45	-0.000
605.64	-0.000
605.84	-0.000
606.03	-0.000
606.22	-0.000
606.42	0.000
606.61	0.000
606.80	0.000
607.00	0.000
607.19	0.000
607.38	0.000
607.58	0.000
607.77	0.000
607.96	0.000
608.16	0.000
608.35	0.001
608.54	0.001
608.74	0.001
608.93	0.001
609.12	0.001
609.32	0.001
609.51	0.001
609.70	0.001
609.90	0.001
610.09	0.001
610.28	0.001
610.48	0.001
610.67	0.001
610.86	0.001
611.06	0.001
611.25	0.001
611.44	0.001
611.64	0.000
611.83	0.000
612.02	0.000
612.21	-0.000
612.41	-0.000
612.60	0.000
612.79	0.000
612.99	0.000
613.18	0.000
613.37	-0.000
613.57	0.000
613.76	0.000
613.95	0.000
614.14	0.000
614.34	0.000
614.53	0.001
614.72	0.001
614.92	0.001
615.11	0.001
615.30	0.001
615.49	0.001
615.69	0.001
615.88	0.001
616.07	0.001
616.26	0.001
616.46	0.001
616.65	0.001
616.84	0.001
617.04	0.001
617.23	0.001
617.42	0.001
617.61	0.002
617.81	0.002
618.00	0.002
618.19	0.002
618.38	0.001
618.58	0.001
618.77	0.001
618.96	0.001
619.15	0.001
619.35	0.001
619.54	0.001
619.73	0.001
619.92	0.001
620.12	0.001
620.31	0.001
620.50	0.001
620.69	0.001
620.89	0.001
621.08	0.001
621.27	0.001
621.46	0.001
621.66	0.001
621.85	0.001
622.04	0.001
622.23	0.001
622.43	0.001
622.62	0.001
622.81	0.001
623.00	0.001
623.19	0.001
623.39	0.001
623.58	0.001
623.77	0.001
623.96	0.001
624.16	0.001
624.35	0.001
624.54	0.001
624.73	0.001
624.92	0.001
625.12	0.001
625.31	0.001
625.50	0.001
625.69	0.001
625.88	0.001
626.08	0.001
626.27	0.001
626.46	0.001
626.65	0.001
626.84	0.001
627.04	0.001
627.23	0.001
627.42	0.001
627.61	0.001
627.80	0.001
628.00	0.001
628.19	0.001
628.38	0.001
628.57	0.001
628.76	0.002
628.96	0.002
629.15	0.002
629.34	0.002
629.53	0.002
629.72	0.002
629.91	0.002
630.11	0.002
630.30	0.002
630.49	0.002
630.68	0.002
630.87	0.002
631.06	0.002
631.26	0.002
631.45	0.002
631.64	0.002
631.83	0.002
632.02	0.002
632.21	0.002
632.41	0.002
632.60	0.002
632.79	0.002
632.98	0.002
633.17	0.002
633.36	0.002
633.55	0.002
633.75	0.002
633.94	0.002
634.13	0.002
634.32	0.002
634.51	0.002
634.70	0.002
634.89	0.002
635.09	0.002
635.28	0.002
635.47	0.002
635.66	0.002
635.85	0.002
636.04	0.003
636.23	0.003
636.43	0.002
636.62	0.003
636.81	0.002
637.00	0.003
637.19	0.003
637.38	0.003
637.57	0.002
637.76	0.002
637.95	0.002
638.15	0.002
638.34	0.002
638.53	0.002
638.72	0.002
638.91	0.003
639.10	0.003
639.29	0.003
639.48	0.003
639.67	0.003
639.87	0.003
640.06	0.003
640.25	0.003
640.44	0.003
640.63	0.003
640.82	0.003
641.01	0.003
641.20	0.003
641.39	0.003
641.58	0.003
641.78	0.003
641.97	0.003
642.16	0.003
642.35	0.003
642.54	0.003
642.73	0.003
642.92	0.002
643.11	0.002
643.30	0.002
643.49	0.002
643.68	0.002
643.87	0.002
644.06	0.002
644.25	0.002
644.45	0.002
644.64	0.002
644.83	0.002
645.02	0.002
645.21	0.002
645.40	0.002
645.59	0.002
645.78	0.002
645.97	0.002
646.16	0.002
646.35	0.002
646.54	0.002
646.73	0.002
646.92	0.002
647.11	0.002
647.30	0.002
647.49	0.002
647.68	0.002
647.88	0.002
648.07	0.002
648.26	0.002
648.45	0.002
648.64	0.002
648.83	0.002
649.02	0.002
649.21	0.002
649.40	0.002
649.59	0.002
649.78	0.002
649.97	0.002
650.16	0.002
650.35	0.002
650.54	0.002
650.73	0.003
650.92	0.003
651.11	0.003
651.30	0.003
651.49	0.003
651.68	0.003
651.87	0.003
652.06	0.003
652.25	0.003
652.44	0.003
652.63	0.002
652.82	0.001
653.01	0.000
653.20	-0.000
653.39	-0.000
653.58	-0.001
653.77	-0.001
653.96	-0.001
654.15	-0.001
654.34	-0.001
654.53	-0.001
654.72	-0.001
654.91	-0.000
655.10	-0.000
655.29	0.000
655.48	0.000
655.67	0.001
655.86	0.001
656.05	0.001
656.24	0.001
656.43	0.001
656.62	0.001
656.81	0.001
657.00	0.002
657.19	0.002
657.38	0.002
657.57	0.003
657.76	0.003
657.95	0.003
658.14	0.003
658.33	0.004
658.51	0.004
658.70	0.004
658.89	0.004
659.08	0.004
659.27	0.003
659.46	0.003
659.65	0.003
659.84	0.003
660.03	0.003
660.22	0.003
660.41	0.003
660.60	0.003
660.79	0.003
660.98	0.003
661.17	0.003
661.36	0.003
661.55	0.003
661.74	0.002
661.92	0.002
662.11	0.002
662.30	0.002
662.49	0.002
662.68	0.002
662.87	0.002
663.06	0.002
663.25	0.003
663.44	0.003
663.63	0.003
663.82	0.003
664.01	0.003
664.20	0.003
664.38	0.003
664.57	0.002
664.76	0.002
664.95	0.002
665.14	0.002
665.33	0.002
665.52	0.003
665.71	0.003
665.90	0.003
666.09	0.002
666.28	0.002
666.46	0.002
666.65	0.003
666.84	0.003
667.03	0.003
667.22	0.003
667.41	0.003
667.60	0.003
667.79	0.003
667.98	0.003
668.16	0.002
668.35	0.003
668.54	0.002
668.73	0.002
668.92	0.002
669.11	0.002
669.30	0.002
669.49	0.002
669.67	0.002
669.86	0.002
670.05	0.002
670.24	0.002
670.43	0.002
670.62	0.002
670.81	0.002
671.00	0.002
671.18	0.002
671.37	0.002
671.56	0.002
671.75	0.002
671.94	0.002
672.13	0.002
672.32	0.002
672.50	0.002
672.69	0.002
672.88	0.002
673.07	0.002
673.26	0.002
673.45	0.003
673.63	0.003
673.82	0.003
674.01	0.003
674.20	0.003
674.39	0.003
674.58	0.003
674.76	0.003
674.95	0.003
675.14	0.003
675.33	0.003
675.52	0.003
675.71	0.002
675.89	0.002
676.08	0.002
676.27	0.002
676.46	0.002
676.65	0.002
676.84	0.002
677.02	0.002
677.21	0.002
677.40	0.002
677.59	0.003
677.78	0.003
677.96	0.003
678.15	0.003
678.34	0.002
678.53	0.002
678.72	0.002
678.90	0.002
679.09	0.003
679.28	0.002
679.47	0.002
679.66	0.002
679.84	0.002
680.03	0.002
680.22	0.002
680.41	0.002
680.60	0.002
680.78	0.002
680.97	0.003
681.16	0.002
681.35	0.002
681.53	0.002
681.72	0.002
681.91	0.002
682.10	0.002
682.29	0.002
682.47	0.002
682.66	0.002
682.85	0.002
683.04	0.002
683.22	0.002
683.41	0.002
683.60	0.002
683.79	0.002
683.97	0.002
684.16	0.002
684.35	0.002
684.54	0.002
684.72	0.002
684.91	0.002
685.10	0.002
685.29	0.002
685.47	0.002
685.66	0.002
685.85	0.002
686.04	0.002
686.22	0.002
686.41	0.002
686.60	0.002
686.79	0.002
686.97	0.002
687.16	0.003
687.35	0.003
687.54	0.003
687.72	0.003
687.91	0.003
688.10	0.003
688.29	0.003
688.47	0.003
688.66	0.003
688.85	0.003
689.03	0.003
689.22	0.003
689.41	0.003
689.60	0.003
689.78	0.002
689.97	0.002
690.16	0.002
690.34	0.002
690.53	0.002
690.72	0.002
690.91	0.003
691.09	0.003
691.28	0.002
691.47	0.002
691.65	0.002
691.84	0.002
692.03	0.003
692.21	0.003
692.40	0.003
692.59	0.003
692.77	0.003
692.96	0.003
693.15	0.003
693.34	0.003
693.52	0.003
693.71	0.003
693.90	0.003
694.08	0.003
694.27	0.003
694.46	0.002
694.64	0.002
694.83	0.002
695.02	0.002
695.20	0.002
695.39	0.002
695.58	0.002
695.76	0.002
695.95	0.002
696.14	0.002
696.32	0.002
696.51	0.002
696.70	0.002
696.88	0.002
697.07	0.002
697.26	0.002
697.44	0.002
697.63	0.002
697.81	0.002
698.00	0.002
698.19	0.003
698.37	0.003
698.56	0.003
698.75	0.003
698.93	0.003
699.12	0.003
699.31	0.003
699.49	0.003
699.68	0.003
699.87	0.003
700.05	0.003
700.24	0.003
700.42	0.003
700.61	0.003
700.80	0.003
700.98	0.002
701.17	0.002
701.36	0.002
701.54	0.002
701.73	0.003
701.91	0.003
702.10	0.003
702.29	0.003
702.47	0.003
702.66	0.003
702.84	0.003
703.03	0.003
703.22	0.003
703.40	0.003
703.59	0.003
703.77	0.003
703.96	0.003
704.15	0.003
704.33	0.003
704.52	0.003
704.70	0.003
704.89	0.003
705.08	0.002
705.26	0.002
705.45	0.002
705.63	0.002
705.82	0.002
706.00	0.002
706.19	0.002
706.38	0.002
706.56	0.002
706.75	0.002
706.93	0.002
707.12	0.002
707.30	0.002
707.49	0.002
707.68	0.002
707.86	0.002
708.05	0.002
708.23	0.002
708.42	0.002
708.60	0.002
708.79	0.002
708.98	0.002
709.16	0.002
709.35	0.002
709.53	0.002
709.72	0.002
709.90	0.003
710.09	0.003
710.27	0.003
710.46	0.003
710.64	0.003
710.83	0.003
711.02	0.003
711.20	0.003
711.39	0.003
711.57	0.003
711.76	0.003
711.94	0.003
712.13	0.003
712.31	0.003
712.50	0.003
712.68	0.002
712.87	0.003
713.05	0.002
713.24	0.003
713.42	0.003
713.61	0.003
713.79	0.003
713.98	0.003
714.16	0.003
714.35	0.003
714.54	0.003
714.72	0.003
714.91	0.003
715.09	0.003
715.28	0.003
715.46	0.003
715.65	0.003
715.83	0.003
716.02	0.003
716.20	0.003
716.39	0.002
716.57	0.002
716.76	0.003
716.94	0.002
717.12	0.002
717.31	0.003
717.49	0.002
717.68	0.002
717.86	0.002
718.05	0.002
718.23	0.002
718.42	0.002
718.60	0.002
718.79	0.002
718.97	0.002
719.16	0.002
719.34	0.003
719.53	0.003
719.71	0.003
719.90	0.003
720.08	0.003
720.27	0.003
720.45	0.003
720.63	0.003
720.82	0.003
721.00	0.003
721.19	0.002
721.37	0.002
721.56	0.002
721.74	0.003
721.93	0.003
722.11	0.003
722.30	0.003
722.48	0.003
722.66	0.003
722.85	0.003
723.03	0.003
723.22	0.003
723.40	0.003
723.59	0.003
723.77	0.003
723.95	0.003
724.14	0.003
724.32	0.003
724.51	0.003
724.69	0.002
724.88	0.002
725.06	0.002
725.24	0.002
725.43	0.002
725.61	0.001
725.80	0.001
725.98	0.001
726.16	0.001
726.35	0.001
726.53	0.001
726.72	0.001
726.90	0.002
727.09	0.001
727.27	0.002
727.45	0.001
727.64	0.002
727.82	0.002
728.01	0.002
728.19	0.002
728.37	0.003
728.56	0.002
728.74	0.002
728.92	0.002
729.11	0.003
729.29	0.003
729.48	0.003
729.66	0.003
729.84	0.003
730.03	0.002
730.21	0.002
730.40	0.002
730.58	0.002
730.76	0.002
730.95	0.002
731.13	0.001
731.31	0.001
731.50	0.001
731.68	0.001
731.86	0.001
732.05	0.001
732.23	0.001
732.42	0.001
732.60	0.001
732.78	0.001
732.97	0.002
733.15	0.002
733.33	0.002
733.52	0.001
733.70	0.001
733.88	0.001
734.07	0.001
734.25	0.001
734.43	0.001
734.62	0.001
734.80	0.001
734.98	0.000
735.17	0.000
735.35	0.000
735.53	0.000
735.72	0.000
735.90	0.000
736.08	0.000
736.27	0.000
736.45	-0.000
736.63	-0.000
736.82	-0.000
737.00	-0.000
737.18	0.000
737.37	0.000
737.55	0.000
737.73	-0.000
737.92	-0.000
738.10	-0.001
738.28	-0.000
738.46	-0.000
738.65	0.000
738.83	0.000
739.01	0.001
739.20	0.000
739.38	0.000
739.56	-0.000
739.75	0.000
739.93	0.000
740.11	0.001
740.29	0.001
740.48	0.001
740.66	0.001
740.84	0.001
741.03	0.001
741.21	0.001
741.39	0.002
741.57	0.002
741.76	0.002
741.94	0.001
742.12	0.001
742.31	0.001
742.49	0.001
742.67	0.000
742.85	0.000
743.04	-0.000
743.22	-0.000
743.40	-0.001
743.58	-0.000
743.77	0.000
743.95	0.001
744.13	0.001
744.31	0.001
744.50	0.001
744.68	0.001
744.86	0.001
745.04	0.001
745.23	0.001
745.41	0.001
745.59	0.001
745.77	0.001
745.96	0.001
746.14	0.001
746.32	0.000
746.50	0.001
746.69	0.001
746.87	0.001
747.05	0.001
747.23	0.001
747.42	0.001
747.60	0.001
747.78	0.000
747.96	0.001
748.14	0.001
748.33	0.001
748.51	0.001
748.69	0.001
748.87	0.001
749.06	0.001
749.24	0.002
749.42	0.002
749.60	0.002
749.78	0.002
749.97	0.002
750.15	0.001
750.33	0.001
750.51	0.001
750.69	0.001
750.88	0.000
751.06	0.000
751.24	0.001
751.42	0.001
751.60	0.001
751.79	0.001
751.97	0.001
752.15	0.001
752.33	0.001
752.51	-0.000
752.69	-0.000
752.88	0.001
753.06	0.001
753.24	0.000
753.42	0.000
753.60	0.001
753.78	0.000
753.97	0.001
754.15	0.000
754.33	0.001
754.51	0.001
754.69	0.001
754.87	0.000
755.06	0.000
755.24	-0.000
755.42	-0.000
755.60	-0.000
755.78	-0.000
755.96	-0.000
756.15	0.000
756.33	-0.000
756.51	0.000
756.69	0.001
756.87	0.001
757.05	0.001
757.23	0.001
757.42	0.001
757.60	0.001
757.78	0.001
757.96	0.001
758.14	0.001
758.32	0.002
758.50	0.001
758.69	0.001
758.87	0.001
759.05	0.002
759.23	0.002
759.41	0.003
759.59	0.003
759.77	0.003
759.95	0.003
760.13	0.003
760.32	0.003
760.50	0.004
760.68	0.003
760.86	0.004
761.04	0.003
761.22	0.003
761.40	0.003
761.58	0.002
761.76	0.001
761.95	0.001
762.13	0.002
762.31	0.002
762.49	0.002
762.67	0.002
762.85	0.002
763.03	0.001
763.21	0.002
763.39	0.002
763.57	0.002
763.75	0.003
763.94	0.003
764.12	0.002
764.30	0.002
764.48	0.002
764.66	0.002
764.84	0.001
765.02	0.001
765.20	0.001
765.38	0.002
765.56	0.001
765.74	0.001
765.92	0.001
766.10	0.001
766.28	0.001
766.46	0.001
766.65	0.001
766.83	0.002
767.01	0.002
767.19	0.003
767.37	0.002
767.55	0.003
767.73	0.003
767.91	0.003
768.09	0.003
768.27	0.004
768.45	0.004
768.63	0.003
768.81	0.003
768.99	0.003
769.17	0.003
769.35	0.003
769.53	0.003
769.71	0.003
769.89	0.003
770.07	0.003
770.25	0.003
770.43	0.003
770.61	0.003
770.79	0.004
770.97	0.003
771.15	0.003
771.33	0.003
771.51	0.003
771.69	0.003
771.87	0.003
772.05	0.003
772.24	0.002
772.42	0.002
772.60	0.002
772.78	0.003
772.96	0.003
773.14	0.003
773.32	0.003
773.49	0.003
773.67	0.003
773.85	0.003
774.03	0.003
774.21	0.003
774.39	0.002
774.57	0.002
774.75	0.002
774.93	0.002
775.11	0.002
775.29	0.002
775.47	0.002
775.65	0.002
775.83	0.002
776.01	0.002
776.19	0.002
776.37	0.003
776.55	0.003
776.73	0.003
776.91	0.003
777.09	0.003
777.27	0.002
777.45	0.003
777.63	0.003
777.81	0.003
777.99	0.004
778.17	0.004
778.35	0.005
778.53	0.004
778.71	0.005
778.89	0.004
779.07	0.004
779.24	0.004
779.42	0.003
779.60	0.003
779.78	0.003
779.96	0.002
780.14	0.002
780.32	0.001
780.50	0.001
780.68	0.001
780.86	0.001
781.04	0.001
781.22	0.002
781.40	0.003
781.58	0.003
781.75	0.003
781.93	0.003
782.11	0.003
782.29	0.004
782.47	0.004
782.65	0.004
782.83	0.004
783.01	0.005
783.19	0.005
783.37	0.004
783.55	0.004
783.72	0.004
783.90	0.004
784.08	0.004
784.26	0.004
784.44	0.003
784.62	0.003
784.80	0.003
784.98	0.003
785.16	0.003
785.33	0.004
785.51	0.004
785.69	0.004
785.87	0.003
786.05	0.003
786.23	0.003
786.41	0.004
786.59	0.004
786.77	0.004
786.94	0.003
787.12	0.003
787.30	0.003
787.48	0.003
787.66	0.003
787.84	0.003
788.02	0.003
788.19	0.004
788.37	0.004
788.55	0.004
788.73	0.004
788.91	0.004
789.09	0.004
789.27	0.004
789.44	0.004
789.62	0.004
789.80	0.004
789.98	0.004
790.16	0.003
790.34	0.003
790.51	0.003
790.69	0.003
790.87	0.003
791.05	0.003
791.23	0.004
791.41	0.004
791.58	0.003
791.76	0.004
791.94	0.004
792.12	0.004
792.30	0.004
792.48	0.004
792.65	0.004
792.83	0.003
793.01	0.003
793.19	0.003
793.37	0.003
793.54	0.003
793.72	0.003
793.90	0.003
794.08	0.003
794.26	0.003
794.43	0.003
794.61	0.003
794.79	0.003
794.97	0.004
795.15	0.003
795.32	0.004
795.50	0.004
795.68	0.004
795.86	0.004
796.04	0.004
796.21	0.004
796.39	0.004
796.57	0.004
796.75	0.004
796.92	0.004
797.10	0.004
797.28	0.004
797.46	0.004
797.64	0.003
797.81	0.004
797.99	0.003
798.17	0.003
798.35	0.004
798.52	0.004
798.70	0.003
798.88	0.003
799.06	0.003
799.23	0.003
799.41	0.004
799.59	0.004
799.77	0.004
799.94	0.004
800.12	0.004
800.30	0.004
800.48	0.004
800.65	0.004
800.83	0.004
801.01	0.004
801.19	0.004
801.36	0.004
801.54	0.004
801.72	0.004
801.90	0.004
802.07	0.004
802.25	0.004
802.43	0.004
802.60	0.004
802.78	0.004
802.96	0.004
803.14	0.004
803.31	0.003
803.49	0.004
803.67	0.003
803.84	0.003
804.02	0.003
804.20	0.004
804.38	0.003
804.55	0.003
804.73	0.003
804.91	0.003
805.08	0.003
805.26	0.004
805.44	0.004
805.61	0.004
805.79	0.004
805.97	0.004
806.15	0.003
806.32	0.004
806.50	0.003
806.68	0.003
806.85	0.003
807.03	0.003
807.21	0.003
807.38	0.003
807.56	0.003
807.74	0.003
807.91	0.003
808.09	0.003
808.27	0.003
808.44	0.003
808.62	0.003
808.80	0.003
808.97	0.003
809.15	0.004
809.33	0.003
809.50	0.003
809.68	0.003
809.86	0.003
810.03	0.003
810.21	0.003
810.39	0.004
810.56	0.004
810.74	0.004
810.91	0.004
811.09	0.003
811.27	0.003
811.44	0.004
811.62	0.003
811.80	0.003
811.97	0.003
812.15	0.004
812.33	0.004
812.50	0.004
812.68	0.003
812.85	0.004
813.03	0.004
813.21	0.004
813.38	0.004
813.56	0.004
813.74	0.004
813.91	0.004
814.09	0.003
814.26	0.003
814.44	0.003
814.62	0.003
814.79	0.003
814.97	0.003
815.14	0.003
815.32	0.003
815.50	0.003
815.67	0.003
815.85	0.003
816.02	0.003
816.20	0.003
816.38	0.003
816.55	0.003
816.73	0.003
816.90	0.003
817.08	0.003
817.26	0.004
817.43	0.004
817.61	0.004
817.78	0.004
817.96	0.004
818.13	0.004
818.31	0.004
818.49	0.004
818.66	0.004
818.84	0.004
819.01	0.003
819.19	0.003
819.36	0.003
819.54	0.003
819.71	0.003
819.89	0.003
820.07	0.003
820.24	0.002
820.42	0.003
820.59	0.003
820.77	0.002
820.94	0.003
821.12	0.003
821.29	0.002
821.47	0.002
821.64	0.002
821.82	0.003
822.00	0.003
822.17	0.003
822.35	0.003
822.52	0.003
822.70	0.004
822.87	0.004
823.05	0.003
823.22	0.003
823.40	0.003
823.57	0.003
823.75	0.003
823.92	0.003
824.10	0.003
824.27	0.003
824.45	0.003
824.62	0.003
824.80	0.002
824.97	0.003
825.15	0.003
825.32	0.003
825.50	0.003
825.67	0.003
825.85	0.003
826.02	0.003
826.20	0.004
826.37	0.004
826.55	0.004
826.72	0.004
826.90	0.004
827.07	0.004
827.25	0.004
827.42	0.004
827.60	0.004
827.77	0.004
827.95	0.004
828.12	0.004
828.30	0.004
828.47	0.004
828.65	0.003
828.82	0.004
829.00	0.004
829.17	0.003
829.34	0.004
829.52	0.004
829.69	0.004
829.87	0.003
830.04	0.003
830.22	0.002
830.39	0.003
830.57	0.004
830.74	0.004
830.92	0.004
831.09	0.004
831.26	0.004
831.44	0.005
831.61	0.006
831.79	0.005
831.96	0.006
832.14	0.005
832.31	0.005
832.49	0.003
832.66	0.003
832.83	0.004
833.01	0.005
833.18	0.005
833.36	0.005
833.53	0.004
833.70	0.003
833.88	0.003
834.05	0.002
834.23	0.002
834.40	0.001
834.58	0.002
834.75	0.002
834.92	0.001
835.10	-0.000
835.27	-0.002
835.45	-0.003
835.62	-0.001
835.79	-0.000
835.97	0.000
836.14	-0.000
836.32	0.001
836.49	-0.000
836.66	-0.002
836.84	-0.002
837.01	-0.002
837.18	-0.000
837.36	0.000
837.53	0.000
837.71	-0.001
837.88	0.000
838.05	-0.001
838.23	0.001
838.40	0.002
838.58	0.002
838.75	0.001
838.92	0.001
839.10	-0.001
839.27	-0.000
839.44	-0.000
839.62	-0.000
839.79	-0.000
839.96	0.003
840.14	0.003
840.31	0.002
840.48	0.003
840.66	0.005
840.83	0.004
841.01	0.003
841.18	0.003
841.35	0.002
841.53	0.002
841.70	0.002
841.87	0.001
842.05	-0.001
842.22	-0.001
842.39	0.001
842.57	-0.001
842.74	-0.000
842.91	0.001
843.09	0.003
843.26	0.005
843.43	0.007
843.60	0.006
843.78	0.006
843.95	0.006
844.12	0.006
844.30	0.006
844.47	0.007
844.64	0.008
844.82	0.007
844.99	0.006
845.16	0.005
845.34	0.004
845.51	0.005
845.68	0.005
845.85	0.005
846.03	0.004
846.20	0.003
846.37	0.004
846.55	0.005
846.72	0.006
846.89	0.007
847.06	0.007
847.24	0.007
847.41	0.005
847.58	0.005
847.76	0.007
847.93	0.008
848.10	0.008
848.27	0.005
848.45	0.007
848.62	0.008
848.79	0.004
848.97	0.006
849.14	0.005
849.31	0.007
849.48	0.008
849.66	0.007
849.83	0.008
850.00	0.007
850.17	0.007
850.35	0.002
850.52	-0.000
850.69	0.002
850.86	0.000
851.04	0.002
851.21	0.001
851.38	-0.001
851.55	-0.002
851.72	-0.004
851.90	-0.001
852.07	-0.001
852.24	0.001
852.41	0.002
852.59	0.001
852.76	0.001
852.93	0.002
853.10	0.001
853.28	0.000
853.45	-0.001
853.62	-0.001
853.79	-0.003
853.96	-0.005
854.14	-0.005
854.31	-0.004
854.48	-0.003
854.65	-0.005
854.82	-0.003
855.00	-0.002
855.17	-0.002
855.34	-0.001
855.51	-0.000
855.68	0.001
855.86	0.005
856.03	0.005
856.20	0.003
856.37	0.000
856.54	0.002
856.72	-0.001
856.89	-0.001
857.06	-0.000
857.23	0.000
857.40	-0.001
857.57	0.000
857.75	0.001
857.92	0.003
858.09	0.004
858.26	0.005
858.43	0.003
858.60	0.003
858.78	0.003
858.95	0.002
859.12	0.004
859.29	0.004
859.46	0.002
859.63	0.004
859.81	0.006
859.98	0.008
860.15	0.007
860.32	0.012
860.49	0.008
860.66	0.008
860.83	0.009
861.01	0.006
861.18	0.006
861.35	0.008
861.52	0.002
861.69	-0.000
861.86	-0.004
862.03	-0.002
862.21	-0.002
862.38	0.001
862.55	0.001
862.72	0.002
862.89	0.003
863.06	0.004
863.23	0.004
863.40	0.005
863.58	0.004
863.75	0.005
863.92	0.003
864.09	0.002
864.26	0.001
864.43	0.001
864.60	-0.001
864.77	-0.003
864.94	0.001
865.11	-0.000
865.29	0.001
865.46	0.000
865.63	-0.000
865.80	-0.000
865.97	-0.000
866.14	0.001
866.31	0.002
866.48	0.002
866.65	0.006
866.82	0.004
866.99	0.006
867.16	0.003
867.34	-0.000
867.51	0.003
867.68	0.004
867.85	0.001
868.02	-0.002
868.19	-0.004
868.36	-0.002
868.53	-0.008
868.70	-0.010
868.87	-0.014
869.04	-0.007
869.21	-0.003
869.38	-0.008
869.55	-0.005
869.72	-0.002
869.89	0.005
870.06	0.007
870.24	0.005
870.41	0.003
870.58	0.002
870.75	0.007
870.92	0.004
871.09	0.005
871.26	0.008
871.43	0.007
871.60	0.010
871.77	0.005
871.94	0.010
872.11	0.010
872.28	0.012
872.45	0.016
872.62	0.011
872.79	0.008
872.96	0.006
873.13	-0.001
873.30	-0.002
873.47	-0.004
873.64	-0.002
873.81	-0.009
873.98	-0.007
874.15	0.002
874.32	-0.003
874.49	0.001
874.66	0.006
874.83	0.012
875.00	0.019
875.17	0.013
875.34	0.009
875.51	0.008
875.68	0.006
875.85	0.002
876.02	-0.003
876.19	0.001
876.36	0.002
876.53	0.003
876.70	0.003
876.87	0.002
877.04	0.010
877.21	0.018
877.38	0.021
877.55	0.026
877.72	0.031
877.89	0.029
878.06	0.026
878.23	0.019
878.39	0.017
878.56	0.018
878.73	0.017
878.90	0.012
879.07	0.008
879.24	0.006
879.41	0.008
879.58	0.007
879.75	0.008
879.92	0.009
880.09	0.012
880.26	0.012
880.43	0.009
880.60	0.004
880.77	0.008
880.94	0.009
881.11	0.010
881.27	0.006
881.44	0.007
881.61	0.008
881.78	0.009
881.95	0.009
882.12	0.008
882.29	0.007
882.46	0.005
882.63	0.008
882.80	0.009
882.97	0.003
883.14	0.001
883.30	-0.006
883.47	-0.007
883.64	-0.009
883.81	-0.008
883.98	-0.007
884.15	-0.010
884.32	0.000
884.49	-0.006
884.66	-0.005
884.82	0.008
884.99	0.006
885.16	0.010
885.33	0.005
885.50	0.003
885.67	0.005
885.84	0.009
886.01	0.005
886.17	0.000
886.34	0.007
886.51	0.016
886.68	0.009
886.85	0.018
887.02	0.019
887.19	0.027
887.36	0.026
887.52	0.025
887.69	0.024
887.86	0.038
888.03	0.037
888.20	0.036
888.37	0.017
888.54	0.019
888.70	0.012
888.87	0.012
889.04	0.013
889.21	0.015
889.38	0.024
889.55	0.023
889.71	0.022
889.88	0.021
890.05	-0.043
890.22	0.100
890.39	0.042
>>>>>End Processed Spectral Data<<<<<
