SpectraSuite Data File
++++++++++++++++++++++++++++++++++++
Date: Mon Jun 15 09:35:48 PDT 2015
User: introlabs
Dark Spectrum Present: Yes
Reference Spectrum Present: Yes
Number of Sampled Component Spectra: 1
Spectrometers: USB4H08886
Integration Time (usec): 44366 (USB4H08886)
Spectra Averaged: 20 (USB4H08886)
Boxcar Smoothing: 5 (USB4H08886)
Correct for Electrical Dark: Yes (USB4H08886)
Strobe/Lamp Enabled: No (USB4H08886)
Correct for Detector Non-linearity: Yes (USB4H08886)
Correct for Stray Light: Yes (USB4H08886)
Number of Pixels in Processed Spectrum: 3648
>>>>>Begin Processed Spectral Data<<<<<
178.14	-0.000
178.36	-0.000
178.57	-0.000
178.79	-0.000
179.01	-0.000
179.22	-0.000
179.44	-0.000
179.65	-0.283
179.87	0.019
180.08	0.567
180.30	1.165
180.52	-0.000
180.73	0.459
180.95	0.140
181.16	0.090
181.38	0.095
181.59	0.099
181.81	0.076
182.03	0.077
182.24	0.075
182.46	0.061
182.67	0.054
182.89	0.058
183.10	0.062
183.32	0.061
183.54	0.056
183.75	0.052
183.97	0.050
184.18	0.048
184.40	0.035
184.61	0.042
184.83	0.038
185.04	0.038
185.26	0.031
185.48	0.032
185.69	0.026
185.91	0.027
186.12	0.022
186.34	0.035
186.55	0.030
186.77	0.035
186.98	0.034
187.20	0.025
187.42	0.031
187.63	0.034
187.85	0.030
188.06	0.043
188.28	0.042
188.49	0.043
188.71	0.026
188.92	0.025
189.14	0.015
189.36	0.019
189.57	0.030
189.79	0.024
190.00	0.025
190.22	0.028
190.43	0.023
190.65	0.019
190.86	0.025
191.08	0.025
191.29	0.027
191.51	0.034
191.72	0.028
191.94	0.024
192.16	0.027
192.37	0.026
192.59	0.025
192.80	0.025
193.02	0.036
193.23	0.036
193.45	0.036
193.66	0.038
193.88	0.043
194.09	0.041
194.31	0.033
194.52	0.029
194.74	0.027
194.95	0.026
195.17	0.025
195.38	0.008
195.60	0.004
195.81	0.015
196.03	0.008
196.25	0.011
196.46	0.009
196.68	0.013
196.89	0.013
197.11	0.018
197.32	0.017
197.54	0.005
197.75	0.024
197.97	0.018
198.18	0.011
198.40	0.017
198.61	0.005
198.83	0.003
199.04	0.003
199.26	0.001
199.47	0.001
199.69	0.014
199.90	0.032
200.12	0.019
200.33	0.026
200.55	0.025
200.76	0.017
200.98	0.013
201.19	0.017
201.41	0.017
201.62	0.019
201.84	0.018
202.05	0.008
202.27	-0.003
202.48	0.001
202.70	-0.006
202.91	-0.004
203.13	-0.003
203.34	0.003
203.56	-0.002
203.77	0.002
203.99	0.002
204.20	-0.001
204.42	-0.001
204.63	0.003
204.85	0.001
205.06	0.004
205.28	-0.004
205.49	-0.000
205.71	0.010
205.92	0.017
206.14	0.014
206.35	0.022
206.56	0.026
206.78	0.024
206.99	0.027
207.21	0.034
207.42	0.041
207.64	0.048
207.85	0.054
208.07	0.050
208.28	0.053
208.50	0.052
208.71	0.039
208.93	0.042
209.14	0.049
209.36	0.042
209.57	0.041
209.79	0.039
210.00	0.038
210.22	0.042
210.43	0.039
210.64	0.039
210.86	0.037
211.07	0.038
211.29	0.034
211.50	0.029
211.72	0.026
211.93	0.025
212.15	0.020
212.36	0.018
212.58	0.015
212.79	0.016
213.01	0.008
213.22	0.015
213.43	0.020
213.65	0.018
213.86	0.019
214.08	0.028
214.29	0.027
214.51	0.032
214.72	0.034
214.94	0.026
215.15	0.026
215.36	0.030
215.58	0.024
215.79	0.020
216.01	0.025
216.22	0.028
216.44	0.018
216.65	0.015
216.87	0.016
217.08	0.015
217.29	0.026
217.51	0.024
217.72	0.017
217.94	0.023
218.15	0.024
218.37	0.020
218.58	0.013
218.80	0.022
219.01	0.019
219.22	0.015
219.44	0.015
219.65	0.011
219.87	0.016
220.08	0.019
220.30	0.015
220.51	0.016
220.72	0.014
220.94	0.015
221.15	0.013
221.37	0.014
221.58	0.014
221.79	0.020
222.01	0.016
222.22	0.009
222.44	0.008
222.65	0.007
222.87	0.010
223.08	0.012
223.29	0.012
223.51	0.017
223.72	0.020
223.94	0.021
224.15	0.017
224.36	0.021
224.58	0.018
224.79	0.024
225.01	0.022
225.22	0.020
225.44	0.020
225.65	0.024
225.86	0.023
226.08	0.021
226.29	0.019
226.51	0.023
226.72	0.018
226.93	0.018
227.15	0.006
227.36	0.007
227.58	0.007
227.79	0.007
228.00	0.003
228.22	-0.003
228.43	-0.001
228.65	-0.001
228.86	-0.003
229.07	-0.001
229.29	0.002
229.50	0.005
229.72	0.003
229.93	0.001
230.14	-0.002
230.36	-0.004
230.57	-0.006
230.78	-0.011
231.00	-0.014
231.21	-0.021
231.43	-0.021
231.64	-0.021
231.85	-0.018
232.07	-0.016
232.28	-0.018
232.50	-0.020
232.71	-0.021
232.92	-0.019
233.14	-0.020
233.35	-0.018
233.56	-0.016
233.78	-0.018
233.99	-0.022
234.21	-0.024
234.42	-0.025
234.63	-0.024
234.85	-0.023
235.06	-0.023
235.27	-0.023
235.49	-0.022
235.70	-0.022
235.91	-0.022
236.13	-0.021
236.34	-0.020
236.56	-0.021
236.77	-0.021
236.98	-0.020
237.20	-0.021
237.41	-0.019
237.62	-0.019
237.84	-0.019
238.05	-0.019
238.26	-0.020
238.48	-0.020
238.69	-0.019
238.91	-0.019
239.12	-0.019
239.33	-0.018
239.55	-0.017
239.76	-0.016
239.97	-0.016
240.19	-0.015
240.40	-0.015
240.61	-0.013
240.83	-0.013
241.04	-0.013
241.25	-0.012
241.47	-0.011
241.68	-0.010
241.89	-0.009
242.11	-0.009
242.32	-0.009
242.53	-0.008
242.75	-0.007
242.96	-0.006
243.17	-0.005
243.39	-0.005
243.60	-0.005
243.81	-0.005
244.03	-0.005
244.24	-0.004
244.45	-0.003
244.67	-0.003
244.88	-0.001
245.09	-0.001
245.31	-0.001
245.52	-0.001
245.73	-0.001
245.95	-0.000
246.16	0.000
246.37	0.001
246.59	0.001
246.80	0.000
247.01	0.001
247.23	0.000
247.44	0.000
247.65	0.000
247.87	0.001
248.08	0.001
248.29	0.002
248.51	0.002
248.72	0.002
248.93	0.002
249.15	0.003
249.36	0.003
249.57	0.003
249.78	0.003
250.00	0.003
250.21	0.004
250.42	0.004
250.64	0.005
250.85	0.005
251.06	0.005
251.28	0.006
251.49	0.006
251.70	0.006
251.92	0.007
252.13	0.007
252.34	0.008
252.55	0.008
252.77	0.007
252.98	0.007
253.19	0.008
253.41	0.008
253.62	0.008
253.83	0.009
254.05	0.009
254.26	0.008
254.47	0.008
254.68	0.008
254.90	0.008
255.11	0.009
255.32	0.010
255.54	0.009
255.75	0.009
255.96	0.010
256.17	0.010
256.39	0.010
256.60	0.010
256.81	0.010
257.03	0.010
257.24	0.010
257.45	0.009
257.66	0.008
257.88	0.009
258.09	0.008
258.30	0.008
258.51	0.008
258.73	0.008
258.94	0.008
259.15	0.008
259.37	0.008
259.58	0.008
259.79	0.007
260.00	0.008
260.22	0.008
260.43	0.008
260.64	0.007
260.85	0.007
261.07	0.007
261.28	0.006
261.49	0.006
261.71	0.006
261.92	0.006
262.13	0.006
262.34	0.006
262.56	0.005
262.77	0.005
262.98	0.005
263.19	0.005
263.41	0.004
263.62	0.004
263.83	0.004
264.04	0.003
264.26	0.003
264.47	0.002
264.68	0.002
264.89	0.002
265.11	0.002
265.32	0.002
265.53	0.002
265.74	0.001
265.96	0.001
266.17	0.001
266.38	0.001
266.59	0.001
266.81	0.001
267.02	0.001
267.23	-0.000
267.44	-0.000
267.65	-0.001
267.87	-0.001
268.08	-0.002
268.29	-0.001
268.50	-0.002
268.72	-0.002
268.93	-0.002
269.14	-0.002
269.35	-0.003
269.57	-0.003
269.78	-0.003
269.99	-0.003
270.20	-0.004
270.41	-0.004
270.63	-0.004
270.84	-0.005
271.05	-0.005
271.26	-0.006
271.48	-0.006
271.69	-0.006
271.90	-0.006
272.11	-0.007
272.32	-0.007
272.54	-0.007
272.75	-0.007
272.96	-0.007
273.17	-0.008
273.39	-0.008
273.60	-0.008
273.81	-0.008
274.02	-0.008
274.23	-0.008
274.45	-0.009
274.66	-0.009
274.87	-0.009
275.08	-0.009
275.29	-0.009
275.51	-0.009
275.72	-0.009
275.93	-0.009
276.14	-0.009
276.35	-0.009
276.57	-0.009
276.78	-0.009
276.99	-0.009
277.20	-0.009
277.41	-0.009
277.63	-0.009
277.84	-0.009
278.05	-0.009
278.26	-0.009
278.47	-0.009
278.69	-0.008
278.90	-0.008
279.11	-0.008
279.32	-0.007
279.53	-0.007
279.74	-0.007
279.96	-0.007
280.17	-0.007
280.38	-0.006
280.59	-0.006
280.80	-0.006
281.02	-0.006
281.23	-0.006
281.44	-0.005
281.65	-0.005
281.86	-0.005
282.07	-0.005
282.29	-0.005
282.50	-0.005
282.71	-0.005
282.92	-0.004
283.13	-0.004
283.35	-0.004
283.56	-0.004
283.77	-0.004
283.98	-0.003
284.19	-0.003
284.40	-0.002
284.62	-0.002
284.83	-0.002
285.04	-0.001
285.25	-0.001
285.46	-0.001
285.67	0.000
285.88	0.001
286.10	0.001
286.31	0.002
286.52	0.002
286.73	0.003
286.94	0.004
287.15	0.005
287.37	0.005
287.58	0.006
287.79	0.007
288.00	0.007
288.21	0.008
288.42	0.009
288.63	0.009
288.85	0.010
289.06	0.010
289.27	0.011
289.48	0.011
289.69	0.012
289.90	0.012
290.11	0.012
290.33	0.013
290.54	0.013
290.75	0.014
290.96	0.014
291.17	0.015
291.38	0.015
291.59	0.015
291.81	0.015
292.02	0.015
292.23	0.016
292.44	0.016
292.65	0.016
292.86	0.016
293.07	0.017
293.28	0.017
293.50	0.017
293.71	0.017
293.92	0.017
294.13	0.018
294.34	0.018
294.55	0.018
294.76	0.019
294.97	0.019
295.19	0.019
295.40	0.019
295.61	0.019
295.82	0.019
296.03	0.019
296.24	0.019
296.45	0.019
296.66	0.019
296.87	0.019
297.09	0.019
297.30	0.019
297.51	0.019
297.72	0.019
297.93	0.019
298.14	0.019
298.35	0.019
298.56	0.019
298.77	0.019
298.99	0.020
299.20	0.020
299.41	0.020
299.62	0.020
299.83	0.020
300.04	0.020
300.25	0.020
300.46	0.020
300.67	0.020
300.88	0.020
301.10	0.020
301.31	0.020
301.52	0.020
301.73	0.020
301.94	0.020
302.15	0.020
302.36	0.020
302.57	0.020
302.78	0.020
302.99	0.020
303.20	0.019
303.41	0.020
303.63	0.020
303.84	0.020
304.05	0.019
304.26	0.020
304.47	0.020
304.68	0.019
304.89	0.020
305.10	0.020
305.31	0.020
305.52	0.020
305.73	0.019
305.94	0.019
306.15	0.019
306.37	0.020
306.58	0.020
306.79	0.020
307.00	0.020
307.21	0.020
307.42	0.020
307.63	0.020
307.84	0.020
308.05	0.020
308.26	0.020
308.47	0.020
308.68	0.020
308.89	0.020
309.10	0.019
309.31	0.019
309.52	0.019
309.73	0.019
309.95	0.019
310.16	0.019
310.37	0.019
310.58	0.019
310.79	0.019
311.00	0.019
311.21	0.019
311.42	0.019
311.63	0.019
311.84	0.019
312.05	0.019
312.26	0.019
312.47	0.019
312.68	0.019
312.89	0.019
313.10	0.019
313.31	0.019
313.52	0.019
313.73	0.019
313.94	0.019
314.15	0.019
314.36	0.019
314.57	0.019
314.78	0.019
314.99	0.019
315.21	0.019
315.42	0.019
315.63	0.019
315.84	0.019
316.05	0.019
316.26	0.019
316.47	0.019
316.68	0.019
316.89	0.019
317.10	0.019
317.31	0.019
317.52	0.019
317.73	0.019
317.94	0.019
318.15	0.019
318.36	0.019
318.57	0.019
318.78	0.019
318.99	0.019
319.20	0.019
319.41	0.019
319.62	0.019
319.83	0.019
320.04	0.019
320.25	0.019
320.46	0.019
320.67	0.019
320.88	0.019
321.09	0.019
321.30	0.019
321.51	0.019
321.72	0.019
321.93	0.019
322.14	0.019
322.35	0.019
322.56	0.019
322.77	0.019
322.98	0.019
323.19	0.019
323.40	0.019
323.61	0.019
323.82	0.019
324.03	0.019
324.24	0.019
324.45	0.019
324.66	0.019
324.87	0.019
325.08	0.019
325.29	0.019
325.50	0.019
325.71	0.019
325.92	0.019
326.13	0.019
326.34	0.019
326.55	0.019
326.76	0.019
326.97	0.019
327.18	0.019
327.39	0.019
327.60	0.019
327.80	0.019
328.01	0.019
328.22	0.019
328.43	0.019
328.64	0.019
328.85	0.019
329.06	0.019
329.27	0.019
329.48	0.019
329.69	0.019
329.90	0.019
330.11	0.019
330.32	0.020
330.53	0.019
330.74	0.019
330.95	0.019
331.16	0.019
331.37	0.020
331.58	0.020
331.79	0.020
332.00	0.020
332.21	0.020
332.42	0.020
332.63	0.020
332.83	0.020
333.04	0.020
333.25	0.020
333.46	0.020
333.67	0.020
333.88	0.020
334.09	0.020
334.30	0.020
334.51	0.020
334.72	0.020
334.93	0.019
335.14	0.020
335.35	0.020
335.56	0.020
335.77	0.020
335.98	0.020
336.18	0.020
336.39	0.020
336.60	0.020
336.81	0.020
337.02	0.020
337.23	0.020
337.44	0.020
337.65	0.020
337.86	0.020
338.07	0.020
338.28	0.020
338.49	0.020
338.70	0.020
338.91	0.020
339.11	0.020
339.32	0.021
339.53	0.020
339.74	0.021
339.95	0.020
340.16	0.021
340.37	0.021
340.58	0.021
340.79	0.021
341.00	0.020
341.21	0.021
341.41	0.020
341.62	0.020
341.83	0.020
342.04	0.020
342.25	0.020
342.46	0.020
342.67	0.020
342.88	0.020
343.09	0.021
343.30	0.021
343.50	0.021
343.71	0.021
343.92	0.021
344.13	0.021
344.34	0.021
344.55	0.021
344.76	0.021
344.97	0.021
345.18	0.021
345.38	0.021
345.59	0.021
345.80	0.021
346.01	0.021
346.22	0.021
346.43	0.021
346.64	0.021
346.85	0.021
347.06	0.021
347.26	0.021
347.47	0.021
347.68	0.021
347.89	0.021
348.10	0.021
348.31	0.021
348.52	0.021
348.73	0.021
348.93	0.021
349.14	0.021
349.35	0.021
349.56	0.021
349.77	0.021
349.98	0.021
350.19	0.021
350.39	0.021
350.60	0.022
350.81	0.021
351.02	0.021
351.23	0.022
351.44	0.022
351.65	0.022
351.86	0.022
352.06	0.022
352.27	0.022
352.48	0.022
352.69	0.022
352.90	0.022
353.11	0.022
353.31	0.022
353.52	0.022
353.73	0.022
353.94	0.022
354.15	0.022
354.36	0.022
354.57	0.022
354.77	0.022
354.98	0.022
355.19	0.022
355.40	0.022
355.61	0.022
355.82	0.022
356.02	0.022
356.23	0.023
356.44	0.023
356.65	0.023
356.86	0.023
357.07	0.023
357.27	0.023
357.48	0.023
357.69	0.023
357.90	0.023
358.11	0.023
358.32	0.023
358.52	0.023
358.73	0.023
358.94	0.023
359.15	0.023
359.36	0.023
359.56	0.023
359.77	0.023
359.98	0.023
360.19	0.023
360.40	0.023
360.61	0.023
360.81	0.023
361.02	0.023
361.23	0.023
361.44	0.023
361.65	0.023
361.85	0.023
362.06	0.023
362.27	0.023
362.48	0.023
362.69	0.023
362.89	0.023
363.10	0.023
363.31	0.023
363.52	0.023
363.73	0.023
363.93	0.023
364.14	0.023
364.35	0.023
364.56	0.023
364.77	0.023
364.97	0.023
365.18	0.023
365.39	0.023
365.60	0.023
365.81	0.023
366.01	0.023
366.22	0.023
366.43	0.023
366.64	0.023
366.84	0.023
367.05	0.023
367.26	0.024
367.47	0.023
367.68	0.024
367.88	0.024
368.09	0.024
368.30	0.024
368.51	0.024
368.71	0.024
368.92	0.024
369.13	0.024
369.34	0.024
369.55	0.024
369.75	0.024
369.96	0.024
370.17	0.024
370.38	0.024
370.58	0.024
370.79	0.024
371.00	0.024
371.21	0.024
371.41	0.024
371.62	0.024
371.83	0.024
372.04	0.024
372.24	0.024
372.45	0.024
372.66	0.024
372.87	0.024
373.07	0.024
373.28	0.024
373.49	0.024
373.70	0.024
373.90	0.024
374.11	0.024
374.32	0.024
374.53	0.023
374.73	0.023
374.94	0.023
375.15	0.023
375.36	0.024
375.56	0.024
375.77	0.024
375.98	0.024
376.19	0.024
376.39	0.024
376.60	0.024
376.81	0.023
377.02	0.024
377.22	0.024
377.43	0.024
377.64	0.023
377.84	0.023
378.05	0.023
378.26	0.023
378.47	0.023
378.67	0.023
378.88	0.024
379.09	0.024
379.30	0.024
379.50	0.023
379.71	0.023
379.92	0.024
380.12	0.023
380.33	0.023
380.54	0.024
380.75	0.024
380.95	0.024
381.16	0.024
381.37	0.024
381.57	0.024
381.78	0.024
381.99	0.024
382.20	0.024
382.40	0.024
382.61	0.024
382.82	0.024
383.02	0.024
383.23	0.024
383.44	0.024
383.64	0.024
383.85	0.024
384.06	0.024
384.27	0.024
384.47	0.024
384.68	0.024
384.89	0.024
385.09	0.024
385.30	0.023
385.51	0.023
385.71	0.023
385.92	0.023
386.13	0.023
386.33	0.023
386.54	0.023
386.75	0.023
386.95	0.023
387.16	0.023
387.37	0.023
387.58	0.023
387.78	0.023
387.99	0.023
388.20	0.023
388.40	0.024
388.61	0.024
388.82	0.024
389.02	0.024
389.23	0.024
389.44	0.024
389.64	0.024
389.85	0.024
390.06	0.023
390.26	0.023
390.47	0.023
390.68	0.023
390.88	0.023
391.09	0.023
391.30	0.023
391.50	0.023
391.71	0.023
391.92	0.023
392.12	0.023
392.33	0.023
392.53	0.023
392.74	0.023
392.95	0.023
393.15	0.023
393.36	0.024
393.57	0.024
393.77	0.024
393.98	0.024
394.19	0.024
394.39	0.024
394.60	0.024
394.81	0.024
395.01	0.024
395.22	0.024
395.43	0.023
395.63	0.023
395.84	0.023
396.04	0.023
396.25	0.023
396.46	0.023
396.66	0.023
396.87	0.023
397.08	0.023
397.28	0.023
397.49	0.023
397.69	0.023
397.90	0.023
398.11	0.023
398.31	0.023
398.52	0.023
398.73	0.023
398.93	0.023
399.14	0.023
399.34	0.023
399.55	0.023
399.76	0.023
399.96	0.023
400.17	0.023
400.37	0.023
400.58	0.023
400.79	0.023
400.99	0.023
401.20	0.023
401.41	0.023
401.61	0.023
401.82	0.023
402.02	0.023
402.23	0.023
402.44	0.023
402.64	0.023
402.85	0.023
403.05	0.023
403.26	0.023
403.47	0.023
403.67	0.023
403.88	0.023
404.08	0.023
404.29	0.023
404.50	0.023
404.70	0.023
404.91	0.023
405.11	0.023
405.32	0.023
405.52	0.022
405.73	0.022
405.94	0.022
406.14	0.022
406.35	0.022
406.55	0.022
406.76	0.022
406.97	0.022
407.17	0.022
407.38	0.022
407.58	0.022
407.79	0.022
407.99	0.023
408.20	0.023
408.41	0.023
408.61	0.023
408.82	0.022
409.02	0.023
409.23	0.023
409.43	0.023
409.64	0.023
409.84	0.023
410.05	0.023
410.26	0.023
410.46	0.023
410.67	0.023
410.87	0.023
411.08	0.023
411.28	0.023
411.49	0.023
411.69	0.023
411.90	0.023
412.11	0.023
412.31	0.022
412.52	0.022
412.72	0.022
412.93	0.022
413.13	0.022
413.34	0.022
413.54	0.022
413.75	0.022
413.95	0.022
414.16	0.022
414.37	0.022
414.57	0.022
414.78	0.022
414.98	0.022
415.19	0.022
415.39	0.022
415.60	0.022
415.80	0.022
416.01	0.022
416.21	0.022
416.42	0.022
416.62	0.022
416.83	0.022
417.03	0.022
417.24	0.022
417.44	0.022
417.65	0.022
417.86	0.022
418.06	0.022
418.27	0.022
418.47	0.022
418.68	0.022
418.88	0.022
419.09	0.022
419.29	0.021
419.50	0.021
419.70	0.021
419.91	0.021
420.11	0.021
420.32	0.021
420.52	0.021
420.73	0.021
420.93	0.021
421.14	0.021
421.34	0.021
421.55	0.021
421.75	0.021
421.96	0.021
422.16	0.021
422.37	0.021
422.57	0.021
422.78	0.021
422.98	0.021
423.19	0.022
423.39	0.022
423.60	0.022
423.80	0.022
424.01	0.022
424.21	0.022
424.42	0.022
424.62	0.022
424.83	0.022
425.03	0.022
425.23	0.022
425.44	0.022
425.64	0.022
425.85	0.022
426.05	0.022
426.26	0.022
426.46	0.022
426.67	0.022
426.87	0.022
427.08	0.021
427.28	0.021
427.49	0.021
427.69	0.021
427.90	0.021
428.10	0.021
428.31	0.021
428.51	0.021
428.71	0.021
428.92	0.021
429.12	0.021
429.33	0.021
429.53	0.021
429.74	0.021
429.94	0.021
430.15	0.021
430.35	0.022
430.56	0.022
430.76	0.022
430.96	0.022
431.17	0.022
431.37	0.022
431.58	0.022
431.78	0.022
431.99	0.022
432.19	0.022
432.40	0.022
432.60	0.022
432.80	0.022
433.01	0.022
433.21	0.022
433.42	0.022
433.62	0.022
433.83	0.022
434.03	0.022
434.23	0.022
434.44	0.022
434.64	0.022
434.85	0.022
435.05	0.021
435.26	0.021
435.46	0.021
435.66	0.021
435.87	0.021
436.07	0.021
436.28	0.021
436.48	0.021
436.69	0.021
436.89	0.021
437.09	0.021
437.30	0.021
437.50	0.021
437.71	0.021
437.91	0.021
438.11	0.021
438.32	0.021
438.52	0.021
438.73	0.021
438.93	0.021
439.13	0.021
439.34	0.021
439.54	0.021
439.75	0.021
439.95	0.021
440.15	0.021
440.36	0.021
440.56	0.021
440.77	0.021
440.97	0.021
441.17	0.021
441.38	0.021
441.58	0.021
441.79	0.021
441.99	0.021
442.19	0.021
442.40	0.021
442.60	0.021
442.81	0.021
443.01	0.021
443.21	0.021
443.42	0.021
443.62	0.021
443.82	0.021
444.03	0.021
444.23	0.021
444.44	0.021
444.64	0.021
444.84	0.021
445.05	0.021
445.25	0.021
445.45	0.021
445.66	0.021
445.86	0.021
446.06	0.021
446.27	0.021
446.47	0.021
446.68	0.021
446.88	0.021
447.08	0.021
447.29	0.021
447.49	0.021
447.69	0.021
447.90	0.021
448.10	0.021
448.30	0.021
448.51	0.021
448.71	0.021
448.91	0.021
449.12	0.021
449.32	0.021
449.52	0.021
449.73	0.021
449.93	0.021
450.14	0.021
450.34	0.021
450.54	0.021
450.75	0.021
450.95	0.021
451.15	0.021
451.36	0.021
451.56	0.021
451.76	0.021
451.97	0.021
452.17	0.021
452.37	0.021
452.58	0.021
452.78	0.021
452.98	0.021
453.19	0.021
453.39	0.021
453.59	0.021
453.79	0.021
454.00	0.021
454.20	0.021
454.40	0.021
454.61	0.021
454.81	0.021
455.01	0.021
455.22	0.021
455.42	0.021
455.62	0.021
455.83	0.021
456.03	0.021
456.23	0.021
456.44	0.021
456.64	0.021
456.84	0.021
457.04	0.021
457.25	0.021
457.45	0.021
457.65	0.021
457.86	0.020
458.06	0.020
458.26	0.020
458.47	0.020
458.67	0.020
458.87	0.020
459.07	0.020
459.28	0.020
459.48	0.020
459.68	0.020
459.89	0.020
460.09	0.021
460.29	0.021
460.49	0.021
460.70	0.021
460.90	0.021
461.10	0.021
461.31	0.021
461.51	0.021
461.71	0.021
461.91	0.021
462.12	0.021
462.32	0.021
462.52	0.021
462.72	0.021
462.93	0.020
463.13	0.020
463.33	0.020
463.53	0.020
463.74	0.020
463.94	0.020
464.14	0.020
464.35	0.020
464.55	0.020
464.75	0.020
464.95	0.020
465.16	0.020
465.36	0.020
465.56	0.020
465.76	0.020
465.97	0.020
466.17	0.020
466.37	0.020
466.57	0.020
466.78	0.020
466.98	0.020
467.18	0.020
467.38	0.020
467.59	0.020
467.79	0.020
467.99	0.020
468.19	0.020
468.39	0.020
468.60	0.020
468.80	0.020
469.00	0.020
469.20	0.020
469.41	0.020
469.61	0.020
469.81	0.020
470.01	0.020
470.22	0.020
470.42	0.019
470.62	0.020
470.82	0.020
471.02	0.019
471.23	0.020
471.43	0.019
471.63	0.020
471.83	0.020
472.04	0.020
472.24	0.020
472.44	0.019
472.64	0.019
472.84	0.019
473.05	0.019
473.25	0.019
473.45	0.019
473.65	0.019
473.85	0.019
474.06	0.019
474.26	0.019
474.46	0.019
474.66	0.020
474.86	0.020
475.07	0.020
475.27	0.020
475.47	0.020
475.67	0.020
475.87	0.020
476.08	0.020
476.28	0.020
476.48	0.020
476.68	0.020
476.88	0.020
477.09	0.020
477.29	0.020
477.49	0.020
477.69	0.020
477.89	0.020
478.09	0.020
478.30	0.019
478.50	0.019
478.70	0.019
478.90	0.019
479.10	0.019
479.31	0.019
479.51	0.019
479.71	0.019
479.91	0.019
480.11	0.019
480.31	0.019
480.52	0.019
480.72	0.019
480.92	0.019
481.12	0.019
481.32	0.019
481.52	0.019
481.72	0.019
481.93	0.019
482.13	0.019
482.33	0.019
482.53	0.019
482.73	0.018
482.93	0.019
483.14	0.019
483.34	0.019
483.54	0.018
483.74	0.019
483.94	0.019
484.14	0.019
484.34	0.019
484.55	0.019
484.75	0.019
484.95	0.019
485.15	0.019
485.35	0.019
485.55	0.019
485.75	0.019
485.96	0.019
486.16	0.019
486.36	0.019
486.56	0.019
486.76	0.020
486.96	0.020
487.16	0.020
487.36	0.020
487.57	0.020
487.77	0.020
487.97	0.020
488.17	0.020
488.37	0.020
488.57	0.020
488.77	0.020
488.97	0.020
489.18	0.020
489.38	0.020
489.58	0.020
489.78	0.020
489.98	0.020
490.18	0.020
490.38	0.020
490.58	0.020
490.78	0.020
490.98	0.020
491.19	0.020
491.39	0.020
491.59	0.020
491.79	0.020
491.99	0.020
492.19	0.020
492.39	0.020
492.59	0.019
492.79	0.020
492.99	0.020
493.20	0.019
493.40	0.020
493.60	0.019
493.80	0.019
494.00	0.019
494.20	0.019
494.40	0.019
494.60	0.019
494.80	0.019
495.00	0.019
495.20	0.019
495.40	0.019
495.61	0.019
495.81	0.020
496.01	0.020
496.21	0.020
496.41	0.020
496.61	0.020
496.81	0.020
497.01	0.020
497.21	0.020
497.41	0.020
497.61	0.020
497.81	0.020
498.01	0.021
498.21	0.021
498.41	0.020
498.61	0.020
498.82	0.020
499.02	0.020
499.22	0.020
499.42	0.020
499.62	0.020
499.82	0.020
500.02	0.020
500.22	0.019
500.42	0.019
500.62	0.019
500.82	0.019
501.02	0.019
501.22	0.019
501.42	0.019
501.62	0.019
501.82	0.019
502.02	0.019
502.22	0.019
502.42	0.019
502.62	0.020
502.82	0.020
503.02	0.020
503.22	0.019
503.42	0.020
503.63	0.020
503.83	0.020
504.03	0.020
504.23	0.020
504.43	0.020
504.63	0.020
504.83	0.020
505.03	0.020
505.23	0.020
505.43	0.020
505.63	0.020
505.83	0.020
506.03	0.020
506.23	0.020
506.43	0.020
506.63	0.020
506.83	0.020
507.03	0.020
507.23	0.020
507.43	0.020
507.63	0.020
507.83	0.020
508.03	0.020
508.23	0.020
508.43	0.020
508.63	0.020
508.83	0.020
509.03	0.020
509.23	0.020
509.43	0.020
509.63	0.020
509.83	0.020
510.03	0.020
510.23	0.020
510.43	0.020
510.63	0.020
510.83	0.020
511.03	0.020
511.23	0.020
511.43	0.020
511.63	0.020
511.83	0.020
512.03	0.020
512.22	0.020
512.42	0.020
512.62	0.020
512.82	0.020
513.02	0.020
513.22	0.020
513.42	0.020
513.62	0.020
513.82	0.020
514.02	0.020
514.22	0.020
514.42	0.020
514.62	0.020
514.82	0.020
515.02	0.020
515.22	0.020
515.42	0.020
515.62	0.020
515.82	0.020
516.02	0.020
516.22	0.020
516.42	0.020
516.62	0.020
516.82	0.020
517.01	0.020
517.21	0.020
517.41	0.020
517.61	0.020
517.81	0.020
518.01	0.020
518.21	0.020
518.41	0.021
518.61	0.020
518.81	0.021
519.01	0.021
519.21	0.021
519.41	0.021
519.61	0.021
519.81	0.020
520.00	0.020
520.20	0.020
520.40	0.020
520.60	0.020
520.80	0.020
521.00	0.020
521.20	0.020
521.40	0.020
521.60	0.020
521.80	0.020
522.00	0.020
522.20	0.020
522.39	0.020
522.59	0.020
522.79	0.020
522.99	0.020
523.19	0.020
523.39	0.020
523.59	0.020
523.79	0.020
523.99	0.020
524.19	0.020
524.38	0.020
524.58	0.021
524.78	0.021
524.98	0.021
525.18	0.021
525.38	0.021
525.58	0.021
525.78	0.021
525.98	0.020
526.18	0.020
526.37	0.020
526.57	0.020
526.77	0.020
526.97	0.020
527.17	0.020
527.37	0.020
527.57	0.020
527.77	0.020
527.96	0.020
528.16	0.020
528.36	0.020
528.56	0.020
528.76	0.020
528.96	0.020
529.16	0.020
529.36	0.020
529.55	0.020
529.75	0.020
529.95	0.020
530.15	0.020
530.35	0.020
530.55	0.020
530.75	0.020
530.94	0.020
531.14	0.020
531.34	0.020
531.54	0.020
531.74	0.020
531.94	0.020
532.13	0.020
532.33	0.020
532.53	0.020
532.73	0.020
532.93	0.020
533.13	0.020
533.33	0.020
533.52	0.020
533.72	0.020
533.92	0.020
534.12	0.020
534.32	0.020
534.52	0.020
534.71	0.020
534.91	0.020
535.11	0.020
535.31	0.020
535.51	0.020
535.71	0.020
535.90	0.020
536.10	0.020
536.30	0.020
536.50	0.020
536.70	0.020
536.89	0.020
537.09	0.020
537.29	0.020
537.49	0.020
537.69	0.020
537.89	0.020
538.08	0.020
538.28	0.020
538.48	0.020
538.68	0.020
538.88	0.020
539.07	0.020
539.27	0.020
539.47	0.020
539.67	0.020
539.87	0.020
540.06	0.020
540.26	0.020
540.46	0.020
540.66	0.020
540.86	0.020
541.05	0.020
541.25	0.020
541.45	0.020
541.65	0.020
541.84	0.020
542.04	0.020
542.24	0.020
542.44	0.020
542.64	0.020
542.83	0.019
543.03	0.019
543.23	0.019
543.43	0.019
543.62	0.019
543.82	0.019
544.02	0.019
544.22	0.019
544.42	0.019
544.61	0.019
544.81	0.020
545.01	0.020
545.21	0.020
545.40	0.020
545.60	0.020
545.80	0.020
546.00	0.020
546.19	0.020
546.39	0.020
546.59	0.020
546.79	0.020
546.98	0.020
547.18	0.020
547.38	0.020
547.58	0.020
547.77	0.020
547.97	0.020
548.17	0.020
548.37	0.020
548.56	0.020
548.76	0.020
548.96	0.020
549.16	0.020
549.35	0.020
549.55	0.020
549.75	0.020
549.95	0.020
550.14	0.020
550.34	0.020
550.54	0.020
550.73	0.020
550.93	0.020
551.13	0.020
551.33	0.020
551.52	0.020
551.72	0.020
551.92	0.020
552.12	0.019
552.31	0.019
552.51	0.020
552.71	0.020
552.90	0.020
553.10	0.020
553.30	0.020
553.50	0.020
553.69	0.020
553.89	0.020
554.09	0.020
554.28	0.020
554.48	0.020
554.68	0.020
554.87	0.020
555.07	0.020
555.27	0.021
555.47	0.021
555.66	0.021
555.86	0.021
556.06	0.021
556.25	0.021
556.45	0.021
556.65	0.021
556.84	0.021
557.04	0.021
557.24	0.021
557.43	0.021
557.63	0.021
557.83	0.021
558.02	0.020
558.22	0.020
558.42	0.020
558.61	0.020
558.81	0.020
559.01	0.019
559.21	0.019
559.40	0.019
559.60	0.019
559.80	0.019
559.99	0.019
560.19	0.019
560.39	0.019
560.58	0.019
560.78	0.019
560.97	0.019
561.17	0.019
561.37	0.019
561.56	0.019
561.76	0.019
561.96	0.020
562.15	0.020
562.35	0.020
562.55	0.020
562.74	0.020
562.94	0.020
563.14	0.020
563.33	0.020
563.53	0.020
563.73	0.020
563.92	0.020
564.12	0.020
564.31	0.020
564.51	0.020
564.71	0.020
564.90	0.020
565.10	0.020
565.30	0.020
565.49	0.020
565.69	0.020
565.89	0.020
566.08	0.020
566.28	0.019
566.47	0.019
566.67	0.019
566.87	0.019
567.06	0.019
567.26	0.018
567.46	0.018
567.65	0.018
567.85	0.018
568.04	0.018
568.24	0.018
568.44	0.018
568.63	0.018
568.83	0.017
569.02	0.017
569.22	0.017
569.42	0.018
569.61	0.018
569.81	0.018
570.00	0.018
570.20	0.018
570.40	0.018
570.59	0.018
570.79	0.018
570.98	0.018
571.18	0.018
571.38	0.018
571.57	0.018
571.77	0.017
571.96	0.018
572.16	0.018
572.35	0.018
572.55	0.018
572.75	0.018
572.94	0.019
573.14	0.019
573.33	0.019
573.53	0.019
573.73	0.019
573.92	0.019
574.12	0.020
574.31	0.019
574.51	0.019
574.70	0.018
574.90	0.017
575.09	0.015
575.29	0.013
575.49	0.011
575.68	0.009
575.88	0.008
576.07	0.006
576.27	0.004
576.46	0.002
576.66	0.001
576.86	0.000
577.05	-0.000
577.25	-0.000
577.44	-0.000
577.64	-0.000
577.83	-0.000
578.03	-0.000
578.22	-0.000
578.42	-0.000
578.61	-0.000
578.81	-0.000
579.00	-0.000
579.20	-0.000
579.40	-0.000
579.59	-0.000
579.79	-0.000
579.98	-0.000
580.18	-0.000
580.37	-0.000
580.57	-0.000
580.76	-0.000
580.96	-0.000
581.15	-0.000
581.35	-0.000
581.54	-0.000
581.74	-0.000
581.93	-0.000
582.13	-0.000
582.32	-0.000
582.52	-0.000
582.71	-0.000
582.91	-0.000
583.10	-0.000
583.30	-0.000
583.49	0.000
583.69	0.001
583.88	0.001
584.08	0.002
584.27	0.003
584.47	0.003
584.66	0.004
584.86	0.004
585.05	0.005
585.25	0.005
585.44	0.005
585.64	0.004
585.83	0.004
586.03	0.004
586.22	0.004
586.42	0.006
586.61	0.007
586.81	0.009
587.00	0.010
587.20	0.012
587.39	0.013
587.59	0.015
587.78	0.017
587.98	0.019
588.17	0.020
588.37	0.021
588.56	0.021
588.76	0.021
588.95	0.020
589.15	0.020
589.34	0.020
589.54	0.020
589.73	0.020
589.92	0.020
590.12	0.019
590.31	0.019
590.51	0.018
590.70	0.018
590.90	0.018
591.09	0.018
591.29	0.018
591.48	0.018
591.68	0.018
591.87	0.018
592.06	0.018
592.26	0.018
592.45	0.018
592.65	0.018
592.84	0.018
593.04	0.019
593.23	0.019
593.43	0.019
593.62	0.019
593.81	0.019
594.01	0.020
594.20	0.020
594.40	0.020
594.59	0.020
594.79	0.020
594.98	0.020
595.17	0.021
595.37	0.020
595.56	0.020
595.76	0.020
595.95	0.019
596.14	0.019
596.34	0.019
596.53	0.018
596.73	0.018
596.92	0.017
597.12	0.017
597.31	0.017
597.50	0.017
597.70	0.017
597.89	0.017
598.09	0.017
598.28	0.017
598.47	0.017
598.67	0.017
598.86	0.018
599.06	0.018
599.25	0.018
599.44	0.018
599.64	0.019
599.83	0.019
600.03	0.019
600.22	0.020
600.41	0.020
600.61	0.020
600.80	0.020
601.00	0.020
601.19	0.020
601.38	0.020
601.58	0.020
601.77	0.020
601.96	0.020
602.16	0.020
602.35	0.020
602.55	0.020
602.74	0.019
602.93	0.019
603.13	0.019
603.32	0.018
603.51	0.018
603.71	0.018
603.90	0.018
604.09	0.017
604.29	0.017
604.48	0.017
604.68	0.017
604.87	0.017
605.06	0.017
605.26	0.017
605.45	0.018
605.64	0.018
605.84	0.018
606.03	0.018
606.22	0.018
606.42	0.018
606.61	0.019
606.80	0.019
607.00	0.019
607.19	0.019
607.38	0.019
607.58	0.019
607.77	0.019
607.96	0.019
608.16	0.020
608.35	0.020
608.54	0.020
608.74	0.020
608.93	0.020
609.12	0.020
609.32	0.020
609.51	0.021
609.70	0.021
609.90	0.021
610.09	0.021
610.28	0.020
610.48	0.020
610.67	0.020
610.86	0.020
611.06	0.020
611.25	0.019
611.44	0.019
611.64	0.019
611.83	0.019
612.02	0.019
612.21	0.018
612.41	0.018
612.60	0.018
612.79	0.018
612.99	0.019
613.18	0.018
613.37	0.018
613.57	0.019
613.76	0.019
613.95	0.019
614.14	0.019
614.34	0.019
614.53	0.019
614.72	0.019
614.92	0.019
615.11	0.019
615.30	0.020
615.49	0.020
615.69	0.020
615.88	0.020
616.07	0.020
616.26	0.020
616.46	0.020
616.65	0.020
616.84	0.020
617.04	0.021
617.23	0.021
617.42	0.021
617.61	0.021
617.81	0.021
618.00	0.021
618.19	0.021
618.38	0.020
618.58	0.020
618.77	0.020
618.96	0.020
619.15	0.020
619.35	0.020
619.54	0.020
619.73	0.020
619.92	0.020
620.12	0.020
620.31	0.020
620.50	0.020
620.69	0.020
620.89	0.020
621.08	0.020
621.27	0.020
621.46	0.020
621.66	0.020
621.85	0.020
622.04	0.020
622.23	0.020
622.43	0.020
622.62	0.020
622.81	0.020
623.00	0.020
623.19	0.020
623.39	0.020
623.58	0.020
623.77	0.020
623.96	0.020
624.16	0.020
624.35	0.020
624.54	0.020
624.73	0.020
624.92	0.020
625.12	0.020
625.31	0.020
625.50	0.020
625.69	0.020
625.88	0.020
626.08	0.020
626.27	0.020
626.46	0.020
626.65	0.021
626.84	0.021
627.04	0.021
627.23	0.021
627.42	0.021
627.61	0.020
627.80	0.020
628.00	0.020
628.19	0.020
628.38	0.020
628.57	0.020
628.76	0.021
628.96	0.021
629.15	0.021
629.34	0.021
629.53	0.021
629.72	0.021
629.91	0.021
630.11	0.021
630.30	0.022
630.49	0.022
630.68	0.022
630.87	0.022
631.06	0.022
631.26	0.022
631.45	0.022
631.64	0.022
631.83	0.022
632.02	0.022
632.21	0.022
632.41	0.022
632.60	0.022
632.79	0.022
632.98	0.022
633.17	0.021
633.36	0.021
633.55	0.021
633.75	0.021
633.94	0.021
634.13	0.021
634.32	0.021
634.51	0.021
634.70	0.021
634.89	0.021
635.09	0.021
635.28	0.021
635.47	0.021
635.66	0.021
635.85	0.021
636.04	0.021
636.23	0.021
636.43	0.022
636.62	0.021
636.81	0.021
637.00	0.022
637.19	0.022
637.38	0.022
637.57	0.022
637.76	0.022
637.95	0.022
638.15	0.022
638.34	0.022
638.53	0.022
638.72	0.022
638.91	0.022
639.10	0.022
639.29	0.022
639.48	0.022
639.67	0.022
639.87	0.022
640.06	0.022
640.25	0.022
640.44	0.021
640.63	0.021
640.82	0.021
641.01	0.021
641.20	0.021
641.39	0.021
641.58	0.022
641.78	0.022
641.97	0.022
642.16	0.022
642.35	0.022
642.54	0.022
642.73	0.022
642.92	0.022
643.11	0.022
643.30	0.022
643.49	0.021
643.68	0.021
643.87	0.021
644.06	0.021
644.25	0.021
644.45	0.021
644.64	0.021
644.83	0.021
645.02	0.021
645.21	0.021
645.40	0.021
645.59	0.021
645.78	0.021
645.97	0.021
646.16	0.021
646.35	0.021
646.54	0.021
646.73	0.021
646.92	0.020
647.11	0.020
647.30	0.020
647.49	0.020
647.68	0.020
647.88	0.020
648.07	0.020
648.26	0.020
648.45	0.020
648.64	0.020
648.83	0.020
649.02	0.020
649.21	0.020
649.40	0.020
649.59	0.021
649.78	0.021
649.97	0.021
650.16	0.021
650.35	0.021
650.54	0.021
650.73	0.022
650.92	0.022
651.11	0.022
651.30	0.022
651.49	0.022
651.68	0.022
651.87	0.022
652.06	0.022
652.25	0.022
652.44	0.021
652.63	0.020
652.82	0.018
653.01	0.017
653.20	0.016
653.39	0.015
653.58	0.015
653.77	0.015
653.96	0.015
654.15	0.014
654.34	0.014
654.53	0.015
654.72	0.015
654.91	0.016
655.10	0.017
655.29	0.017
655.48	0.018
655.67	0.018
655.86	0.018
656.05	0.018
656.24	0.018
656.43	0.018
656.62	0.018
656.81	0.019
657.00	0.020
657.19	0.021
657.38	0.022
657.57	0.023
657.76	0.024
657.95	0.024
658.14	0.025
658.33	0.026
658.51	0.026
658.70	0.026
658.89	0.026
659.08	0.025
659.27	0.024
659.46	0.023
659.65	0.023
659.84	0.023
660.03	0.022
660.22	0.022
660.41	0.022
660.60	0.022
660.79	0.022
660.98	0.022
661.17	0.022
661.36	0.022
661.55	0.022
661.74	0.022
661.92	0.022
662.11	0.021
662.30	0.021
662.49	0.021
662.68	0.021
662.87	0.021
663.06	0.021
663.25	0.021
663.44	0.021
663.63	0.021
663.82	0.021
664.01	0.021
664.20	0.021
664.38	0.021
664.57	0.021
664.76	0.021
664.95	0.021
665.14	0.021
665.33	0.022
665.52	0.022
665.71	0.022
665.90	0.021
666.09	0.021
666.28	0.021
666.46	0.021
666.65	0.021
666.84	0.022
667.03	0.021
667.22	0.021
667.41	0.021
667.60	0.021
667.79	0.021
667.98	0.021
668.16	0.021
668.35	0.021
668.54	0.021
668.73	0.021
668.92	0.021
669.11	0.020
669.30	0.020
669.49	0.020
669.67	0.020
669.86	0.020
670.05	0.020
670.24	0.020
670.43	0.020
670.62	0.020
670.81	0.020
671.00	0.020
671.18	0.020
671.37	0.020
671.56	0.020
671.75	0.020
671.94	0.020
672.13	0.020
672.32	0.020
672.50	0.021
672.69	0.021
672.88	0.021
673.07	0.021
673.26	0.021
673.45	0.021
673.63	0.021
673.82	0.021
674.01	0.021
674.20	0.022
674.39	0.022
674.58	0.022
674.76	0.021
674.95	0.021
675.14	0.022
675.33	0.021
675.52	0.022
675.71	0.021
675.89	0.021
676.08	0.021
676.27	0.021
676.46	0.021
676.65	0.021
676.84	0.021
677.02	0.021
677.21	0.021
677.40	0.021
677.59	0.021
677.78	0.021
677.96	0.022
678.15	0.021
678.34	0.021
678.53	0.021
678.72	0.021
678.90	0.021
679.09	0.021
679.28	0.021
679.47	0.021
679.66	0.021
679.84	0.021
680.03	0.021
680.22	0.021
680.41	0.021
680.60	0.021
680.78	0.021
680.97	0.021
681.16	0.021
681.35	0.021
681.53	0.021
681.72	0.021
681.91	0.021
682.10	0.020
682.29	0.020
682.47	0.020
682.66	0.020
682.85	0.020
683.04	0.020
683.22	0.020
683.41	0.020
683.60	0.020
683.79	0.020
683.97	0.020
684.16	0.020
684.35	0.021
684.54	0.021
684.72	0.021
684.91	0.021
685.10	0.021
685.29	0.021
685.47	0.021
685.66	0.021
685.85	0.021
686.04	0.021
686.22	0.021
686.41	0.021
686.60	0.021
686.79	0.021
686.97	0.021
687.16	0.021
687.35	0.021
687.54	0.021
687.72	0.021
687.91	0.021
688.10	0.021
688.29	0.021
688.47	0.021
688.66	0.021
688.85	0.021
689.03	0.021
689.22	0.021
689.41	0.021
689.60	0.021
689.78	0.021
689.97	0.020
690.16	0.021
690.34	0.021
690.53	0.021
690.72	0.021
690.91	0.021
691.09	0.021
691.28	0.021
691.47	0.021
691.65	0.021
691.84	0.021
692.03	0.021
692.21	0.021
692.40	0.021
692.59	0.021
692.77	0.021
692.96	0.021
693.15	0.021
693.34	0.021
693.52	0.021
693.71	0.021
693.90	0.021
694.08	0.021
694.27	0.021
694.46	0.021
694.64	0.021
694.83	0.021
695.02	0.021
695.20	0.020
695.39	0.020
695.58	0.020
695.76	0.020
695.95	0.020
696.14	0.020
696.32	0.021
696.51	0.021
696.70	0.021
696.88	0.020
697.07	0.021
697.26	0.021
697.44	0.021
697.63	0.021
697.81	0.021
698.00	0.021
698.19	0.021
698.37	0.021
698.56	0.021
698.75	0.021
698.93	0.021
699.12	0.021
699.31	0.021
699.49	0.021
699.68	0.021
699.87	0.021
700.05	0.021
700.24	0.021
700.42	0.021
700.61	0.021
700.80	0.021
700.98	0.021
701.17	0.021
701.36	0.021
701.54	0.021
701.73	0.021
701.91	0.021
702.10	0.021
702.29	0.021
702.47	0.021
702.66	0.021
702.84	0.021
703.03	0.021
703.22	0.021
703.40	0.021
703.59	0.021
703.77	0.021
703.96	0.021
704.15	0.021
704.33	0.021
704.52	0.021
704.70	0.021
704.89	0.021
705.08	0.021
705.26	0.021
705.45	0.021
705.63	0.021
705.82	0.021
706.00	0.021
706.19	0.020
706.38	0.020
706.56	0.020
706.75	0.020
706.93	0.020
707.12	0.020
707.30	0.020
707.49	0.020
707.68	0.020
707.86	0.020
708.05	0.020
708.23	0.020
708.42	0.020
708.60	0.020
708.79	0.020
708.98	0.020
709.16	0.020
709.35	0.021
709.53	0.021
709.72	0.021
709.90	0.021
710.09	0.021
710.27	0.021
710.46	0.021
710.64	0.021
710.83	0.021
711.02	0.021
711.20	0.021
711.39	0.020
711.57	0.021
711.76	0.021
711.94	0.020
712.13	0.021
712.31	0.021
712.50	0.020
712.68	0.020
712.87	0.021
713.05	0.021
713.24	0.021
713.42	0.021
713.61	0.021
713.79	0.021
713.98	0.021
714.16	0.021
714.35	0.021
714.54	0.021
714.72	0.021
714.91	0.021
715.09	0.021
715.28	0.021
715.46	0.021
715.65	0.021
715.83	0.021
716.02	0.021
716.20	0.021
716.39	0.021
716.57	0.021
716.76	0.020
716.94	0.020
717.12	0.020
717.31	0.020
717.49	0.020
717.68	0.020
717.86	0.020
718.05	0.020
718.23	0.020
718.42	0.020
718.60	0.020
718.79	0.020
718.97	0.020
719.16	0.020
719.34	0.020
719.53	0.020
719.71	0.020
719.90	0.020
720.08	0.020
720.27	0.020
720.45	0.020
720.63	0.020
720.82	0.020
721.00	0.020
721.19	0.020
721.37	0.020
721.56	0.020
721.74	0.020
721.93	0.020
722.11	0.020
722.30	0.021
722.48	0.020
722.66	0.020
722.85	0.020
723.03	0.020
723.22	0.020
723.40	0.020
723.59	0.020
723.77	0.020
723.95	0.020
724.14	0.020
724.32	0.020
724.51	0.020
724.69	0.020
724.88	0.020
725.06	0.020
725.24	0.020
725.43	0.020
725.61	0.020
725.80	0.020
725.98	0.020
726.16	0.020
726.35	0.019
726.53	0.019
726.72	0.019
726.90	0.019
727.09	0.019
727.27	0.019
727.45	0.019
727.64	0.019
727.82	0.019
728.01	0.019
728.19	0.019
728.37	0.019
728.56	0.019
728.74	0.019
728.92	0.019
729.11	0.019
729.29	0.020
729.48	0.019
729.66	0.019
729.84	0.019
730.03	0.019
730.21	0.018
730.40	0.019
730.58	0.019
730.76	0.019
730.95	0.019
731.13	0.018
731.31	0.018
731.50	0.018
731.68	0.019
731.86	0.018
732.05	0.018
732.23	0.019
732.42	0.019
732.60	0.019
732.78	0.019
732.97	0.018
733.15	0.018
733.33	0.018
733.52	0.018
733.70	0.017
733.88	0.017
734.07	0.017
734.25	0.017
734.43	0.017
734.62	0.017
734.80	0.016
734.98	0.016
735.17	0.016
735.35	0.016
735.53	0.016
735.72	0.016
735.90	0.016
736.08	0.017
736.27	0.016
736.45	0.016
736.63	0.016
736.82	0.016
737.00	0.016
737.18	0.016
737.37	0.016
737.55	0.015
737.73	0.015
737.92	0.015
738.10	0.014
738.28	0.015
738.46	0.015
738.65	0.015
738.83	0.015
739.01	0.015
739.20	0.014
739.38	0.014
739.56	0.015
739.75	0.015
739.93	0.015
740.11	0.016
740.29	0.016
740.48	0.016
740.66	0.016
740.84	0.016
741.03	0.016
741.21	0.017
741.39	0.017
741.57	0.017
741.76	0.017
741.94	0.017
742.12	0.016
742.31	0.016
742.49	0.016
742.67	0.016
742.85	0.016
743.04	0.015
743.22	0.015
743.40	0.015
743.58	0.016
743.77	0.016
743.95	0.016
744.13	0.016
744.31	0.016
744.50	0.016
744.68	0.016
744.86	0.017
745.04	0.016
745.23	0.016
745.41	0.016
745.59	0.015
745.77	0.015
745.96	0.015
746.14	0.015
746.32	0.015
746.50	0.016
746.69	0.016
746.87	0.016
747.05	0.016
747.23	0.016
747.42	0.016
747.60	0.016
747.78	0.016
747.96	0.016
748.14	0.017
748.33	0.017
748.51	0.017
748.69	0.018
748.87	0.018
749.06	0.019
749.24	0.019
749.42	0.019
749.60	0.019
749.78	0.018
749.97	0.018
750.15	0.018
750.33	0.018
750.51	0.018
750.69	0.017
750.88	0.016
751.06	0.016
751.24	0.016
751.42	0.016
751.60	0.017
751.79	0.017
751.97	0.017
752.15	0.017
752.33	0.017
752.51	0.017
752.69	0.016
752.88	0.017
753.06	0.017
753.24	0.017
753.42	0.017
753.60	0.017
753.78	0.017
753.97	0.017
754.15	0.016
754.33	0.016
754.51	0.016
754.69	0.016
754.87	0.016
755.06	0.016
755.24	0.016
755.42	0.016
755.60	0.015
755.78	0.015
755.96	0.016
756.15	0.015
756.33	0.015
756.51	0.016
756.69	0.016
756.87	0.015
757.05	0.015
757.23	0.015
757.42	0.015
757.60	0.015
757.78	0.015
757.96	0.015
758.14	0.015
758.32	0.016
758.50	0.016
758.69	0.016
758.87	0.016
759.05	0.017
759.23	0.017
759.41	0.017
759.59	0.018
759.77	0.018
759.95	0.018
760.13	0.018
760.32	0.018
760.50	0.018
760.68	0.018
760.86	0.019
761.04	0.018
761.22	0.018
761.40	0.018
761.58	0.018
761.76	0.018
761.95	0.017
762.13	0.017
762.31	0.018
762.49	0.017
762.67	0.018
762.85	0.017
763.03	0.017
763.21	0.017
763.39	0.017
763.57	0.017
763.75	0.017
763.94	0.017
764.12	0.017
764.30	0.017
764.48	0.017
764.66	0.017
764.84	0.016
765.02	0.017
765.20	0.016
765.38	0.016
765.56	0.017
765.74	0.017
765.92	0.017
766.10	0.017
766.28	0.017
766.46	0.017
766.65	0.017
766.83	0.017
767.01	0.018
767.19	0.018
767.37	0.018
767.55	0.018
767.73	0.018
767.91	0.018
768.09	0.019
768.27	0.019
768.45	0.019
768.63	0.018
768.81	0.018
768.99	0.018
769.17	0.018
769.35	0.018
769.53	0.018
769.71	0.018
769.89	0.018
770.07	0.018
770.25	0.018
770.43	0.018
770.61	0.019
770.79	0.019
770.97	0.019
771.15	0.019
771.33	0.020
771.51	0.020
771.69	0.021
771.87	0.021
772.05	0.021
772.24	0.021
772.42	0.020
772.60	0.021
772.78	0.021
772.96	0.022
773.14	0.022
773.32	0.021
773.49	0.020
773.67	0.020
773.85	0.020
774.03	0.021
774.21	0.021
774.39	0.021
774.57	0.020
774.75	0.020
774.93	0.020
775.11	0.020
775.29	0.020
775.47	0.020
775.65	0.019
775.83	0.019
776.01	0.018
776.19	0.018
776.37	0.018
776.55	0.018
776.73	0.017
776.91	0.017
777.09	0.017
777.27	0.017
777.45	0.017
777.63	0.017
777.81	0.018
777.99	0.019
778.17	0.019
778.35	0.019
778.53	0.019
778.71	0.019
778.89	0.019
779.07	0.019
779.24	0.019
779.42	0.019
779.60	0.019
779.78	0.019
779.96	0.019
780.14	0.019
780.32	0.018
780.50	0.018
780.68	0.019
780.86	0.019
781.04	0.019
781.22	0.019
781.40	0.019
781.58	0.019
781.75	0.020
781.93	0.020
782.11	0.020
782.29	0.020
782.47	0.021
782.65	0.021
782.83	0.021
783.01	0.022
783.19	0.022
783.37	0.021
783.55	0.021
783.72	0.021
783.90	0.021
784.08	0.021
784.26	0.020
784.44	0.020
784.62	0.020
784.80	0.020
784.98	0.020
785.16	0.021
785.33	0.021
785.51	0.021
785.69	0.021
785.87	0.021
786.05	0.021
786.23	0.021
786.41	0.021
786.59	0.020
786.77	0.021
786.94	0.020
787.12	0.020
787.30	0.020
787.48	0.020
787.66	0.020
787.84	0.020
788.02	0.020
788.19	0.020
788.37	0.020
788.55	0.020
788.73	0.020
788.91	0.020
789.09	0.020
789.27	0.020
789.44	0.020
789.62	0.020
789.80	0.020
789.98	0.020
790.16	0.020
790.34	0.020
790.51	0.021
790.69	0.021
790.87	0.021
791.05	0.020
791.23	0.021
791.41	0.021
791.58	0.020
791.76	0.020
791.94	0.021
792.12	0.020
792.30	0.020
792.48	0.020
792.65	0.020
792.83	0.020
793.01	0.020
793.19	0.019
793.37	0.019
793.54	0.020
793.72	0.020
793.90	0.019
794.08	0.020
794.26	0.020
794.43	0.020
794.61	0.021
794.79	0.021
794.97	0.021
795.15	0.021
795.32	0.021
795.50	0.022
795.68	0.022
795.86	0.022
796.04	0.022
796.21	0.022
796.39	0.022
796.57	0.022
796.75	0.022
796.92	0.022
797.10	0.022
797.28	0.022
797.46	0.021
797.64	0.021
797.81	0.021
797.99	0.021
798.17	0.021
798.35	0.021
798.52	0.021
798.70	0.021
798.88	0.021
799.06	0.021
799.23	0.021
799.41	0.022
799.59	0.022
799.77	0.022
799.94	0.022
800.12	0.022
800.30	0.021
800.48	0.021
800.65	0.021
800.83	0.021
801.01	0.021
801.19	0.021
801.36	0.021
801.54	0.021
801.72	0.021
801.90	0.021
802.07	0.020
802.25	0.021
802.43	0.021
802.60	0.021
802.78	0.022
802.96	0.022
803.14	0.022
803.31	0.021
803.49	0.021
803.67	0.021
803.84	0.021
804.02	0.021
804.20	0.021
804.38	0.021
804.55	0.020
804.73	0.020
804.91	0.020
805.08	0.020
805.26	0.020
805.44	0.020
805.61	0.021
805.79	0.021
805.97	0.021
806.15	0.020
806.32	0.020
806.50	0.020
806.68	0.020
806.85	0.020
807.03	0.020
807.21	0.020
807.38	0.020
807.56	0.020
807.74	0.020
807.91	0.020
808.09	0.021
808.27	0.020
808.44	0.020
808.62	0.020
808.80	0.021
808.97	0.021
809.15	0.021
809.33	0.020
809.50	0.020
809.68	0.020
809.86	0.020
810.03	0.020
810.21	0.020
810.39	0.021
810.56	0.021
810.74	0.021
810.91	0.021
811.09	0.020
811.27	0.020
811.44	0.020
811.62	0.020
811.80	0.020
811.97	0.019
812.15	0.020
812.33	0.020
812.50	0.020
812.68	0.020
812.85	0.021
813.03	0.021
813.21	0.021
813.38	0.021
813.56	0.021
813.74	0.022
813.91	0.021
814.09	0.021
814.26	0.021
814.44	0.021
814.62	0.020
814.79	0.020
814.97	0.020
815.14	0.020
815.32	0.020
815.50	0.020
815.67	0.020
815.85	0.021
816.02	0.021
816.20	0.021
816.38	0.021
816.55	0.021
816.73	0.021
816.90	0.021
817.08	0.020
817.26	0.020
817.43	0.020
817.61	0.020
817.78	0.021
817.96	0.020
818.13	0.020
818.31	0.020
818.49	0.020
818.66	0.020
818.84	0.020
819.01	0.020
819.19	0.020
819.36	0.020
819.54	0.020
819.71	0.020
819.89	0.019
820.07	0.020
820.24	0.020
820.42	0.020
820.59	0.020
820.77	0.020
820.94	0.021
821.12	0.021
821.29	0.020
821.47	0.020
821.64	0.021
821.82	0.021
822.00	0.021
822.17	0.021
822.35	0.021
822.52	0.020
822.70	0.021
822.87	0.020
823.05	0.020
823.22	0.020
823.40	0.020
823.57	0.020
823.75	0.019
823.92	0.019
824.10	0.019
824.27	0.020
824.45	0.020
824.62	0.020
824.80	0.019
824.97	0.020
825.15	0.020
825.32	0.021
825.50	0.021
825.67	0.021
825.85	0.021
826.02	0.021
826.20	0.021
826.37	0.021
826.55	0.022
826.72	0.023
826.90	0.022
827.07	0.022
827.25	0.022
827.42	0.021
827.60	0.021
827.77	0.021
827.95	0.021
828.12	0.021
828.30	0.021
828.47	0.020
828.65	0.019
828.82	0.020
829.00	0.020
829.17	0.020
829.34	0.021
829.52	0.021
829.69	0.022
829.87	0.021
830.04	0.021
830.22	0.020
830.39	0.021
830.57	0.023
830.74	0.023
830.92	0.023
831.09	0.023
831.26	0.023
831.44	0.023
831.61	0.023
831.79	0.024
831.96	0.024
832.14	0.023
832.31	0.023
832.49	0.022
832.66	0.021
832.83	0.022
833.01	0.021
833.18	0.021
833.36	0.019
833.53	0.019
833.70	0.018
833.88	0.019
834.05	0.018
834.23	0.017
834.40	0.017
834.58	0.016
834.75	0.015
834.92	0.016
835.10	0.014
835.27	0.014
835.45	0.015
835.62	0.015
835.79	0.013
835.97	0.013
836.14	0.013
836.32	0.013
836.49	0.014
836.66	0.012
836.84	0.011
837.01	0.012
837.18	0.012
837.36	0.012
837.53	0.013
837.71	0.013
837.88	0.014
838.05	0.012
838.23	0.013
838.40	0.013
838.58	0.015
838.75	0.016
838.92	0.016
839.10	0.015
839.27	0.015
839.44	0.015
839.62	0.015
839.79	0.016
839.96	0.021
840.14	0.021
840.31	0.021
840.48	0.019
840.66	0.022
840.83	0.022
841.01	0.022
841.18	0.023
841.35	0.022
841.53	0.021
841.70	0.020
841.87	0.018
842.05	0.016
842.22	0.016
842.39	0.017
842.57	0.015
842.74	0.016
842.91	0.018
843.09	0.017
843.26	0.019
843.43	0.020
843.60	0.019
843.78	0.019
843.95	0.021
844.12	0.021
844.30	0.022
844.47	0.019
844.64	0.019
844.82	0.018
844.99	0.018
845.16	0.017
845.34	0.016
845.51	0.017
845.68	0.018
845.85	0.016
846.03	0.015
846.20	0.015
846.37	0.016
846.55	0.016
846.72	0.018
846.89	0.017
847.06	0.016
847.24	0.017
847.41	0.017
847.58	0.015
847.76	0.017
847.93	0.019
848.10	0.018
848.27	0.018
848.45	0.019
848.62	0.018
848.79	0.017
848.97	0.018
849.14	0.016
849.31	0.016
849.48	0.017
849.66	0.017
849.83	0.018
850.00	0.018
850.17	0.016
850.35	0.013
850.52	0.011
850.69	0.013
850.86	0.014
851.04	0.015
851.21	0.016
851.38	0.015
851.55	0.011
851.72	0.009
851.90	0.010
852.07	0.012
852.24	0.012
852.41	0.013
852.59	0.013
852.76	0.013
852.93	0.013
853.10	0.012
853.28	0.015
853.45	0.015
853.62	0.018
853.79	0.016
853.96	0.016
854.14	0.018
854.31	0.018
854.48	0.017
854.65	0.018
854.82	0.021
855.00	0.022
855.17	0.020
855.34	0.023
855.51	0.022
855.68	0.022
855.86	0.021
856.03	0.019
856.20	0.021
856.37	0.016
856.54	0.017
856.72	0.013
856.89	0.013
857.06	0.012
857.23	0.013
857.40	0.016
857.57	0.016
857.75	0.018
857.92	0.020
858.09	0.018
858.26	0.023
858.43	0.020
858.60	0.023
858.78	0.022
858.95	0.024
859.12	0.025
859.29	0.020
859.46	0.017
859.63	0.020
859.81	0.019
859.98	0.022
860.15	0.022
860.32	0.024
860.49	0.020
860.66	0.020
860.83	0.020
861.01	0.017
861.18	0.020
861.35	0.021
861.52	0.018
861.69	0.014
861.86	0.013
862.03	0.015
862.21	0.016
862.38	0.020
862.55	0.020
862.72	0.023
862.89	0.025
863.06	0.025
863.23	0.027
863.40	0.028
863.58	0.029
863.75	0.030
863.92	0.028
864.09	0.027
864.26	0.024
864.43	0.024
864.60	0.024
864.77	0.020
864.94	0.024
865.11	0.022
865.29	0.023
865.46	0.026
865.63	0.026
865.80	0.025
865.97	0.025
866.14	0.027
866.31	0.027
866.48	0.022
866.65	0.027
866.82	0.025
866.99	0.022
867.16	0.018
867.34	0.015
867.51	0.013
867.68	0.012
867.85	0.011
868.02	0.008
868.19	0.009
868.36	0.008
868.53	0.003
868.70	0.005
868.87	0.005
869.04	0.008
869.21	0.012
869.38	0.011
869.55	0.012
869.72	0.013
869.89	0.015
870.06	0.015
870.24	0.018
870.41	0.021
870.58	0.018
870.75	0.022
870.92	0.027
871.09	0.026
871.26	0.030
871.43	0.035
871.60	0.031
871.77	0.028
871.94	0.030
872.11	0.030
872.28	0.027
872.45	0.028
872.62	0.023
872.79	0.018
872.96	0.020
873.13	0.015
873.30	0.010
873.47	0.012
873.64	0.015
873.81	0.013
873.98	0.013
874.15	0.015
874.32	0.011
874.49	0.017
874.66	0.018
874.83	0.020
875.00	0.021
875.17	0.021
875.34	0.024
875.51	0.025
875.68	0.023
875.85	0.021
876.02	0.025
876.19	0.027
876.36	0.024
876.53	0.024
876.70	0.021
876.87	0.023
877.04	0.026
877.21	0.032
877.38	0.030
877.55	0.033
877.72	0.039
877.89	0.037
878.06	0.033
878.23	0.036
878.39	0.033
878.56	0.036
878.73	0.036
878.90	0.030
879.07	0.020
879.24	0.019
879.41	0.019
879.58	0.014
879.75	0.010
879.92	0.016
880.09	0.015
880.26	0.020
880.43	0.019
880.60	0.014
880.77	0.022
880.94	0.024
881.11	0.027
881.27	0.030
881.44	0.031
881.61	0.034
881.78	0.027
881.95	0.032
882.12	0.028
882.29	0.026
882.46	0.026
882.63	0.032
882.80	0.040
882.97	0.038
883.14	0.030
883.30	0.028
883.47	0.027
883.64	0.026
883.81	0.023
883.98	0.020
884.15	0.020
884.32	0.027
884.49	0.022
884.66	0.016
884.82	0.015
884.99	0.019
885.16	0.021
885.33	0.013
885.50	0.022
885.67	0.021
885.84	0.030
886.01	0.027
886.17	0.018
886.34	0.023
886.51	0.031
886.68	0.039
886.85	0.043
887.02	0.041
887.19	0.049
887.36	0.043
887.52	0.041
887.69	0.047
887.86	0.055
888.03	0.052
888.20	0.047
888.37	0.043
888.54	0.040
888.70	0.033
888.87	0.038
889.04	0.038
889.21	0.035
889.38	0.043
889.55	0.030
889.71	0.080
889.88	0.005
890.05	-0.060
890.22	0.072
890.39	-0.009
>>>>>End Processed Spectral Data<<<<<
