SpectraSuite Data File
++++++++++++++++++++++++++++++++++++
Date: Mon Jun 15 09:21:22 PDT 2015
User: introlabs
Dark Spectrum Present: Yes
Reference Spectrum Present: Yes
Number of Sampled Component Spectra: 1
Spectrometers: USB4H08886
Integration Time (usec): 44366 (USB4H08886)
Spectra Averaged: 20 (USB4H08886)
Boxcar Smoothing: 5 (USB4H08886)
Correct for Electrical Dark: Yes (USB4H08886)
Strobe/Lamp Enabled: No (USB4H08886)
Correct for Detector Non-linearity: Yes (USB4H08886)
Correct for Stray Light: Yes (USB4H08886)
Number of Pixels in Processed Spectrum: 3648
>>>>>Begin Processed Spectral Data<<<<<
178.14	-0.000
178.36	-0.000
178.57	-0.000
178.79	1.232
179.01	-1.327
179.22	0.823
179.44	-0.117
179.65	-0.000
179.87	-0.000
180.08	-0.000
180.30	0.312
180.52	-0.000
180.73	0.799
180.95	0.235
181.16	0.121
181.38	0.061
181.59	0.046
181.81	0.008
182.03	0.001
182.24	0.009
182.46	0.012
182.67	0.015
182.89	0.011
183.10	0.010
183.32	0.002
183.54	-0.001
183.75	0.003
183.97	0.007
184.18	0.013
184.40	0.013
184.61	0.018
184.83	0.017
185.04	0.016
185.26	0.016
185.48	0.008
185.69	0.015
185.91	0.018
186.12	0.008
186.34	0.015
186.55	0.009
186.77	0.008
186.98	-0.001
187.20	-0.004
187.42	-0.003
187.63	-0.002
187.85	0.007
188.06	0.002
188.28	-0.002
188.49	-0.004
188.71	-0.020
188.92	-0.016
189.14	-0.025
189.36	-0.024
189.57	-0.022
189.79	-0.032
190.00	-0.031
190.22	-0.028
190.43	-0.021
190.65	-0.028
190.86	-0.014
191.08	-0.012
191.29	-0.017
191.51	-0.009
191.72	-0.009
191.94	-0.012
192.16	-0.001
192.37	-0.007
192.59	-0.008
192.80	-0.011
193.02	0.002
193.23	0.000
193.45	0.002
193.66	0.007
193.88	0.011
194.09	0.012
194.31	0.015
194.52	0.014
194.74	0.008
194.95	-0.003
195.17	-0.008
195.38	-0.014
195.60	-0.028
195.81	-0.018
196.03	-0.024
196.25	-0.018
196.46	-0.025
196.68	-0.031
196.89	-0.025
197.11	-0.015
197.32	-0.006
197.54	-0.005
197.75	0.001
197.97	0.010
198.18	-0.002
198.40	0.007
198.61	-0.003
198.83	-0.002
199.04	0.000
199.26	-0.007
199.47	-0.012
199.69	-0.007
199.90	0.002
200.12	0.000
200.33	-0.004
200.55	-0.000
200.76	-0.010
200.98	-0.014
201.19	-0.011
201.41	-0.012
201.62	-0.008
201.84	-0.007
202.05	-0.009
202.27	-0.016
202.48	-0.019
202.70	-0.008
202.91	-0.008
203.13	-0.008
203.34	-0.001
203.56	-0.006
203.77	0.000
203.99	-0.008
204.20	-0.006
204.42	-0.012
204.63	-0.008
204.85	-0.008
205.06	-0.013
205.28	-0.012
205.49	-0.005
205.71	-0.001
205.92	0.004
206.14	0.000
206.35	0.009
206.56	0.017
206.78	0.021
206.99	0.018
207.21	0.018
207.42	0.014
207.64	0.010
207.85	0.001
208.07	-0.005
208.28	-0.002
208.50	0.004
208.71	0.004
208.93	0.002
209.14	0.006
209.36	0.006
209.57	0.012
209.79	0.017
210.00	0.018
210.22	0.031
210.43	0.031
210.64	0.028
210.86	0.021
211.07	0.016
211.29	0.018
211.50	0.015
211.72	0.007
211.93	-0.002
212.15	-0.007
212.36	-0.007
212.58	-0.012
212.79	-0.011
213.01	-0.015
213.22	-0.011
213.43	-0.010
213.65	-0.013
213.86	-0.016
214.08	-0.008
214.29	-0.005
214.51	-0.005
214.72	-0.005
214.94	-0.005
215.15	0.002
215.36	0.002
215.58	-0.003
215.79	-0.007
216.01	-0.004
216.22	0.001
216.44	-0.003
216.65	-0.004
216.87	0.004
217.08	0.005
217.29	0.009
217.51	0.007
217.72	0.008
217.94	0.012
218.15	0.017
218.37	0.011
218.58	0.006
218.80	0.011
219.01	0.008
219.22	0.002
219.44	-0.001
219.65	-0.003
219.87	-0.005
220.08	-0.006
220.30	-0.013
220.51	-0.017
220.72	-0.015
220.94	-0.021
221.15	-0.025
221.37	-0.025
221.58	-0.027
221.79	-0.020
222.01	-0.027
222.22	-0.031
222.44	-0.030
222.65	-0.028
222.87	-0.027
223.08	-0.029
223.29	-0.026
223.51	-0.027
223.72	-0.028
223.94	-0.028
224.15	-0.034
224.36	-0.030
224.58	-0.033
224.79	-0.026
225.01	-0.027
225.22	-0.028
225.44	-0.029
225.65	-0.026
225.86	-0.020
226.08	-0.020
226.29	-0.019
226.51	-0.016
226.72	-0.015
226.93	-0.013
227.15	-0.024
227.36	-0.027
227.58	-0.026
227.79	-0.023
228.00	-0.026
228.22	-0.035
228.43	-0.038
228.65	-0.040
228.86	-0.043
229.07	-0.049
229.29	-0.049
229.50	-0.048
229.72	-0.047
229.93	-0.048
230.14	-0.052
230.36	-0.051
230.57	-0.054
230.78	-0.053
231.00	-0.058
231.21	-0.062
231.43	-0.059
231.64	-0.057
231.85	-0.056
232.07	-0.057
232.28	-0.056
232.50	-0.058
232.71	-0.061
232.92	-0.061
233.14	-0.062
233.35	-0.060
233.56	-0.059
233.78	-0.061
233.99	-0.066
234.21	-0.067
234.42	-0.067
234.63	-0.070
234.85	-0.069
235.06	-0.070
235.27	-0.067
235.49	-0.065
235.70	-0.066
235.91	-0.066
236.13	-0.065
236.34	-0.065
236.56	-0.065
236.77	-0.064
236.98	-0.062
237.20	-0.062
237.41	-0.061
237.62	-0.061
237.84	-0.062
238.05	-0.061
238.26	-0.061
238.48	-0.061
238.69	-0.059
238.91	-0.059
239.12	-0.059
239.33	-0.059
239.55	-0.058
239.76	-0.058
239.97	-0.056
240.19	-0.055
240.40	-0.055
240.61	-0.054
240.83	-0.053
241.04	-0.052
241.25	-0.052
241.47	-0.051
241.68	-0.049
241.89	-0.049
242.11	-0.049
242.32	-0.049
242.53	-0.048
242.75	-0.047
242.96	-0.046
243.17	-0.046
243.39	-0.045
243.60	-0.045
243.81	-0.045
244.03	-0.045
244.24	-0.044
244.45	-0.043
244.67	-0.043
244.88	-0.042
245.09	-0.041
245.31	-0.041
245.52	-0.040
245.73	-0.040
245.95	-0.039
246.16	-0.038
246.37	-0.038
246.59	-0.037
246.80	-0.037
247.01	-0.036
247.23	-0.037
247.44	-0.037
247.65	-0.037
247.87	-0.037
248.08	-0.036
248.29	-0.036
248.51	-0.036
248.72	-0.035
248.93	-0.035
249.15	-0.035
249.36	-0.035
249.57	-0.034
249.78	-0.034
250.00	-0.034
250.21	-0.034
250.42	-0.033
250.64	-0.033
250.85	-0.032
251.06	-0.032
251.28	-0.031
251.49	-0.031
251.70	-0.031
251.92	-0.030
252.13	-0.029
252.34	-0.029
252.55	-0.029
252.77	-0.029
252.98	-0.029
253.19	-0.029
253.41	-0.028
253.62	-0.028
253.83	-0.027
254.05	-0.027
254.26	-0.027
254.47	-0.028
254.68	-0.028
254.90	-0.027
255.11	-0.027
255.32	-0.027
255.54	-0.027
255.75	-0.027
255.96	-0.027
256.17	-0.027
256.39	-0.026
256.60	-0.026
256.81	-0.026
257.03	-0.026
257.24	-0.025
257.45	-0.026
257.66	-0.026
257.88	-0.026
258.09	-0.026
258.30	-0.026
258.51	-0.026
258.73	-0.026
258.94	-0.027
259.15	-0.027
259.37	-0.027
259.58	-0.027
259.79	-0.027
260.00	-0.027
260.22	-0.027
260.43	-0.027
260.64	-0.027
260.85	-0.027
261.07	-0.027
261.28	-0.027
261.49	-0.027
261.71	-0.027
261.92	-0.027
262.13	-0.028
262.34	-0.028
262.56	-0.028
262.77	-0.028
262.98	-0.028
263.19	-0.028
263.41	-0.029
263.62	-0.029
263.83	-0.029
264.04	-0.029
264.26	-0.029
264.47	-0.029
264.68	-0.029
264.89	-0.029
265.11	-0.030
265.32	-0.029
265.53	-0.029
265.74	-0.029
265.96	-0.030
266.17	-0.029
266.38	-0.030
266.59	-0.030
266.81	-0.030
267.02	-0.030
267.23	-0.031
267.44	-0.031
267.65	-0.032
267.87	-0.032
268.08	-0.032
268.29	-0.032
268.50	-0.033
268.72	-0.033
268.93	-0.032
269.14	-0.033
269.35	-0.033
269.57	-0.033
269.78	-0.033
269.99	-0.034
270.20	-0.034
270.41	-0.034
270.63	-0.034
270.84	-0.035
271.05	-0.035
271.26	-0.035
271.48	-0.035
271.69	-0.036
271.90	-0.036
272.11	-0.036
272.32	-0.036
272.54	-0.037
272.75	-0.037
272.96	-0.037
273.17	-0.037
273.39	-0.037
273.60	-0.037
273.81	-0.038
274.02	-0.038
274.23	-0.038
274.45	-0.038
274.66	-0.038
274.87	-0.038
275.08	-0.038
275.29	-0.038
275.51	-0.038
275.72	-0.038
275.93	-0.038
276.14	-0.038
276.35	-0.038
276.57	-0.038
276.78	-0.038
276.99	-0.038
277.20	-0.038
277.41	-0.038
277.63	-0.038
277.84	-0.038
278.05	-0.037
278.26	-0.037
278.47	-0.037
278.69	-0.037
278.90	-0.036
279.11	-0.036
279.32	-0.036
279.53	-0.036
279.74	-0.036
279.96	-0.036
280.17	-0.035
280.38	-0.035
280.59	-0.035
280.80	-0.035
281.02	-0.035
281.23	-0.035
281.44	-0.034
281.65	-0.034
281.86	-0.034
282.07	-0.034
282.29	-0.033
282.50	-0.033
282.71	-0.033
282.92	-0.033
283.13	-0.033
283.35	-0.033
283.56	-0.033
283.77	-0.032
283.98	-0.032
284.19	-0.031
284.40	-0.031
284.62	-0.031
284.83	-0.030
285.04	-0.030
285.25	-0.029
285.46	-0.028
285.67	-0.028
285.88	-0.027
286.10	-0.027
286.31	-0.026
286.52	-0.025
286.73	-0.025
286.94	-0.024
287.15	-0.023
287.37	-0.023
287.58	-0.022
287.79	-0.022
288.00	-0.021
288.21	-0.021
288.42	-0.020
288.63	-0.019
288.85	-0.019
289.06	-0.018
289.27	-0.018
289.48	-0.017
289.69	-0.017
289.90	-0.016
290.11	-0.016
290.33	-0.015
290.54	-0.015
290.75	-0.015
290.96	-0.014
291.17	-0.014
291.38	-0.013
291.59	-0.013
291.81	-0.013
292.02	-0.012
292.23	-0.012
292.44	-0.012
292.65	-0.012
292.86	-0.011
293.07	-0.011
293.28	-0.010
293.50	-0.010
293.71	-0.010
293.92	-0.010
294.13	-0.009
294.34	-0.009
294.55	-0.009
294.76	-0.009
294.97	-0.009
295.19	-0.009
295.40	-0.009
295.61	-0.009
295.82	-0.009
296.03	-0.009
296.24	-0.008
296.45	-0.008
296.66	-0.008
296.87	-0.008
297.09	-0.008
297.30	-0.008
297.51	-0.008
297.72	-0.008
297.93	-0.008
298.14	-0.007
298.35	-0.007
298.56	-0.007
298.77	-0.007
298.99	-0.007
299.20	-0.007
299.41	-0.007
299.62	-0.007
299.83	-0.007
300.04	-0.007
300.25	-0.007
300.46	-0.007
300.67	-0.007
300.88	-0.007
301.10	-0.007
301.31	-0.007
301.52	-0.007
301.73	-0.007
301.94	-0.007
302.15	-0.007
302.36	-0.006
302.57	-0.006
302.78	-0.006
302.99	-0.006
303.20	-0.007
303.41	-0.006
303.63	-0.006
303.84	-0.006
304.05	-0.006
304.26	-0.006
304.47	-0.006
304.68	-0.006
304.89	-0.006
305.10	-0.006
305.31	-0.006
305.52	-0.006
305.73	-0.005
305.94	-0.005
306.15	-0.005
306.37	-0.005
306.58	-0.005
306.79	-0.005
307.00	-0.005
307.21	-0.005
307.42	-0.005
307.63	-0.005
307.84	-0.005
308.05	-0.005
308.26	-0.005
308.47	-0.005
308.68	-0.005
308.89	-0.005
309.10	-0.005
309.31	-0.005
309.52	-0.005
309.73	-0.005
309.95	-0.005
310.16	-0.005
310.37	-0.005
310.58	-0.005
310.79	-0.005
311.00	-0.005
311.21	-0.005
311.42	-0.005
311.63	-0.004
311.84	-0.004
312.05	-0.004
312.26	-0.004
312.47	-0.004
312.68	-0.004
312.89	-0.004
313.10	-0.004
313.31	-0.004
313.52	-0.004
313.73	-0.004
313.94	-0.003
314.15	-0.003
314.36	-0.003
314.57	-0.003
314.78	-0.003
314.99	-0.003
315.21	-0.003
315.42	-0.003
315.63	-0.003
315.84	-0.003
316.05	-0.003
316.26	-0.003
316.47	-0.003
316.68	-0.003
316.89	-0.003
317.10	-0.003
317.31	-0.003
317.52	-0.003
317.73	-0.003
317.94	-0.003
318.15	-0.003
318.36	-0.003
318.57	-0.003
318.78	-0.003
318.99	-0.003
319.20	-0.003
319.41	-0.002
319.62	-0.002
319.83	-0.002
320.04	-0.002
320.25	-0.002
320.46	-0.003
320.67	-0.003
320.88	-0.003
321.09	-0.003
321.30	-0.003
321.51	-0.003
321.72	-0.003
321.93	-0.003
322.14	-0.003
322.35	-0.003
322.56	-0.003
322.77	-0.003
322.98	-0.003
323.19	-0.003
323.40	-0.003
323.61	-0.002
323.82	-0.002
324.03	-0.002
324.24	-0.002
324.45	-0.002
324.66	-0.002
324.87	-0.002
325.08	-0.002
325.29	-0.002
325.50	-0.002
325.71	-0.002
325.92	-0.002
326.13	-0.002
326.34	-0.002
326.55	-0.002
326.76	-0.003
326.97	-0.002
327.18	-0.002
327.39	-0.002
327.60	-0.002
327.80	-0.002
328.01	-0.002
328.22	-0.002
328.43	-0.002
328.64	-0.002
328.85	-0.002
329.06	-0.002
329.27	-0.002
329.48	-0.002
329.69	-0.002
329.90	-0.002
330.11	-0.002
330.32	-0.002
330.53	-0.002
330.74	-0.002
330.95	-0.002
331.16	-0.002
331.37	-0.002
331.58	-0.002
331.79	-0.002
332.00	-0.002
332.21	-0.002
332.42	-0.002
332.63	-0.002
332.83	-0.002
333.04	-0.002
333.25	-0.002
333.46	-0.002
333.67	-0.002
333.88	-0.002
334.09	-0.002
334.30	-0.002
334.51	-0.002
334.72	-0.002
334.93	-0.002
335.14	-0.002
335.35	-0.002
335.56	-0.002
335.77	-0.002
335.98	-0.002
336.18	-0.002
336.39	-0.002
336.60	-0.002
336.81	-0.002
337.02	-0.002
337.23	-0.002
337.44	-0.002
337.65	-0.002
337.86	-0.002
338.07	-0.002
338.28	-0.002
338.49	-0.002
338.70	-0.003
338.91	-0.003
339.11	-0.003
339.32	-0.003
339.53	-0.003
339.74	-0.003
339.95	-0.003
340.16	-0.003
340.37	-0.003
340.58	-0.003
340.79	-0.003
341.00	-0.003
341.21	-0.003
341.41	-0.003
341.62	-0.003
341.83	-0.003
342.04	-0.003
342.25	-0.003
342.46	-0.003
342.67	-0.003
342.88	-0.003
343.09	-0.003
343.30	-0.003
343.50	-0.003
343.71	-0.003
343.92	-0.003
344.13	-0.003
344.34	-0.003
344.55	-0.003
344.76	-0.003
344.97	-0.003
345.18	-0.003
345.38	-0.004
345.59	-0.004
345.80	-0.004
346.01	-0.003
346.22	-0.004
346.43	-0.003
346.64	-0.004
346.85	-0.003
347.06	-0.003
347.26	-0.003
347.47	-0.003
347.68	-0.003
347.89	-0.004
348.10	-0.004
348.31	-0.004
348.52	-0.004
348.73	-0.004
348.93	-0.004
349.14	-0.004
349.35	-0.004
349.56	-0.004
349.77	-0.004
349.98	-0.004
350.19	-0.004
350.39	-0.004
350.60	-0.004
350.81	-0.004
351.02	-0.004
351.23	-0.004
351.44	-0.004
351.65	-0.004
351.86	-0.004
352.06	-0.004
352.27	-0.004
352.48	-0.004
352.69	-0.004
352.90	-0.004
353.11	-0.004
353.31	-0.004
353.52	-0.004
353.73	-0.004
353.94	-0.004
354.15	-0.004
354.36	-0.004
354.57	-0.004
354.77	-0.004
354.98	-0.004
355.19	-0.004
355.40	-0.004
355.61	-0.004
355.82	-0.004
356.02	-0.004
356.23	-0.004
356.44	-0.004
356.65	-0.004
356.86	-0.004
357.07	-0.004
357.27	-0.004
357.48	-0.004
357.69	-0.004
357.90	-0.004
358.11	-0.004
358.32	-0.004
358.52	-0.004
358.73	-0.004
358.94	-0.004
359.15	-0.004
359.36	-0.004
359.56	-0.004
359.77	-0.004
359.98	-0.004
360.19	-0.004
360.40	-0.004
360.61	-0.004
360.81	-0.004
361.02	-0.004
361.23	-0.004
361.44	-0.004
361.65	-0.004
361.85	-0.004
362.06	-0.004
362.27	-0.004
362.48	-0.004
362.69	-0.004
362.89	-0.004
363.10	-0.004
363.31	-0.004
363.52	-0.004
363.73	-0.004
363.93	-0.004
364.14	-0.004
364.35	-0.004
364.56	-0.004
364.77	-0.004
364.97	-0.004
365.18	-0.004
365.39	-0.004
365.60	-0.004
365.81	-0.004
366.01	-0.004
366.22	-0.004
366.43	-0.004
366.64	-0.004
366.84	-0.004
367.05	-0.004
367.26	-0.004
367.47	-0.004
367.68	-0.004
367.88	-0.004
368.09	-0.004
368.30	-0.004
368.51	-0.004
368.71	-0.003
368.92	-0.003
369.13	-0.003
369.34	-0.003
369.55	-0.003
369.75	-0.003
369.96	-0.003
370.17	-0.003
370.38	-0.003
370.58	-0.004
370.79	-0.004
371.00	-0.004
371.21	-0.003
371.41	-0.003
371.62	-0.004
371.83	-0.004
372.04	-0.003
372.24	-0.003
372.45	-0.004
372.66	-0.003
372.87	-0.003
373.07	-0.003
373.28	-0.003
373.49	-0.003
373.70	-0.004
373.90	-0.003
374.11	-0.003
374.32	-0.004
374.53	-0.004
374.73	-0.004
374.94	-0.004
375.15	-0.004
375.36	-0.004
375.56	-0.004
375.77	-0.004
375.98	-0.004
376.19	-0.004
376.39	-0.004
376.60	-0.004
376.81	-0.004
377.02	-0.004
377.22	-0.004
377.43	-0.004
377.64	-0.004
377.84	-0.004
378.05	-0.004
378.26	-0.004
378.47	-0.004
378.67	-0.004
378.88	-0.004
379.09	-0.004
379.30	-0.004
379.50	-0.004
379.71	-0.004
379.92	-0.004
380.12	-0.004
380.33	-0.004
380.54	-0.004
380.75	-0.004
380.95	-0.004
381.16	-0.004
381.37	-0.004
381.57	-0.004
381.78	-0.004
381.99	-0.004
382.20	-0.004
382.40	-0.004
382.61	-0.004
382.82	-0.004
383.02	-0.004
383.23	-0.004
383.44	-0.004
383.64	-0.004
383.85	-0.004
384.06	-0.004
384.27	-0.004
384.47	-0.004
384.68	-0.004
384.89	-0.004
385.09	-0.004
385.30	-0.004
385.51	-0.004
385.71	-0.004
385.92	-0.004
386.13	-0.004
386.33	-0.004
386.54	-0.004
386.75	-0.004
386.95	-0.004
387.16	-0.004
387.37	-0.004
387.58	-0.004
387.78	-0.004
387.99	-0.004
388.20	-0.004
388.40	-0.004
388.61	-0.004
388.82	-0.004
389.02	-0.004
389.23	-0.004
389.44	-0.004
389.64	-0.004
389.85	-0.004
390.06	-0.004
390.26	-0.004
390.47	-0.004
390.68	-0.004
390.88	-0.004
391.09	-0.004
391.30	-0.004
391.50	-0.004
391.71	-0.004
391.92	-0.004
392.12	-0.004
392.33	-0.004
392.53	-0.004
392.74	-0.004
392.95	-0.004
393.15	-0.004
393.36	-0.004
393.57	-0.004
393.77	-0.004
393.98	-0.004
394.19	-0.004
394.39	-0.004
394.60	-0.003
394.81	-0.003
395.01	-0.004
395.22	-0.004
395.43	-0.004
395.63	-0.004
395.84	-0.004
396.04	-0.004
396.25	-0.004
396.46	-0.004
396.66	-0.004
396.87	-0.004
397.08	-0.004
397.28	-0.004
397.49	-0.004
397.69	-0.004
397.90	-0.004
398.11	-0.004
398.31	-0.004
398.52	-0.004
398.73	-0.004
398.93	-0.004
399.14	-0.004
399.34	-0.004
399.55	-0.004
399.76	-0.004
399.96	-0.004
400.17	-0.004
400.37	-0.004
400.58	-0.004
400.79	-0.004
400.99	-0.004
401.20	-0.004
401.41	-0.004
401.61	-0.004
401.82	-0.004
402.02	-0.004
402.23	-0.004
402.44	-0.004
402.64	-0.004
402.85	-0.004
403.05	-0.004
403.26	-0.004
403.47	-0.004
403.67	-0.004
403.88	-0.004
404.08	-0.004
404.29	-0.004
404.50	-0.004
404.70	-0.004
404.91	-0.004
405.11	-0.004
405.32	-0.004
405.52	-0.004
405.73	-0.004
405.94	-0.004
406.14	-0.004
406.35	-0.004
406.55	-0.004
406.76	-0.004
406.97	-0.005
407.17	-0.005
407.38	-0.005
407.58	-0.005
407.79	-0.005
407.99	-0.005
408.20	-0.005
408.41	-0.005
408.61	-0.005
408.82	-0.005
409.02	-0.004
409.23	-0.004
409.43	-0.004
409.64	-0.004
409.84	-0.004
410.05	-0.004
410.26	-0.004
410.46	-0.004
410.67	-0.004
410.87	-0.004
411.08	-0.004
411.28	-0.004
411.49	-0.004
411.69	-0.004
411.90	-0.004
412.11	-0.004
412.31	-0.004
412.52	-0.004
412.72	-0.004
412.93	-0.005
413.13	-0.004
413.34	-0.004
413.54	-0.004
413.75	-0.004
413.95	-0.004
414.16	-0.005
414.37	-0.004
414.57	-0.004
414.78	-0.004
414.98	-0.004
415.19	-0.004
415.39	-0.004
415.60	-0.004
415.80	-0.004
416.01	-0.004
416.21	-0.004
416.42	-0.004
416.62	-0.004
416.83	-0.005
417.03	-0.005
417.24	-0.005
417.44	-0.005
417.65	-0.005
417.86	-0.005
418.06	-0.005
418.27	-0.005
418.47	-0.005
418.68	-0.005
418.88	-0.005
419.09	-0.005
419.29	-0.005
419.50	-0.005
419.70	-0.005
419.91	-0.005
420.11	-0.005
420.32	-0.005
420.52	-0.005
420.73	-0.005
420.93	-0.005
421.14	-0.005
421.34	-0.005
421.55	-0.005
421.75	-0.005
421.96	-0.005
422.16	-0.005
422.37	-0.005
422.57	-0.005
422.78	-0.005
422.98	-0.005
423.19	-0.005
423.39	-0.005
423.60	-0.005
423.80	-0.005
424.01	-0.004
424.21	-0.004
424.42	-0.004
424.62	-0.004
424.83	-0.004
425.03	-0.004
425.23	-0.004
425.44	-0.004
425.64	-0.004
425.85	-0.004
426.05	-0.004
426.26	-0.004
426.46	-0.004
426.67	-0.004
426.87	-0.005
427.08	-0.005
427.28	-0.005
427.49	-0.005
427.69	-0.005
427.90	-0.005
428.10	-0.005
428.31	-0.005
428.51	-0.005
428.71	-0.005
428.92	-0.005
429.12	-0.005
429.33	-0.005
429.53	-0.005
429.74	-0.005
429.94	-0.005
430.15	-0.005
430.35	-0.005
430.56	-0.004
430.76	-0.004
430.96	-0.004
431.17	-0.004
431.37	-0.004
431.58	-0.004
431.78	-0.004
431.99	-0.004
432.19	-0.004
432.40	-0.004
432.60	-0.004
432.80	-0.004
433.01	-0.004
433.21	-0.004
433.42	-0.004
433.62	-0.004
433.83	-0.004
434.03	-0.004
434.23	-0.004
434.44	-0.004
434.64	-0.004
434.85	-0.004
435.05	-0.004
435.26	-0.004
435.46	-0.004
435.66	-0.004
435.87	-0.004
436.07	-0.005
436.28	-0.005
436.48	-0.005
436.69	-0.005
436.89	-0.005
437.09	-0.005
437.30	-0.005
437.50	-0.005
437.71	-0.005
437.91	-0.005
438.11	-0.005
438.32	-0.005
438.52	-0.004
438.73	-0.005
438.93	-0.004
439.13	-0.004
439.34	-0.004
439.54	-0.004
439.75	-0.004
439.95	-0.005
440.15	-0.005
440.36	-0.005
440.56	-0.005
440.77	-0.005
440.97	-0.005
441.17	-0.005
441.38	-0.005
441.58	-0.005
441.79	-0.005
441.99	-0.005
442.19	-0.005
442.40	-0.005
442.60	-0.005
442.81	-0.005
443.01	-0.005
443.21	-0.005
443.42	-0.005
443.62	-0.005
443.82	-0.005
444.03	-0.005
444.23	-0.005
444.44	-0.004
444.64	-0.005
444.84	-0.005
445.05	-0.005
445.25	-0.005
445.45	-0.005
445.66	-0.005
445.86	-0.005
446.06	-0.005
446.27	-0.005
446.47	-0.005
446.68	-0.005
446.88	-0.005
447.08	-0.005
447.29	-0.005
447.49	-0.005
447.69	-0.005
447.90	-0.005
448.10	-0.005
448.30	-0.005
448.51	-0.005
448.71	-0.005
448.91	-0.005
449.12	-0.004
449.32	-0.004
449.52	-0.004
449.73	-0.004
449.93	-0.004
450.14	-0.004
450.34	-0.004
450.54	-0.004
450.75	-0.004
450.95	-0.004
451.15	-0.004
451.36	-0.004
451.56	-0.004
451.76	-0.004
451.97	-0.005
452.17	-0.005
452.37	-0.005
452.58	-0.005
452.78	-0.004
452.98	-0.004
453.19	-0.005
453.39	-0.005
453.59	-0.005
453.79	-0.004
454.00	-0.004
454.20	-0.004
454.40	-0.004
454.61	-0.004
454.81	-0.004
455.01	-0.004
455.22	-0.004
455.42	-0.004
455.62	-0.004
455.83	-0.004
456.03	-0.004
456.23	-0.004
456.44	-0.004
456.64	-0.004
456.84	-0.004
457.04	-0.004
457.25	-0.004
457.45	-0.004
457.65	-0.004
457.86	-0.004
458.06	-0.004
458.26	-0.004
458.47	-0.004
458.67	-0.005
458.87	-0.005
459.07	-0.005
459.28	-0.005
459.48	-0.005
459.68	-0.005
459.89	-0.005
460.09	-0.005
460.29	-0.005
460.49	-0.005
460.70	-0.005
460.90	-0.004
461.10	-0.004
461.31	-0.004
461.51	-0.004
461.71	-0.004
461.91	-0.004
462.12	-0.004
462.32	-0.004
462.52	-0.004
462.72	-0.004
462.93	-0.004
463.13	-0.004
463.33	-0.004
463.53	-0.004
463.74	-0.005
463.94	-0.005
464.14	-0.005
464.35	-0.005
464.55	-0.005
464.75	-0.005
464.95	-0.005
465.16	-0.005
465.36	-0.005
465.56	-0.005
465.76	-0.005
465.97	-0.005
466.17	-0.005
466.37	-0.004
466.57	-0.004
466.78	-0.004
466.98	-0.004
467.18	-0.004
467.38	-0.004
467.59	-0.004
467.79	-0.004
467.99	-0.004
468.19	-0.004
468.39	-0.004
468.60	-0.004
468.80	-0.004
469.00	-0.004
469.20	-0.004
469.41	-0.004
469.61	-0.004
469.81	-0.004
470.01	-0.005
470.22	-0.005
470.42	-0.005
470.62	-0.005
470.82	-0.005
471.02	-0.005
471.23	-0.004
471.43	-0.005
471.63	-0.005
471.83	-0.005
472.04	-0.005
472.24	-0.005
472.44	-0.005
472.64	-0.005
472.84	-0.005
473.05	-0.005
473.25	-0.005
473.45	-0.005
473.65	-0.005
473.85	-0.005
474.06	-0.005
474.26	-0.005
474.46	-0.005
474.66	-0.005
474.86	-0.005
475.07	-0.005
475.27	-0.005
475.47	-0.004
475.67	-0.004
475.87	-0.004
476.08	-0.004
476.28	-0.004
476.48	-0.004
476.68	-0.004
476.88	-0.004
477.09	-0.004
477.29	-0.004
477.49	-0.004
477.69	-0.005
477.89	-0.005
478.09	-0.005
478.30	-0.005
478.50	-0.005
478.70	-0.005
478.90	-0.005
479.10	-0.005
479.31	-0.005
479.51	-0.005
479.71	-0.005
479.91	-0.005
480.11	-0.005
480.31	-0.005
480.52	-0.005
480.72	-0.005
480.92	-0.005
481.12	-0.005
481.32	-0.005
481.52	-0.004
481.72	-0.005
481.93	-0.005
482.13	-0.005
482.33	-0.005
482.53	-0.005
482.73	-0.005
482.93	-0.005
483.14	-0.005
483.34	-0.005
483.54	-0.005
483.74	-0.005
483.94	-0.005
484.14	-0.005
484.34	-0.005
484.55	-0.005
484.75	-0.005
484.95	-0.005
485.15	-0.005
485.35	-0.005
485.55	-0.005
485.75	-0.004
485.96	-0.004
486.16	-0.004
486.36	-0.004
486.56	-0.004
486.76	-0.004
486.96	-0.004
487.16	-0.004
487.36	-0.004
487.57	-0.004
487.77	-0.004
487.97	-0.004
488.17	-0.004
488.37	-0.004
488.57	-0.004
488.77	-0.004
488.97	-0.004
489.18	-0.004
489.38	-0.004
489.58	-0.004
489.78	-0.004
489.98	-0.004
490.18	-0.004
490.38	-0.004
490.58	-0.004
490.78	-0.004
490.98	-0.004
491.19	-0.004
491.39	-0.004
491.59	-0.004
491.79	-0.004
491.99	-0.004
492.19	-0.004
492.39	-0.004
492.59	-0.004
492.79	-0.004
492.99	-0.004
493.20	-0.004
493.40	-0.004
493.60	-0.004
493.80	-0.004
494.00	-0.004
494.20	-0.004
494.40	-0.004
494.60	-0.004
494.80	-0.004
495.00	-0.004
495.20	-0.004
495.40	-0.004
495.61	-0.004
495.81	-0.004
496.01	-0.004
496.21	-0.004
496.41	-0.004
496.61	-0.004
496.81	-0.004
497.01	-0.003
497.21	-0.003
497.41	-0.003
497.61	-0.003
497.81	-0.003
498.01	-0.003
498.21	-0.003
498.41	-0.003
498.61	-0.003
498.82	-0.003
499.02	-0.003
499.22	-0.003
499.42	-0.003
499.62	-0.003
499.82	-0.004
500.02	-0.004
500.22	-0.004
500.42	-0.004
500.62	-0.004
500.82	-0.004
501.02	-0.004
501.22	-0.004
501.42	-0.004
501.62	-0.004
501.82	-0.004
502.02	-0.004
502.22	-0.004
502.42	-0.004
502.62	-0.004
502.82	-0.004
503.02	-0.004
503.22	-0.004
503.42	-0.004
503.63	-0.003
503.83	-0.003
504.03	-0.003
504.23	-0.003
504.43	-0.003
504.63	-0.003
504.83	-0.003
505.03	-0.003
505.23	-0.003
505.43	-0.003
505.63	-0.003
505.83	-0.003
506.03	-0.003
506.23	-0.003
506.43	-0.003
506.63	-0.003
506.83	-0.003
507.03	-0.003
507.23	-0.003
507.43	-0.003
507.63	-0.003
507.83	-0.003
508.03	-0.003
508.23	-0.003
508.43	-0.003
508.63	-0.003
508.83	-0.003
509.03	-0.003
509.23	-0.003
509.43	-0.003
509.63	-0.003
509.83	-0.003
510.03	-0.003
510.23	-0.003
510.43	-0.003
510.63	-0.003
510.83	-0.003
511.03	-0.003
511.23	-0.003
511.43	-0.003
511.63	-0.003
511.83	-0.003
512.03	-0.003
512.22	-0.003
512.42	-0.003
512.62	-0.003
512.82	-0.003
513.02	-0.003
513.22	-0.003
513.42	-0.003
513.62	-0.003
513.82	-0.003
514.02	-0.003
514.22	-0.003
514.42	-0.003
514.62	-0.003
514.82	-0.003
515.02	-0.003
515.22	-0.003
515.42	-0.003
515.62	-0.003
515.82	-0.003
516.02	-0.003
516.22	-0.003
516.42	-0.003
516.62	-0.003
516.82	-0.003
517.01	-0.003
517.21	-0.003
517.41	-0.003
517.61	-0.003
517.81	-0.003
518.01	-0.003
518.21	-0.003
518.41	-0.003
518.61	-0.003
518.81	-0.003
519.01	-0.003
519.21	-0.003
519.41	-0.003
519.61	-0.003
519.81	-0.003
520.00	-0.003
520.20	-0.003
520.40	-0.003
520.60	-0.003
520.80	-0.003
521.00	-0.003
521.20	-0.003
521.40	-0.003
521.60	-0.003
521.80	-0.003
522.00	-0.003
522.20	-0.003
522.39	-0.003
522.59	-0.003
522.79	-0.003
522.99	-0.003
523.19	-0.003
523.39	-0.003
523.59	-0.003
523.79	-0.003
523.99	-0.002
524.19	-0.002
524.38	-0.003
524.58	-0.003
524.78	-0.003
524.98	-0.002
525.18	-0.002
525.38	-0.003
525.58	-0.003
525.78	-0.003
525.98	-0.003
526.18	-0.003
526.37	-0.003
526.57	-0.003
526.77	-0.003
526.97	-0.003
527.17	-0.003
527.37	-0.003
527.57	-0.003
527.77	-0.003
527.96	-0.003
528.16	-0.003
528.36	-0.003
528.56	-0.003
528.76	-0.003
528.96	-0.003
529.16	-0.003
529.36	-0.003
529.55	-0.003
529.75	-0.003
529.95	-0.003
530.15	-0.003
530.35	-0.002
530.55	-0.002
530.75	-0.002
530.94	-0.002
531.14	-0.002
531.34	-0.002
531.54	-0.002
531.74	-0.003
531.94	-0.002
532.13	-0.002
532.33	-0.003
532.53	-0.003
532.73	-0.003
532.93	-0.003
533.13	-0.003
533.33	-0.003
533.52	-0.003
533.72	-0.003
533.92	-0.003
534.12	-0.003
534.32	-0.003
534.52	-0.003
534.71	-0.003
534.91	-0.003
535.11	-0.003
535.31	-0.003
535.51	-0.003
535.71	-0.003
535.90	-0.003
536.10	-0.003
536.30	-0.002
536.50	-0.003
536.70	-0.003
536.89	-0.003
537.09	-0.002
537.29	-0.002
537.49	-0.003
537.69	-0.003
537.89	-0.003
538.08	-0.003
538.28	-0.003
538.48	-0.003
538.68	-0.002
538.88	-0.002
539.07	-0.002
539.27	-0.003
539.47	-0.002
539.67	-0.002
539.87	-0.002
540.06	-0.002
540.26	-0.002
540.46	-0.002
540.66	-0.002
540.86	-0.002
541.05	-0.002
541.25	-0.002
541.45	-0.002
541.65	-0.002
541.84	-0.002
542.04	-0.002
542.24	-0.002
542.44	-0.002
542.64	-0.002
542.83	-0.003
543.03	-0.003
543.23	-0.003
543.43	-0.003
543.62	-0.003
543.82	-0.003
544.02	-0.003
544.22	-0.002
544.42	-0.002
544.61	-0.002
544.81	-0.002
545.01	-0.002
545.21	-0.003
545.40	-0.002
545.60	-0.002
545.80	-0.002
546.00	-0.002
546.19	-0.002
546.39	-0.002
546.59	-0.002
546.79	-0.002
546.98	-0.002
547.18	-0.002
547.38	-0.002
547.58	-0.002
547.77	-0.002
547.97	-0.002
548.17	-0.002
548.37	-0.002
548.56	-0.002
548.76	-0.002
548.96	-0.002
549.16	-0.002
549.35	-0.002
549.55	-0.002
549.75	-0.002
549.95	-0.002
550.14	-0.002
550.34	-0.002
550.54	-0.002
550.73	-0.002
550.93	-0.002
551.13	-0.002
551.33	-0.002
551.52	-0.002
551.72	-0.002
551.92	-0.002
552.12	-0.002
552.31	-0.002
552.51	-0.002
552.71	-0.002
552.90	-0.002
553.10	-0.002
553.30	-0.002
553.50	-0.002
553.69	-0.002
553.89	-0.002
554.09	-0.002
554.28	-0.002
554.48	-0.002
554.68	-0.002
554.87	-0.002
555.07	-0.002
555.27	-0.002
555.47	-0.002
555.66	-0.002
555.86	-0.002
556.06	-0.001
556.25	-0.001
556.45	-0.001
556.65	-0.001
556.84	-0.001
557.04	-0.001
557.24	-0.001
557.43	-0.001
557.63	-0.001
557.83	-0.001
558.02	-0.001
558.22	-0.001
558.42	-0.001
558.61	-0.002
558.81	-0.002
559.01	-0.002
559.21	-0.002
559.40	-0.002
559.60	-0.002
559.80	-0.002
559.99	-0.002
560.19	-0.002
560.39	-0.002
560.58	-0.002
560.78	-0.002
560.97	-0.002
561.17	-0.002
561.37	-0.002
561.56	-0.002
561.76	-0.002
561.96	-0.002
562.15	-0.002
562.35	-0.002
562.55	-0.002
562.74	-0.002
562.94	-0.001
563.14	-0.001
563.33	-0.002
563.53	-0.001
563.73	-0.001
563.92	-0.001
564.12	-0.001
564.31	-0.001
564.51	-0.001
564.71	-0.001
564.90	-0.001
565.10	-0.002
565.30	-0.002
565.49	-0.002
565.69	-0.002
565.89	-0.002
566.08	-0.002
566.28	-0.002
566.47	-0.002
566.67	-0.002
566.87	-0.002
567.06	-0.003
567.26	-0.003
567.46	-0.003
567.65	-0.003
567.85	-0.003
568.04	-0.003
568.24	-0.003
568.44	-0.003
568.63	-0.003
568.83	-0.003
569.02	-0.003
569.22	-0.003
569.42	-0.003
569.61	-0.003
569.81	-0.003
570.00	-0.003
570.20	-0.003
570.40	-0.003
570.59	-0.003
570.79	-0.003
570.98	-0.003
571.18	-0.003
571.38	-0.003
571.57	-0.003
571.77	-0.003
571.96	-0.003
572.16	-0.003
572.35	-0.003
572.55	-0.003
572.75	-0.003
572.94	-0.003
573.14	-0.003
573.33	-0.003
573.53	-0.003
573.73	-0.003
573.92	-0.002
574.12	-0.002
574.31	-0.002
574.51	-0.002
574.70	-0.002
574.90	-0.002
575.09	-0.002
575.29	-0.002
575.49	-0.001
575.68	-0.001
575.88	-0.001
576.07	-0.001
576.27	-0.000
576.46	-0.000
576.66	-0.000
576.86	-0.000
577.05	-0.000
577.25	-0.000
577.44	-0.000
577.64	-0.000
577.83	-0.000
578.03	-0.000
578.22	-0.000
578.42	-0.000
578.61	-0.000
578.81	-0.000
579.00	-0.000
579.20	-0.000
579.40	-0.000
579.59	-0.000
579.79	-0.000
579.98	-0.000
580.18	-0.000
580.37	-0.000
580.57	-0.000
580.76	-0.000
580.96	-0.000
581.15	-0.000
581.35	-0.000
581.54	-0.000
581.74	-0.000
581.93	-0.000
582.13	-0.000
582.32	-0.000
582.52	-0.000
582.71	-0.000
582.91	-0.000
583.10	-0.000
583.30	-0.000
583.49	-0.000
583.69	-0.000
583.88	-0.000
584.08	-0.000
584.27	-0.000
584.47	-0.000
584.66	-0.000
584.86	-0.000
585.05	-0.000
585.25	-0.000
585.44	-0.000
585.64	-0.000
585.83	-0.000
586.03	-0.000
586.22	-0.000
586.42	-0.000
586.61	-0.000
586.81	-0.000
587.00	-0.000
587.20	-0.000
587.39	-0.000
587.59	-0.000
587.78	-0.001
587.98	-0.001
588.17	-0.001
588.37	-0.001
588.56	-0.001
588.76	-0.001
588.95	-0.001
589.15	-0.001
589.34	-0.001
589.54	-0.001
589.73	-0.001
589.92	-0.001
590.12	-0.002
590.31	-0.002
590.51	-0.002
590.70	-0.002
590.90	-0.002
591.09	-0.002
591.29	-0.002
591.48	-0.002
591.68	-0.002
591.87	-0.002
592.06	-0.002
592.26	-0.002
592.45	-0.002
592.65	-0.002
592.84	-0.002
593.04	-0.002
593.23	-0.002
593.43	-0.002
593.62	-0.002
593.81	-0.002
594.01	-0.001
594.20	-0.001
594.40	-0.001
594.59	-0.001
594.79	-0.001
594.98	-0.001
595.17	-0.001
595.37	-0.000
595.56	-0.001
595.76	-0.001
595.95	-0.001
596.14	-0.001
596.34	-0.002
596.53	-0.002
596.73	-0.002
596.92	-0.003
597.12	-0.003
597.31	-0.003
597.50	-0.003
597.70	-0.003
597.89	-0.003
598.09	-0.003
598.28	-0.003
598.47	-0.003
598.67	-0.003
598.86	-0.003
599.06	-0.003
599.25	-0.002
599.44	-0.002
599.64	-0.002
599.83	-0.002
600.03	-0.002
600.22	-0.002
600.41	-0.001
600.61	-0.001
600.80	-0.001
601.00	-0.001
601.19	-0.000
601.38	-0.000
601.58	-0.000
601.77	-0.000
601.96	-0.000
602.16	-0.000
602.35	-0.001
602.55	-0.001
602.74	-0.001
602.93	-0.001
603.13	-0.001
603.32	-0.002
603.51	-0.002
603.71	-0.002
603.90	-0.002
604.09	-0.003
604.29	-0.003
604.48	-0.003
604.68	-0.003
604.87	-0.003
605.06	-0.003
605.26	-0.003
605.45	-0.002
605.64	-0.002
605.84	-0.002
606.03	-0.002
606.22	-0.002
606.42	-0.002
606.61	-0.001
606.80	-0.001
607.00	-0.001
607.19	-0.001
607.38	-0.001
607.58	-0.001
607.77	-0.001
607.96	-0.001
608.16	-0.001
608.35	-0.000
608.54	-0.000
608.74	-0.000
608.93	-0.000
609.12	-0.000
609.32	-0.000
609.51	-0.000
609.70	-0.000
609.90	-0.000
610.09	-0.000
610.28	-0.000
610.48	-0.001
610.67	-0.001
610.86	-0.001
611.06	-0.001
611.25	-0.001
611.44	-0.001
611.64	-0.001
611.83	-0.001
612.02	-0.001
612.21	-0.002
612.41	-0.002
612.60	-0.002
612.79	-0.002
612.99	-0.002
613.18	-0.002
613.37	-0.002
613.57	-0.002
613.76	-0.002
613.95	-0.001
614.14	-0.001
614.34	-0.001
614.53	-0.001
614.72	-0.001
614.92	-0.001
615.11	-0.001
615.30	-0.001
615.49	-0.000
615.69	-0.000
615.88	-0.000
616.07	-0.000
616.26	0.000
616.46	0.000
616.65	0.000
616.84	0.000
617.04	0.000
617.23	0.000
617.42	0.000
617.61	0.000
617.81	0.000
618.00	0.000
618.19	0.000
618.38	0.000
618.58	-0.000
618.77	-0.000
618.96	-0.000
619.15	-0.000
619.35	-0.000
619.54	-0.000
619.73	-0.000
619.92	-0.000
620.12	-0.000
620.31	-0.000
620.50	-0.000
620.69	-0.000
620.89	-0.000
621.08	-0.000
621.27	-0.000
621.46	-0.000
621.66	-0.000
621.85	-0.000
622.04	-0.000
622.23	-0.000
622.43	-0.000
622.62	-0.000
622.81	-0.000
623.00	-0.000
623.19	-0.000
623.39	0.000
623.58	0.000
623.77	0.000
623.96	0.000
624.16	0.000
624.35	0.000
624.54	0.000
624.73	0.000
624.92	0.000
625.12	0.000
625.31	0.001
625.50	0.001
625.69	0.001
625.88	0.001
626.08	0.001
626.27	0.001
626.46	0.001
626.65	0.001
626.84	0.001
627.04	0.001
627.23	0.001
627.42	0.001
627.61	0.001
627.80	0.001
628.00	0.000
628.19	0.001
628.38	0.001
628.57	0.001
628.76	0.001
628.96	0.001
629.15	0.001
629.34	0.001
629.53	0.001
629.72	0.001
629.91	0.001
630.11	0.001
630.30	0.001
630.49	0.001
630.68	0.001
630.87	0.001
631.06	0.001
631.26	0.001
631.45	0.001
631.64	0.002
631.83	0.002
632.02	0.002
632.21	0.002
632.41	0.002
632.60	0.002
632.79	0.002
632.98	0.002
633.17	0.001
633.36	0.001
633.55	0.001
633.75	0.001
633.94	0.001
634.13	0.001
634.32	0.001
634.51	0.001
634.70	0.001
634.89	0.001
635.09	0.001
635.28	0.001
635.47	0.002
635.66	0.002
635.85	0.002
636.04	0.002
636.23	0.002
636.43	0.002
636.62	0.002
636.81	0.002
637.00	0.002
637.19	0.002
637.38	0.002
637.57	0.002
637.76	0.002
637.95	0.002
638.15	0.002
638.34	0.002
638.53	0.002
638.72	0.002
638.91	0.002
639.10	0.002
639.29	0.002
639.48	0.002
639.67	0.002
639.87	0.002
640.06	0.002
640.25	0.002
640.44	0.002
640.63	0.002
640.82	0.002
641.01	0.002
641.20	0.002
641.39	0.002
641.58	0.002
641.78	0.002
641.97	0.002
642.16	0.002
642.35	0.002
642.54	0.002
642.73	0.002
642.92	0.002
643.11	0.002
643.30	0.002
643.49	0.002
643.68	0.002
643.87	0.002
644.06	0.002
644.25	0.002
644.45	0.002
644.64	0.002
644.83	0.002
645.02	0.002
645.21	0.002
645.40	0.002
645.59	0.002
645.78	0.002
645.97	0.002
646.16	0.002
646.35	0.002
646.54	0.001
646.73	0.001
646.92	0.001
647.11	0.001
647.30	0.001
647.49	0.001
647.68	0.001
647.88	0.001
648.07	0.001
648.26	0.001
648.45	0.001
648.64	0.001
648.83	0.001
649.02	0.001
649.21	0.001
649.40	0.001
649.59	0.001
649.78	0.002
649.97	0.002
650.16	0.002
650.35	0.002
650.54	0.002
650.73	0.002
650.92	0.002
651.11	0.002
651.30	0.002
651.49	0.002
651.68	0.002
651.87	0.002
652.06	0.002
652.25	0.002
652.44	0.002
652.63	0.001
652.82	-0.001
653.01	-0.002
653.20	-0.002
653.39	-0.003
653.58	-0.003
653.77	-0.003
653.96	-0.003
654.15	-0.003
654.34	-0.004
654.53	-0.003
654.72	-0.003
654.91	-0.002
655.10	-0.002
655.29	-0.001
655.48	-0.001
655.67	-0.001
655.86	-0.001
656.05	-0.000
656.24	-0.000
656.43	-0.000
656.62	-0.000
656.81	0.000
657.00	0.001
657.19	0.002
657.38	0.003
657.57	0.003
657.76	0.003
657.95	0.004
658.14	0.004
658.33	0.005
658.51	0.005
658.70	0.005
658.89	0.006
659.08	0.005
659.27	0.004
659.46	0.004
659.65	0.003
659.84	0.003
660.03	0.003
660.22	0.003
660.41	0.003
660.60	0.003
660.79	0.003
660.98	0.003
661.17	0.003
661.36	0.003
661.55	0.002
661.74	0.002
661.92	0.002
662.11	0.002
662.30	0.002
662.49	0.002
662.68	0.002
662.87	0.002
663.06	0.002
663.25	0.002
663.44	0.002
663.63	0.002
663.82	0.002
664.01	0.003
664.20	0.002
664.38	0.002
664.57	0.002
664.76	0.002
664.95	0.002
665.14	0.002
665.33	0.002
665.52	0.002
665.71	0.002
665.90	0.002
666.09	0.002
666.28	0.002
666.46	0.002
666.65	0.002
666.84	0.002
667.03	0.002
667.22	0.002
667.41	0.002
667.60	0.002
667.79	0.002
667.98	0.002
668.16	0.002
668.35	0.002
668.54	0.002
668.73	0.002
668.92	0.002
669.11	0.002
669.30	0.002
669.49	0.002
669.67	0.001
669.86	0.002
670.05	0.001
670.24	0.002
670.43	0.001
670.62	0.001
670.81	0.001
671.00	0.001
671.18	0.001
671.37	0.001
671.56	0.001
671.75	0.001
671.94	0.001
672.13	0.001
672.32	0.001
672.50	0.001
672.69	0.001
672.88	0.002
673.07	0.002
673.26	0.002
673.45	0.002
673.63	0.002
673.82	0.002
674.01	0.002
674.20	0.002
674.39	0.002
674.58	0.002
674.76	0.002
674.95	0.002
675.14	0.002
675.33	0.002
675.52	0.002
675.71	0.002
675.89	0.002
676.08	0.002
676.27	0.002
676.46	0.003
676.65	0.002
676.84	0.002
677.02	0.003
677.21	0.003
677.40	0.003
677.59	0.003
677.78	0.003
677.96	0.003
678.15	0.003
678.34	0.002
678.53	0.002
678.72	0.002
678.90	0.002
679.09	0.002
679.28	0.002
679.47	0.002
679.66	0.002
679.84	0.002
680.03	0.002
680.22	0.002
680.41	0.002
680.60	0.002
680.78	0.002
680.97	0.002
681.16	0.002
681.35	0.002
681.53	0.002
681.72	0.002
681.91	0.002
682.10	0.002
682.29	0.002
682.47	0.002
682.66	0.002
682.85	0.002
683.04	0.002
683.22	0.001
683.41	0.001
683.60	0.001
683.79	0.001
683.97	0.002
684.16	0.001
684.35	0.001
684.54	0.001
684.72	0.002
684.91	0.002
685.10	0.002
685.29	0.002
685.47	0.002
685.66	0.002
685.85	0.002
686.04	0.002
686.22	0.002
686.41	0.002
686.60	0.002
686.79	0.002
686.97	0.002
687.16	0.002
687.35	0.002
687.54	0.002
687.72	0.002
687.91	0.002
688.10	0.002
688.29	0.002
688.47	0.002
688.66	0.002
688.85	0.002
689.03	0.002
689.22	0.002
689.41	0.002
689.60	0.002
689.78	0.002
689.97	0.002
690.16	0.002
690.34	0.002
690.53	0.002
690.72	0.002
690.91	0.002
691.09	0.002
691.28	0.002
691.47	0.002
691.65	0.002
691.84	0.002
692.03	0.002
692.21	0.002
692.40	0.002
692.59	0.003
692.77	0.003
692.96	0.003
693.15	0.003
693.34	0.003
693.52	0.003
693.71	0.003
693.90	0.002
694.08	0.002
694.27	0.002
694.46	0.002
694.64	0.002
694.83	0.002
695.02	0.002
695.20	0.002
695.39	0.002
695.58	0.002
695.76	0.002
695.95	0.002
696.14	0.002
696.32	0.002
696.51	0.002
696.70	0.002
696.88	0.002
697.07	0.002
697.26	0.002
697.44	0.002
697.63	0.002
697.81	0.002
698.00	0.002
698.19	0.003
698.37	0.003
698.56	0.003
698.75	0.003
698.93	0.003
699.12	0.003
699.31	0.003
699.49	0.003
699.68	0.003
699.87	0.003
700.05	0.003
700.24	0.003
700.42	0.003
700.61	0.003
700.80	0.003
700.98	0.003
701.17	0.003
701.36	0.003
701.54	0.003
701.73	0.003
701.91	0.003
702.10	0.003
702.29	0.003
702.47	0.003
702.66	0.003
702.84	0.003
703.03	0.003
703.22	0.003
703.40	0.003
703.59	0.003
703.77	0.003
703.96	0.003
704.15	0.003
704.33	0.003
704.52	0.003
704.70	0.003
704.89	0.003
705.08	0.003
705.26	0.003
705.45	0.003
705.63	0.003
705.82	0.003
706.00	0.002
706.19	0.002
706.38	0.002
706.56	0.002
706.75	0.002
706.93	0.002
707.12	0.002
707.30	0.002
707.49	0.002
707.68	0.002
707.86	0.002
708.05	0.002
708.23	0.002
708.42	0.002
708.60	0.002
708.79	0.002
708.98	0.002
709.16	0.002
709.35	0.003
709.53	0.002
709.72	0.003
709.90	0.003
710.09	0.003
710.27	0.003
710.46	0.003
710.64	0.003
710.83	0.003
711.02	0.003
711.20	0.003
711.39	0.003
711.57	0.003
711.76	0.002
711.94	0.003
712.13	0.003
712.31	0.003
712.50	0.003
712.68	0.002
712.87	0.002
713.05	0.003
713.24	0.003
713.42	0.003
713.61	0.003
713.79	0.003
713.98	0.002
714.16	0.002
714.35	0.002
714.54	0.002
714.72	0.002
714.91	0.002
715.09	0.002
715.28	0.002
715.46	0.003
715.65	0.003
715.83	0.003
716.02	0.002
716.20	0.003
716.39	0.002
716.57	0.002
716.76	0.002
716.94	0.002
717.12	0.002
717.31	0.002
717.49	0.002
717.68	0.002
717.86	0.002
718.05	0.002
718.23	0.002
718.42	0.002
718.60	0.002
718.79	0.002
718.97	0.002
719.16	0.002
719.34	0.002
719.53	0.002
719.71	0.002
719.90	0.002
720.08	0.002
720.27	0.003
720.45	0.003
720.63	0.003
720.82	0.003
721.00	0.003
721.19	0.003
721.37	0.003
721.56	0.003
721.74	0.003
721.93	0.003
722.11	0.003
722.30	0.003
722.48	0.003
722.66	0.003
722.85	0.003
723.03	0.003
723.22	0.003
723.40	0.003
723.59	0.003
723.77	0.003
723.95	0.003
724.14	0.003
724.32	0.002
724.51	0.002
724.69	0.002
724.88	0.002
725.06	0.002
725.24	0.002
725.43	0.002
725.61	0.002
725.80	0.001
725.98	0.001
726.16	0.001
726.35	0.001
726.53	0.001
726.72	0.001
726.90	0.001
727.09	0.001
727.27	0.001
727.45	0.001
727.64	0.001
727.82	0.001
728.01	0.002
728.19	0.002
728.37	0.002
728.56	0.002
728.74	0.001
728.92	0.001
729.11	0.002
729.29	0.002
729.48	0.002
729.66	0.002
729.84	0.001
730.03	0.001
730.21	0.001
730.40	0.001
730.58	0.001
730.76	0.001
730.95	0.001
731.13	0.001
731.31	0.001
731.50	0.001
731.68	0.001
731.86	0.001
732.05	0.001
732.23	0.001
732.42	0.001
732.60	0.002
732.78	0.001
732.97	0.001
733.15	0.001
733.33	0.001
733.52	0.001
733.70	0.000
733.88	0.000
734.07	-0.000
734.25	-0.000
734.43	-0.001
734.62	-0.001
734.80	-0.001
734.98	-0.001
735.17	-0.001
735.35	-0.001
735.53	-0.001
735.72	-0.001
735.90	-0.001
736.08	-0.000
736.27	-0.000
736.45	-0.001
736.63	-0.001
736.82	-0.001
737.00	-0.001
737.18	-0.001
737.37	-0.001
737.55	-0.001
737.73	-0.001
737.92	-0.002
738.10	-0.002
738.28	-0.002
738.46	-0.002
738.65	-0.002
738.83	-0.002
739.01	-0.002
739.20	-0.002
739.38	-0.002
739.56	-0.002
739.75	-0.002
739.93	-0.001
740.11	-0.001
740.29	-0.001
740.48	0.000
740.66	0.000
740.84	0.000
741.03	0.000
741.21	0.000
741.39	0.001
741.57	0.000
741.76	0.000
741.94	0.000
742.12	0.000
742.31	0.000
742.49	-0.000
742.67	-0.000
742.85	-0.000
743.04	-0.000
743.22	-0.001
743.40	-0.001
743.58	0.000
743.77	0.000
743.95	0.000
744.13	0.000
744.31	0.000
744.50	0.000
744.68	0.000
744.86	0.001
745.04	0.001
745.23	0.001
745.41	0.000
745.59	0.000
745.77	0.001
745.96	0.001
746.14	0.000
746.32	0.000
746.50	0.000
746.69	0.000
746.87	-0.000
747.05	-0.000
747.23	-0.001
747.42	-0.000
747.60	-0.000
747.78	-0.001
747.96	-0.001
748.14	-0.000
748.33	-0.000
748.51	-0.000
748.69	0.000
748.87	0.000
749.06	0.001
749.24	0.001
749.42	0.001
749.60	0.001
749.78	0.001
749.97	0.001
750.15	0.001
750.33	0.001
750.51	0.001
750.69	0.000
750.88	-0.000
751.06	-0.000
751.24	0.000
751.42	-0.000
751.60	-0.000
751.79	0.000
751.97	-0.000
752.15	-0.000
752.33	-0.001
752.51	-0.001
752.69	-0.001
752.88	-0.001
753.06	-0.000
753.24	-0.001
753.42	-0.000
753.60	-0.000
753.78	-0.000
753.97	-0.001
754.15	-0.000
754.33	-0.000
754.51	-0.000
754.69	-0.001
754.87	-0.000
755.06	-0.001
755.24	-0.001
755.42	-0.001
755.60	-0.001
755.78	-0.001
755.96	-0.001
756.15	-0.001
756.33	-0.001
756.51	-0.000
756.69	-0.000
756.87	0.000
757.05	0.000
757.23	-0.000
757.42	-0.001
757.60	-0.001
757.78	-0.001
757.96	-0.001
758.14	-0.000
758.32	0.000
758.50	0.000
758.69	0.000
758.87	0.000
759.05	0.001
759.23	0.001
759.41	0.001
759.59	0.002
759.77	0.002
759.95	0.002
760.13	0.002
760.32	0.001
760.50	0.001
760.68	0.002
760.86	0.002
761.04	0.002
761.22	0.002
761.40	0.002
761.58	0.002
761.76	0.001
761.95	0.002
762.13	0.002
762.31	0.002
762.49	0.002
762.67	0.003
762.85	0.002
763.03	0.002
763.21	0.002
763.39	0.002
763.57	0.002
763.75	0.002
763.94	0.002
764.12	0.002
764.30	0.002
764.48	0.001
764.66	0.000
764.84	0.000
765.02	0.001
765.20	0.000
765.38	0.001
765.56	0.001
765.74	0.000
765.92	0.001
766.10	0.001
766.28	0.001
766.46	0.001
766.65	0.001
766.83	0.001
767.01	0.001
767.19	0.001
767.37	0.001
767.55	0.002
767.73	0.001
767.91	0.001
768.09	0.002
768.27	0.001
768.45	0.002
768.63	0.002
768.81	0.002
768.99	0.002
769.17	0.002
769.35	0.003
769.53	0.002
769.71	0.003
769.89	0.003
770.07	0.003
770.25	0.004
770.43	0.004
770.61	0.004
770.79	0.005
770.97	0.005
771.15	0.004
771.33	0.004
771.51	0.004
771.69	0.004
771.87	0.004
772.05	0.004
772.24	0.004
772.42	0.004
772.60	0.003
772.78	0.004
772.96	0.004
773.14	0.004
773.32	0.004
773.49	0.004
773.67	0.004
773.85	0.004
774.03	0.004
774.21	0.004
774.39	0.004
774.57	0.003
774.75	0.003
774.93	0.003
775.11	0.003
775.29	0.004
775.47	0.003
775.65	0.003
775.83	0.003
776.01	0.002
776.19	0.003
776.37	0.003
776.55	0.003
776.73	0.003
776.91	0.003
777.09	0.003
777.27	0.003
777.45	0.003
777.63	0.003
777.81	0.003
777.99	0.003
778.17	0.003
778.35	0.003
778.53	0.003
778.71	0.004
778.89	0.003
779.07	0.003
779.24	0.003
779.42	0.002
779.60	0.002
779.78	0.002
779.96	0.002
780.14	0.002
780.32	0.002
780.50	0.002
780.68	0.001
780.86	0.001
781.04	0.001
781.22	0.002
781.40	0.002
781.58	0.002
781.75	0.002
781.93	0.002
782.11	0.003
782.29	0.003
782.47	0.003
782.65	0.004
782.83	0.004
783.01	0.004
783.19	0.005
783.37	0.004
783.55	0.004
783.72	0.004
783.90	0.004
784.08	0.005
784.26	0.005
784.44	0.004
784.62	0.004
784.80	0.004
784.98	0.004
785.16	0.004
785.33	0.005
785.51	0.004
785.69	0.004
785.87	0.004
786.05	0.004
786.23	0.004
786.41	0.004
786.59	0.004
786.77	0.004
786.94	0.003
787.12	0.004
787.30	0.003
787.48	0.003
787.66	0.003
787.84	0.003
788.02	0.003
788.19	0.003
788.37	0.003
788.55	0.003
788.73	0.003
788.91	0.003
789.09	0.003
789.27	0.003
789.44	0.003
789.62	0.004
789.80	0.004
789.98	0.004
790.16	0.003
790.34	0.003
790.51	0.003
790.69	0.004
790.87	0.004
791.05	0.004
791.23	0.004
791.41	0.004
791.58	0.003
791.76	0.003
791.94	0.004
792.12	0.004
792.30	0.004
792.48	0.004
792.65	0.004
792.83	0.003
793.01	0.004
793.19	0.004
793.37	0.004
793.54	0.004
793.72	0.004
793.90	0.004
794.08	0.004
794.26	0.004
794.43	0.004
794.61	0.004
794.79	0.004
794.97	0.004
795.15	0.004
795.32	0.004
795.50	0.004
795.68	0.004
795.86	0.004
796.04	0.005
796.21	0.005
796.39	0.004
796.57	0.005
796.75	0.005
796.92	0.005
797.10	0.005
797.28	0.005
797.46	0.005
797.64	0.004
797.81	0.004
797.99	0.004
798.17	0.003
798.35	0.004
798.52	0.004
798.70	0.004
798.88	0.004
799.06	0.004
799.23	0.003
799.41	0.004
799.59	0.004
799.77	0.005
799.94	0.005
800.12	0.005
800.30	0.005
800.48	0.005
800.65	0.005
800.83	0.005
801.01	0.005
801.19	0.005
801.36	0.005
801.54	0.005
801.72	0.005
801.90	0.005
802.07	0.004
802.25	0.004
802.43	0.004
802.60	0.004
802.78	0.004
802.96	0.004
803.14	0.004
803.31	0.004
803.49	0.004
803.67	0.004
803.84	0.004
804.02	0.004
804.20	0.004
804.38	0.004
804.55	0.004
804.73	0.004
804.91	0.004
805.08	0.004
805.26	0.004
805.44	0.004
805.61	0.004
805.79	0.005
805.97	0.005
806.15	0.005
806.32	0.005
806.50	0.005
806.68	0.004
806.85	0.005
807.03	0.004
807.21	0.004
807.38	0.004
807.56	0.004
807.74	0.004
807.91	0.004
808.09	0.004
808.27	0.004
808.44	0.004
808.62	0.004
808.80	0.005
808.97	0.005
809.15	0.005
809.33	0.005
809.50	0.004
809.68	0.005
809.86	0.004
810.03	0.005
810.21	0.005
810.39	0.005
810.56	0.005
810.74	0.004
810.91	0.004
811.09	0.003
811.27	0.003
811.44	0.004
811.62	0.003
811.80	0.003
811.97	0.003
812.15	0.003
812.33	0.003
812.50	0.003
812.68	0.003
812.85	0.004
813.03	0.004
813.21	0.004
813.38	0.004
813.56	0.004
813.74	0.004
813.91	0.004
814.09	0.004
814.26	0.004
814.44	0.004
814.62	0.004
814.79	0.004
814.97	0.004
815.14	0.004
815.32	0.004
815.50	0.004
815.67	0.004
815.85	0.005
816.02	0.005
816.20	0.005
816.38	0.005
816.55	0.005
816.73	0.005
816.90	0.004
817.08	0.004
817.26	0.004
817.43	0.004
817.61	0.004
817.78	0.003
817.96	0.004
818.13	0.004
818.31	0.004
818.49	0.003
818.66	0.004
818.84	0.003
819.01	0.003
819.19	0.003
819.36	0.003
819.54	0.003
819.71	0.003
819.89	0.003
820.07	0.003
820.24	0.003
820.42	0.003
820.59	0.003
820.77	0.004
820.94	0.004
821.12	0.004
821.29	0.004
821.47	0.004
821.64	0.004
821.82	0.005
822.00	0.005
822.17	0.005
822.35	0.005
822.52	0.005
822.70	0.005
822.87	0.005
823.05	0.004
823.22	0.004
823.40	0.003
823.57	0.004
823.75	0.003
823.92	0.003
824.10	0.003
824.27	0.003
824.45	0.003
824.62	0.003
824.80	0.003
824.97	0.003
825.15	0.003
825.32	0.004
825.50	0.004
825.67	0.004
825.85	0.004
826.02	0.004
826.20	0.005
826.37	0.005
826.55	0.005
826.72	0.006
826.90	0.006
827.07	0.007
827.25	0.007
827.42	0.006
827.60	0.006
827.77	0.006
827.95	0.005
828.12	0.004
828.30	0.004
828.47	0.004
828.65	0.003
828.82	0.003
829.00	0.002
829.17	0.002
829.34	0.003
829.52	0.004
829.69	0.004
829.87	0.004
830.04	0.005
830.22	0.005
830.39	0.005
830.57	0.006
830.74	0.006
830.92	0.006
831.09	0.005
831.26	0.005
831.44	0.005
831.61	0.006
831.79	0.008
831.96	0.008
832.14	0.006
832.31	0.006
832.49	0.005
832.66	0.005
832.83	0.006
833.01	0.006
833.18	0.006
833.36	0.005
833.53	0.003
833.70	0.001
833.88	0.001
834.05	0.001
834.23	0.001
834.40	0.000
834.58	0.000
834.75	-0.001
834.92	-0.001
835.10	-0.002
835.27	-0.002
835.45	-0.002
835.62	-0.000
835.79	0.000
835.97	0.000
836.14	0.001
836.32	0.001
836.49	0.001
836.66	0.001
836.84	0.000
837.01	-0.000
837.18	0.001
837.36	0.002
837.53	0.002
837.71	0.001
837.88	0.001
838.05	-0.000
838.23	0.001
838.40	0.001
838.58	0.002
838.75	0.001
838.92	0.001
839.10	-0.001
839.27	-0.001
839.44	0.000
839.62	0.001
839.79	0.001
839.96	0.004
840.14	0.004
840.31	0.003
840.48	0.002
840.66	0.004
840.83	0.005
841.01	0.004
841.18	0.005
841.35	0.004
841.53	0.002
841.70	0.003
841.87	0.001
842.05	0.000
842.22	0.001
842.39	0.001
842.57	0.001
842.74	0.001
842.91	0.003
843.09	0.002
843.26	0.005
843.43	0.005
843.60	0.004
843.78	0.006
843.95	0.007
844.12	0.008
844.30	0.009
844.47	0.008
844.64	0.010
844.82	0.009
844.99	0.008
845.16	0.008
845.34	0.008
845.51	0.008
845.68	0.006
845.85	0.006
846.03	0.005
846.20	0.004
846.37	0.004
846.55	0.003
846.72	0.004
846.89	0.003
847.06	-0.000
847.24	0.001
847.41	0.001
847.58	0.002
847.76	0.005
847.93	0.005
848.10	0.004
848.27	0.004
848.45	0.005
848.62	0.004
848.79	0.003
848.97	0.006
849.14	0.006
849.31	0.007
849.48	0.006
849.66	0.003
849.83	0.002
850.00	0.002
850.17	0.001
850.35	-0.001
850.52	-0.001
850.69	0.002
850.86	0.000
851.04	0.002
851.21	0.001
851.38	-0.001
851.55	-0.001
851.72	-0.000
851.90	0.003
852.07	0.004
852.24	0.003
852.41	0.002
852.59	0.000
852.76	-0.001
852.93	-0.001
853.10	-0.000
853.28	0.000
853.45	0.000
853.62	0.000
853.79	-0.003
853.96	-0.004
854.14	-0.004
854.31	-0.001
854.48	0.001
854.65	0.005
854.82	0.006
855.00	0.006
855.17	0.007
855.34	0.007
855.51	0.007
855.68	0.008
855.86	0.012
856.03	0.012
856.20	0.009
856.37	0.006
856.54	0.003
856.72	0.001
856.89	0.000
857.06	-0.000
857.23	0.000
857.40	0.002
857.57	0.004
857.75	0.004
857.92	0.005
858.09	0.006
858.26	0.006
858.43	0.006
858.60	0.008
858.78	0.009
858.95	0.009
859.12	0.009
859.29	0.007
859.46	0.006
859.63	0.006
859.81	0.006
859.98	0.007
860.15	0.008
860.32	0.012
860.49	0.006
860.66	0.005
860.83	0.006
861.01	0.005
861.18	0.004
861.35	0.004
861.52	0.004
861.69	0.002
861.86	0.001
862.03	0.003
862.21	0.004
862.38	0.008
862.55	0.009
862.72	0.009
862.89	0.010
863.06	0.009
863.23	0.009
863.40	0.006
863.58	0.004
863.75	0.007
863.92	0.006
864.09	0.004
864.26	0.003
864.43	0.002
864.60	0.002
864.77	0.000
864.94	0.005
865.11	0.002
865.29	0.005
865.46	0.012
865.63	0.010
865.80	0.009
865.97	0.008
866.14	0.011
866.31	0.010
866.48	0.010
866.65	0.014
866.82	0.011
866.99	0.010
867.16	0.005
867.34	-0.003
867.51	0.001
867.68	-0.001
867.85	-0.006
868.02	-0.006
868.19	-0.005
868.36	-0.008
868.53	-0.014
868.70	-0.016
868.87	-0.016
869.04	-0.012
869.21	-0.008
869.38	-0.011
869.55	-0.006
869.72	-0.008
869.89	-0.005
870.06	-0.004
870.24	-0.003
870.41	-0.002
870.58	0.001
870.75	0.004
870.92	0.009
871.09	0.010
871.26	0.011
871.43	0.013
871.60	0.020
871.77	0.016
871.94	0.018
872.11	0.019
872.28	0.019
872.45	0.020
872.62	0.018
872.79	0.014
872.96	0.012
873.13	0.005
873.30	-0.001
873.47	-0.000
873.64	-0.001
873.81	-0.004
873.98	-0.004
874.15	0.003
874.32	-0.003
874.49	-0.001
874.66	-0.003
874.83	-0.002
875.00	0.001
875.17	0.004
875.34	-0.000
875.51	0.002
875.68	0.003
875.85	0.000
876.02	-0.006
876.19	-0.003
876.36	-0.003
876.53	0.000
876.70	-0.001
876.87	0.005
877.04	0.002
877.21	0.002
877.38	0.005
877.55	0.008
877.72	0.008
877.89	0.006
878.06	-0.001
878.23	0.003
878.39	-0.001
878.56	0.006
878.73	0.005
878.90	0.003
879.07	0.006
879.24	0.005
879.41	0.002
879.58	0.000
879.75	-0.000
879.92	0.007
880.09	0.008
880.26	0.007
880.43	-0.001
880.60	-0.004
880.77	0.003
880.94	0.003
881.11	0.003
881.27	0.012
881.44	0.014
881.61	0.021
881.78	0.020
881.95	0.017
882.12	0.016
882.29	0.022
882.46	0.018
882.63	0.020
882.80	0.024
882.97	0.022
883.14	0.011
883.30	0.013
883.47	0.011
883.64	0.008
883.81	0.006
883.98	0.007
884.15	-0.000
884.32	0.005
884.49	0.002
884.66	-0.007
884.82	-0.006
884.99	-0.005
885.16	-0.006
885.33	-0.016
885.50	-0.012
885.67	-0.011
885.84	-0.008
886.01	-0.011
886.17	-0.012
886.34	-0.005
886.51	0.003
886.68	0.000
886.85	0.009
887.02	0.012
887.19	0.016
887.36	0.013
887.52	0.007
887.69	0.013
887.86	0.022
888.03	0.022
888.20	0.015
888.37	0.002
888.54	0.001
888.70	-0.009
888.87	-0.011
889.04	-0.007
889.21	-0.010
889.38	0.003
889.55	0.001
889.71	0.035
889.88	-0.045
890.05	-0.093
890.22	0.084
890.39	0.047
>>>>>End Processed Spectral Data<<<<<
