SpectraSuite Data File
++++++++++++++++++++++++++++++++++++
Date: Fri Jun 19 13:02:08 CEST 2015
User: introlabs
Dark Spectrum Present: Yes
Reference Spectrum Present: Yes
Number of Sampled Component Spectra: 1
Spectrometers: USB4H08886
Integration Time (usec): 745692 (USB4H08886)
Spectra Averaged: 5 (USB4H08886)
Boxcar Smoothing: 5 (USB4H08886)
Correct for Electrical Dark: Yes (USB4H08886)
Strobe/Lamp Enabled: No (USB4H08886)
Correct for Detector Non-linearity: Yes (USB4H08886)
Correct for Stray Light: Yes (USB4H08886)
Number of Pixels in Processed Spectrum: 3648
>>>>>Begin Processed Spectral Data<<<<<
178.14	-0.000
178.36	-0.000
178.57	-0.000
178.79	-0.000
179.01	-0.000
179.22	-0.000
179.44	-0.000
179.65	-0.000
179.87	-0.000
180.08	-0.000
180.30	-0.000
180.52	-0.000
180.73	-0.000
180.95	-0.000
181.16	-0.000
181.38	-0.000
181.59	-0.000
181.81	-0.000
182.03	-0.000
182.24	-0.000
182.46	-0.000
182.67	-0.000
182.89	-0.000
183.10	-0.000
183.32	-0.000
183.54	-0.000
183.75	-0.000
183.97	-0.000
184.18	-0.000
184.40	-0.000
184.61	-0.000
184.83	-0.000
185.04	-0.000
185.26	-0.000
185.48	-0.000
185.69	-0.000
185.91	-0.000
186.12	-0.000
186.34	-0.000
186.55	-0.000
186.77	-0.000
186.98	-0.000
187.20	-0.000
187.42	-0.000
187.63	-0.000
187.85	-0.000
188.06	-0.000
188.28	-0.000
188.49	-0.000
188.71	-0.000
188.92	-0.000
189.14	-0.000
189.36	-0.000
189.57	-0.000
189.79	-0.000
190.00	-0.000
190.22	-0.000
190.43	-0.000
190.65	-0.000
190.86	-0.000
191.08	-0.000
191.29	-0.000
191.51	-0.000
191.72	-0.000
191.94	-0.000
192.16	-0.000
192.37	-0.000
192.59	-0.000
192.80	-0.000
193.02	-0.000
193.23	-0.000
193.45	-0.000
193.66	-0.000
193.88	-0.000
194.09	-0.000
194.31	-0.000
194.52	-0.000
194.74	-0.000
194.95	-0.000
195.17	-0.000
195.38	-0.000
195.60	-0.000
195.81	-0.000
196.03	-0.000
196.25	-0.000
196.46	-0.000
196.68	-0.000
196.89	-0.000
197.11	-0.000
197.32	-0.000
197.54	-0.000
197.75	-0.000
197.97	-0.000
198.18	-0.000
198.40	-0.000
198.61	-0.000
198.83	-0.000
199.04	-0.000
199.26	-0.000
199.47	-0.000
199.69	-0.000
199.90	-0.000
200.12	-0.000
200.33	-0.000
200.55	-0.000
200.76	-0.000
200.98	-0.000
201.19	-0.000
201.41	-0.000
201.62	-0.000
201.84	-0.000
202.05	-0.000
202.27	-0.000
202.48	-0.000
202.70	-0.000
202.91	-0.000
203.13	-0.000
203.34	-0.000
203.56	-0.000
203.77	-0.000
203.99	-0.000
204.20	-0.000
204.42	-0.000
204.63	-0.000
204.85	-0.000
205.06	-0.000
205.28	-0.000
205.49	-0.000
205.71	-0.000
205.92	-0.000
206.14	-0.000
206.35	-0.000
206.56	-0.000
206.78	-0.000
206.99	-0.000
207.21	-0.000
207.42	-0.000
207.64	-0.000
207.85	-0.000
208.07	-0.000
208.28	-0.000
208.50	-0.000
208.71	-0.000
208.93	-0.000
209.14	-0.000
209.36	-0.000
209.57	-0.000
209.79	-0.000
210.00	-0.000
210.22	-0.000
210.43	-0.000
210.64	-0.000
210.86	-0.000
211.07	-0.000
211.29	-0.000
211.50	-0.000
211.72	-0.000
211.93	-0.000
212.15	-0.000
212.36	-0.000
212.58	-0.000
212.79	-0.000
213.01	-0.000
213.22	-0.000
213.43	-0.000
213.65	-0.000
213.86	-0.000
214.08	-0.000
214.29	-0.000
214.51	-0.000
214.72	-0.000
214.94	-0.000
215.15	-0.000
215.36	-0.000
215.58	-0.000
215.79	-0.000
216.01	-0.000
216.22	-0.000
216.44	-0.000
216.65	-0.000
216.87	-0.000
217.08	-0.000
217.29	-0.000
217.51	-0.000
217.72	-0.000
217.94	-0.000
218.15	-0.000
218.37	-0.000
218.58	-0.000
218.80	-0.000
219.01	-0.000
219.22	-0.000
219.44	-0.000
219.65	-0.000
219.87	-0.000
220.08	-0.000
220.30	-0.000
220.51	-0.000
220.72	-0.000
220.94	-0.000
221.15	-0.000
221.37	-0.000
221.58	-0.000
221.79	-0.000
222.01	-0.000
222.22	-0.000
222.44	-0.000
222.65	-0.000
222.87	-0.000
223.08	-0.000
223.29	-0.000
223.51	-0.000
223.72	-0.000
223.94	-0.000
224.15	-0.000
224.36	-0.000
224.58	-0.000
224.79	-0.000
225.01	-0.000
225.22	-0.000
225.44	-0.000
225.65	-0.000
225.86	-0.000
226.08	-0.000
226.29	-0.000
226.51	-0.000
226.72	-0.000
226.93	-0.000
227.15	-0.000
227.36	-0.000
227.58	-0.000
227.79	-0.000
228.00	-0.000
228.22	-0.000
228.43	-0.000
228.65	-0.000
228.86	-0.000
229.07	-0.000
229.29	-0.000
229.50	-0.000
229.72	-0.000
229.93	-0.000
230.14	-0.000
230.36	-0.000
230.57	-0.000
230.78	-0.000
231.00	-0.000
231.21	-0.000
231.43	-0.000
231.64	-0.000
231.85	-0.000
232.07	-0.000
232.28	-0.000
232.50	-0.000
232.71	-0.000
232.92	-0.000
233.14	-0.000
233.35	-0.000
233.56	-0.000
233.78	-0.000
233.99	-0.000
234.21	-0.000
234.42	-0.000
234.63	-0.000
234.85	-0.000
235.06	-0.000
235.27	-0.000
235.49	-0.000
235.70	-0.000
235.91	-0.000
236.13	-0.000
236.34	-0.000
236.56	-0.000
236.77	-0.000
236.98	-0.000
237.20	-0.000
237.41	-0.000
237.62	-0.000
237.84	-0.000
238.05	-0.000
238.26	-0.000
238.48	-0.000
238.69	-0.000
238.91	-0.000
239.12	-0.000
239.33	-0.000
239.55	-0.000
239.76	-0.000
239.97	-0.000
240.19	-0.000
240.40	-0.000
240.61	-0.000
240.83	-0.000
241.04	-0.000
241.25	-0.000
241.47	-0.000
241.68	-0.000
241.89	-0.000
242.11	-0.000
242.32	-0.000
242.53	-0.000
242.75	-0.000
242.96	-0.000
243.17	-0.000
243.39	-0.000
243.60	-0.000
243.81	-0.000
244.03	-0.000
244.24	-0.000
244.45	-0.000
244.67	-0.000
244.88	-0.000
245.09	-0.000
245.31	-0.000
245.52	-0.000
245.73	-0.000
245.95	-0.000
246.16	-0.000
246.37	-0.000
246.59	-0.000
246.80	-0.000
247.01	-0.000
247.23	-0.000
247.44	-0.000
247.65	-0.000
247.87	-0.000
248.08	-0.000
248.29	-0.000
248.51	-0.000
248.72	-0.000
248.93	-0.000
249.15	-0.000
249.36	-0.000
249.57	-0.000
249.78	-0.000
250.00	-0.000
250.21	-0.000
250.42	-0.000
250.64	-0.000
250.85	-0.000
251.06	-0.000
251.28	-0.000
251.49	-0.000
251.70	-0.000
251.92	-0.000
252.13	-0.000
252.34	-0.000
252.55	-0.000
252.77	-0.000
252.98	-0.000
253.19	-0.000
253.41	-0.000
253.62	-0.000
253.83	-0.000
254.05	-0.000
254.26	-0.000
254.47	-0.000
254.68	-0.000
254.90	-0.000
255.11	-0.000
255.32	-0.000
255.54	-0.000
255.75	-0.000
255.96	-0.000
256.17	-0.000
256.39	-0.000
256.60	-0.000
256.81	-0.000
257.03	-0.000
257.24	-0.000
257.45	-0.000
257.66	-0.000
257.88	-0.000
258.09	-0.000
258.30	-0.000
258.51	-0.000
258.73	-0.000
258.94	-0.000
259.15	-0.000
259.37	-0.000
259.58	-0.000
259.79	-0.000
260.00	-0.000
260.22	-0.000
260.43	-0.000
260.64	-0.000
260.85	-0.000
261.07	-0.000
261.28	-0.000
261.49	-0.000
261.71	-0.000
261.92	-0.000
262.13	-0.000
262.34	-0.000
262.56	-0.000
262.77	-0.000
262.98	-0.000
263.19	-0.000
263.41	-0.000
263.62	-0.000
263.83	-0.000
264.04	-0.000
264.26	-0.000
264.47	-0.000
264.68	-0.000
264.89	-0.000
265.11	-0.000
265.32	-0.000
265.53	-0.000
265.74	-0.000
265.96	-0.000
266.17	-0.000
266.38	-0.000
266.59	-0.000
266.81	-0.000
267.02	-0.000
267.23	-0.000
267.44	-0.000
267.65	-0.000
267.87	-0.000
268.08	-0.000
268.29	-0.000
268.50	-0.000
268.72	-0.000
268.93	-0.000
269.14	-0.000
269.35	-0.000
269.57	-0.000
269.78	-0.000
269.99	-0.000
270.20	-0.000
270.41	-0.000
270.63	-0.000
270.84	-0.000
271.05	-0.000
271.26	-0.000
271.48	-0.000
271.69	-0.000
271.90	-0.000
272.11	-0.000
272.32	-0.000
272.54	-0.000
272.75	-0.000
272.96	-0.000
273.17	-0.000
273.39	-0.000
273.60	-0.000
273.81	-0.000
274.02	-0.000
274.23	-0.000
274.45	-0.000
274.66	-0.000
274.87	-0.000
275.08	-0.000
275.29	-0.000
275.51	-0.000
275.72	-0.000
275.93	-0.000
276.14	-0.000
276.35	-0.000
276.57	-0.000
276.78	-0.000
276.99	-0.000
277.20	-0.000
277.41	-0.000
277.63	-0.000
277.84	-0.000
278.05	-0.000
278.26	-0.000
278.47	-0.000
278.69	-0.000
278.90	-0.000
279.11	-0.000
279.32	-0.000
279.53	-0.000
279.74	-0.000
279.96	-0.000
280.17	-0.000
280.38	-0.000
280.59	-0.000
280.80	-0.000
281.02	-0.000
281.23	-0.000
281.44	-0.000
281.65	-0.000
281.86	-0.000
282.07	-0.000
282.29	-0.000
282.50	-0.000
282.71	-0.000
282.92	-0.000
283.13	-0.000
283.35	-0.000
283.56	-0.000
283.77	-0.000
283.98	-0.000
284.19	-0.000
284.40	-0.000
284.62	-0.000
284.83	-0.000
285.04	-0.000
285.25	-0.000
285.46	-0.000
285.67	-0.000
285.88	-0.000
286.10	-0.000
286.31	-0.000
286.52	-0.000
286.73	-0.000
286.94	-0.000
287.15	-0.000
287.37	-0.000
287.58	-0.000
287.79	-0.000
288.00	-0.000
288.21	-0.000
288.42	-0.000
288.63	-0.000
288.85	-0.000
289.06	-0.000
289.27	-0.000
289.48	-0.000
289.69	-0.000
289.90	-0.000
290.11	-0.000
290.33	-0.000
290.54	-0.000
290.75	-0.000
290.96	-0.000
291.17	-0.000
291.38	-0.000
291.59	-0.000
291.81	-0.000
292.02	-0.000
292.23	-0.000
292.44	-0.000
292.65	-0.000
292.86	-0.000
293.07	-0.000
293.28	-0.000
293.50	-0.000
293.71	-0.000
293.92	-0.000
294.13	-0.000
294.34	-0.000
294.55	-0.000
294.76	-0.000
294.97	-0.000
295.19	-0.000
295.40	-0.000
295.61	-0.000
295.82	-0.000
296.03	-0.000
296.24	-0.000
296.45	-0.000
296.66	-0.000
296.87	-0.000
297.09	-0.000
297.30	-0.000
297.51	-0.000
297.72	3.097
297.93	-0.000
298.14	-0.000
298.35	-0.000
298.56	3.099
298.77	-0.000
298.99	-0.000
299.20	-0.000
299.41	-0.000
299.62	2.817
299.83	2.680
300.04	2.195
300.25	2.157
300.46	2.380
300.67	2.169
300.88	1.958
301.10	1.956
301.31	2.204
301.52	2.011
301.73	1.831
301.94	1.836
302.15	1.875
302.36	1.765
302.57	1.639
302.78	1.653
302.99	1.751
303.20	1.789
303.41	1.612
303.63	1.576
303.84	1.593
304.05	1.593
304.26	1.495
304.47	1.507
304.68	1.519
304.89	1.499
305.10	1.432
305.31	1.412
305.52	1.470
305.73	1.453
305.94	1.395
306.15	1.385
306.37	1.413
306.58	1.418
306.79	1.368
307.00	1.398
307.21	1.454
307.42	1.439
307.63	1.383
307.84	1.345
308.05	1.400
308.26	1.400
308.47	1.363
308.68	1.358
308.89	1.364
309.10	1.359
309.31	1.306
309.52	1.296
309.73	1.319
309.95	1.313
310.16	1.273
310.37	1.259
310.58	1.282
310.79	1.280
311.00	1.272
311.21	1.273
311.42	1.281
311.63	1.269
311.84	1.243
312.05	1.239
312.26	1.270
312.47	1.282
312.68	1.249
312.89	1.228
313.10	1.240
313.31	1.206
313.52	1.204
313.73	1.205
313.94	1.211
314.15	1.193
314.36	1.166
314.57	1.154
314.78	1.141
314.99	1.134
315.21	1.118
315.42	1.120
315.63	1.137
315.84	1.113
316.05	1.093
316.26	1.103
316.47	1.122
316.68	1.117
316.89	1.095
317.10	1.120
317.31	1.130
317.52	1.133
317.73	1.109
317.94	1.110
318.15	1.161
318.36	1.160
318.57	1.136
318.78	1.122
318.99	1.165
319.20	1.161
319.41	1.118
319.62	1.117
319.83	1.131
320.04	1.125
320.25	1.106
320.46	1.067
320.67	1.072
320.88	1.068
321.09	1.050
321.30	1.035
321.51	1.053
321.72	1.048
321.93	1.030
322.14	1.022
322.35	1.052
322.56	1.055
322.77	1.039
322.98	1.051
323.19	1.062
323.40	1.069
323.61	1.042
323.82	1.037
324.03	1.045
324.24	1.040
324.45	1.024
324.66	1.003
324.87	1.001
325.08	1.001
325.29	0.979
325.50	0.969
325.71	0.975
325.92	0.984
326.13	0.967
326.34	0.969
326.55	0.979
326.76	0.977
326.97	0.964
327.18	0.958
327.39	0.984
327.60	0.984
327.80	0.985
328.01	0.982
328.22	0.983
328.43	0.987
328.64	0.974
328.85	0.978
329.06	0.982
329.27	0.982
329.48	0.974
329.69	0.955
329.90	0.968
330.11	0.960
330.32	0.952
330.53	0.944
330.74	0.946
330.95	0.943
331.16	0.926
331.37	0.934
331.58	0.935
331.79	0.934
332.00	0.924
332.21	0.916
332.42	0.920
332.63	0.911
332.83	0.904
333.04	0.905
333.25	0.919
333.46	0.917
333.67	0.902
333.88	0.905
334.09	0.916
334.30	0.913
334.51	0.903
334.72	0.900
334.93	0.905
335.14	0.905
335.35	0.896
335.56	0.891
335.77	0.902
335.98	0.901
336.18	0.892
336.39	0.885
336.60	0.890
336.81	0.888
337.02	0.885
337.23	0.889
337.44	0.893
337.65	0.895
337.86	0.883
338.07	0.877
338.28	0.883
338.49	0.882
338.70	0.872
338.91	0.879
339.11	0.888
339.32	0.884
339.53	0.870
339.74	0.867
339.95	0.864
340.16	0.862
340.37	0.853
340.58	0.851
340.79	0.856
341.00	0.856
341.21	0.844
341.41	0.844
341.62	0.847
341.83	0.848
342.04	0.842
342.25	0.852
342.46	0.859
342.67	0.858
342.88	0.850
343.09	0.849
343.30	0.856
343.50	0.860
343.71	0.849
343.92	0.847
344.13	0.853
344.34	0.852
344.55	0.836
344.76	0.833
344.97	0.838
345.18	0.836
345.38	0.833
345.59	0.828
345.80	0.828
346.01	0.826
346.22	0.820
346.43	0.814
346.64	0.824
346.85	0.823
347.06	0.815
347.26	0.815
347.47	0.821
347.68	0.816
347.89	0.811
348.10	0.806
348.31	0.813
348.52	0.813
348.73	0.809
348.93	0.806
349.14	0.809
349.35	0.808
349.56	0.802
349.77	0.797
349.98	0.803
350.19	0.800
350.39	0.794
350.60	0.791
350.81	0.808
351.02	0.807
351.23	0.801
351.44	0.804
351.65	0.808
351.86	0.807
352.06	0.805
352.27	0.804
352.48	0.807
352.69	0.806
352.90	0.800
353.11	0.786
353.31	0.795
353.52	0.791
353.73	0.781
353.94	0.783
354.15	0.789
354.36	0.789
354.57	0.780
354.77	0.782
354.98	0.783
355.19	0.782
355.40	0.780
355.61	0.785
355.82	0.790
356.02	0.790
356.23	0.783
356.44	0.785
356.65	0.788
356.86	0.789
357.07	0.780
357.27	0.784
357.48	0.788
357.69	0.784
357.90	0.767
358.11	0.765
358.32	0.769
358.52	0.771
358.73	0.761
358.94	0.763
359.15	0.769
359.36	0.771
359.56	0.765
359.77	0.761
359.98	0.767
360.19	0.768
360.40	0.764
360.61	0.763
360.81	0.763
361.02	0.763
361.23	0.754
361.44	0.753
361.65	0.754
361.85	0.753
362.06	0.751
362.27	0.754
362.48	0.755
362.69	0.757
362.89	0.751
363.10	0.752
363.31	0.757
363.52	0.761
363.73	0.756
363.93	0.756
364.14	0.759
364.35	0.761
364.56	0.750
364.77	0.752
364.97	0.755
365.18	0.755
365.39	0.750
365.60	0.747
365.81	0.748
366.01	0.747
366.22	0.744
366.43	0.743
366.64	0.745
366.84	0.751
367.05	0.747
367.26	0.745
367.47	0.748
367.68	0.748
367.88	0.743
368.09	0.741
368.30	0.744
368.51	0.744
368.71	0.743
368.92	0.747
369.13	0.745
369.34	0.744
369.55	0.743
369.75	0.743
369.96	0.751
370.17	0.751
370.38	0.747
370.58	0.746
370.79	0.752
371.00	0.751
371.21	0.741
371.41	0.746
371.62	0.751
371.83	0.746
372.04	0.744
372.24	0.735
372.45	0.737
372.66	0.737
372.87	0.733
373.07	0.730
373.28	0.731
373.49	0.735
373.70	0.725
373.90	0.723
374.11	0.733
374.32	0.733
374.53	0.732
374.73	0.732
374.94	0.735
375.15	0.736
375.36	0.733
375.56	0.741
375.77	0.742
375.98	0.742
376.19	0.739
376.39	0.733
376.60	0.737
376.81	0.738
377.02	0.735
377.22	0.733
377.43	0.733
377.64	0.732
377.84	0.723
378.05	0.726
378.26	0.732
378.47	0.732
378.67	0.727
378.88	0.724
379.09	0.725
379.30	0.726
379.50	0.723
379.71	0.726
379.92	0.730
380.12	0.729
380.33	0.720
380.54	0.717
380.75	0.724
380.95	0.724
381.16	0.721
381.37	0.721
381.57	0.723
381.78	0.724
381.99	0.723
382.20	0.722
382.40	0.726
382.61	0.727
382.82	0.723
383.02	0.716
383.23	0.720
383.44	0.721
383.64	0.718
383.85	0.720
384.06	0.723
384.27	0.721
384.47	0.717
384.68	0.717
384.89	0.723
385.09	0.722
385.30	0.721
385.51	0.719
385.71	0.723
385.92	0.724
386.13	0.722
386.33	0.724
386.54	0.725
386.75	0.724
386.95	0.719
387.16	0.714
387.37	0.716
387.58	0.717
387.78	0.714
387.99	0.712
388.20	0.713
388.40	0.710
388.61	0.705
388.82	0.708
389.02	0.712
389.23	0.712
389.44	0.710
389.64	0.710
389.85	0.722
390.06	0.721
390.26	0.721
390.47	0.720
390.68	0.723
390.88	0.721
391.09	0.716
391.30	0.714
391.50	0.714
391.71	0.714
391.92	0.711
392.12	0.703
392.33	0.704
392.53	0.704
392.74	0.704
392.95	0.703
393.15	0.706
393.36	0.708
393.57	0.705
393.77	0.708
393.98	0.710
394.19	0.710
394.39	0.708
394.60	0.709
394.81	0.711
395.01	0.709
395.22	0.706
395.43	0.707
395.63	0.712
395.84	0.713
396.04	0.708
396.25	0.711
396.46	0.713
396.66	0.711
396.87	0.708
397.08	0.704
397.28	0.706
397.49	0.708
397.69	0.705
397.90	0.700
398.11	0.701
398.31	0.702
398.52	0.697
398.73	0.698
398.93	0.698
399.14	0.697
399.34	0.696
399.55	0.697
399.76	0.697
399.96	0.698
400.17	0.696
400.37	0.694
400.58	0.701
400.79	0.702
400.99	0.699
401.20	0.704
401.41	0.707
401.61	0.707
401.82	0.712
402.02	0.711
402.23	0.711
402.44	0.711
402.64	0.711
402.85	0.705
403.05	0.704
403.26	0.703
403.47	0.696
403.67	0.695
403.88	0.696
404.08	0.690
404.29	0.688
404.50	0.688
404.70	0.688
404.91	0.687
405.11	0.683
405.32	0.684
405.52	0.684
405.73	0.684
405.94	0.682
406.14	0.685
406.35	0.687
406.55	0.687
406.76	0.684
406.97	0.685
407.17	0.688
407.38	0.687
407.58	0.685
407.79	0.687
407.99	0.690
408.20	0.690
408.41	0.686
408.61	0.684
408.82	0.686
409.02	0.686
409.23	0.684
409.43	0.682
409.64	0.684
409.84	0.684
410.05	0.681
410.26	0.680
410.46	0.679
410.67	0.678
410.87	0.679
411.08	0.681
411.28	0.683
411.49	0.684
411.69	0.681
411.90	0.682
412.11	0.684
412.31	0.685
412.52	0.683
412.72	0.684
412.93	0.686
413.13	0.685
413.34	0.681
413.54	0.682
413.75	0.684
413.95	0.684
414.16	0.681
414.37	0.683
414.57	0.684
414.78	0.686
414.98	0.684
415.19	0.685
415.39	0.683
415.60	0.685
415.80	0.683
416.01	0.682
416.21	0.684
416.42	0.684
416.62	0.679
416.83	0.678
417.03	0.678
417.24	0.678
417.44	0.676
417.65	0.675
417.86	0.675
418.06	0.674
418.27	0.672
418.47	0.673
418.68	0.675
418.88	0.675
419.09	0.673
419.29	0.674
419.50	0.674
419.70	0.674
419.91	0.673
420.11	0.671
420.32	0.673
420.52	0.673
420.73	0.672
420.93	0.673
421.14	0.675
421.34	0.673
421.55	0.670
421.75	0.670
421.96	0.671
422.16	0.672
422.37	0.670
422.57	0.668
422.78	0.670
422.98	0.667
423.19	0.665
423.39	0.663
423.60	0.667
423.80	0.668
424.01	0.667
424.21	0.669
424.42	0.670
424.62	0.670
424.83	0.669
425.03	0.669
425.23	0.672
425.44	0.671
425.64	0.671
425.85	0.670
426.05	0.671
426.26	0.671
426.46	0.668
426.67	0.667
426.87	0.673
427.08	0.673
427.28	0.670
427.49	0.671
427.69	0.672
427.90	0.671
428.10	0.668
428.31	0.667
428.51	0.669
428.71	0.668
428.92	0.669
429.12	0.666
429.33	0.667
429.53	0.671
429.74	0.675
429.94	0.676
430.15	0.676
430.35	0.677
430.56	0.673
430.76	0.673
430.96	0.674
431.17	0.672
431.37	0.669
431.58	0.668
431.78	0.666
431.99	0.658
432.19	0.660
432.40	0.662
432.60	0.663
432.80	0.665
433.01	0.663
433.21	0.663
433.42	0.665
433.62	0.665
433.83	0.665
434.03	0.667
434.23	0.670
434.44	0.670
434.64	0.667
434.85	0.672
435.05	0.674
435.26	0.674
435.46	0.672
435.66	0.672
435.87	0.672
436.07	0.672
436.28	0.668
436.48	0.665
436.69	0.665
436.89	0.665
437.09	0.658
437.30	0.657
437.50	0.658
437.71	0.670
437.91	0.669
438.11	0.671
438.32	0.675
438.52	0.675
438.73	0.674
438.93	0.672
439.13	0.672
439.34	0.676
439.54	0.674
439.75	0.674
439.95	0.664
440.15	0.668
440.36	0.666
440.56	0.664
440.77	0.666
440.97	0.666
441.17	0.665
441.38	0.666
441.58	0.663
441.79	0.663
441.99	0.661
442.19	0.661
442.40	0.659
442.60	0.659
442.81	0.657
443.01	0.657
443.21	0.658
443.42	0.658
443.62	0.656
443.82	0.656
444.03	0.658
444.23	0.657
444.44	0.657
444.64	0.656
444.84	0.658
445.05	0.657
445.25	0.655
445.45	0.656
445.66	0.659
445.86	0.658
446.06	0.659
446.27	0.658
446.47	0.662
446.68	0.660
446.88	0.659
447.08	0.658
447.29	0.660
447.49	0.660
447.69	0.660
447.90	0.658
448.10	0.662
448.30	0.660
448.51	0.661
448.71	0.659
448.91	0.662
449.12	0.661
449.32	0.662
449.52	0.662
449.73	0.665
449.93	0.664
450.14	0.665
450.34	0.663
450.54	0.666
450.75	0.662
450.95	0.662
451.15	0.661
451.36	0.664
451.56	0.661
451.76	0.660
451.97	0.657
452.17	0.658
452.37	0.657
452.58	0.653
452.78	0.653
452.98	0.656
453.19	0.655
453.39	0.655
453.59	0.653
453.79	0.654
454.00	0.655
454.20	0.654
454.40	0.654
454.61	0.656
454.81	0.657
455.01	0.656
455.22	0.656
455.42	0.659
455.62	0.656
455.83	0.656
456.03	0.659
456.23	0.660
456.44	0.661
456.64	0.659
456.84	0.659
457.04	0.660
457.25	0.659
457.45	0.656
457.65	0.655
457.86	0.656
458.06	0.655
458.26	0.650
458.47	0.650
458.67	0.652
458.87	0.652
459.07	0.649
459.28	0.651
459.48	0.654
459.68	0.654
459.89	0.653
460.09	0.653
460.29	0.654
460.49	0.655
460.70	0.653
460.90	0.652
461.10	0.654
461.31	0.653
461.51	0.650
461.71	0.651
461.91	0.653
462.12	0.653
462.32	0.652
462.52	0.653
462.72	0.656
462.93	0.656
463.13	0.655
463.33	0.655
463.53	0.657
463.74	0.656
463.94	0.652
464.14	0.653
464.35	0.654
464.55	0.655
464.75	0.653
464.95	0.650
465.16	0.653
465.36	0.652
465.56	0.651
465.76	0.651
465.97	0.651
466.17	0.652
466.37	0.649
466.57	0.651
466.78	0.652
466.98	0.652
467.18	0.650
467.38	0.649
467.59	0.651
467.79	0.653
467.99	0.652
468.19	0.653
468.39	0.656
468.60	0.656
468.80	0.654
469.00	0.656
469.20	0.657
469.41	0.657
469.61	0.656
469.81	0.656
470.01	0.655
470.22	0.656
470.42	0.653
470.62	0.652
470.82	0.653
471.02	0.652
471.23	0.650
471.43	0.650
471.63	0.653
471.83	0.652
472.04	0.650
472.24	0.649
472.44	0.654
472.64	0.654
472.84	0.652
473.05	0.652
473.25	0.655
473.45	0.654
473.65	0.651
473.85	0.652
474.06	0.654
474.26	0.654
474.46	0.655
474.66	0.652
474.86	0.653
475.07	0.653
475.27	0.651
475.47	0.648
475.67	0.649
475.87	0.651
476.08	0.648
476.28	0.649
476.48	0.651
476.68	0.649
476.88	0.647
477.09	0.648
477.29	0.650
477.49	0.650
477.69	0.649
477.89	0.649
478.09	0.649
478.30	0.651
478.50	0.647
478.70	0.647
478.90	0.647
479.10	0.650
479.31	0.650
479.51	0.648
479.71	0.649
479.91	0.650
480.11	0.648
480.31	0.649
480.52	0.648
480.72	0.648
480.92	0.647
481.12	0.646
481.32	0.644
481.52	0.642
481.72	0.642
481.93	0.645
482.13	0.646
482.33	0.645
482.53	0.643
482.73	0.643
482.93	0.645
483.14	0.644
483.34	0.643
483.54	0.644
483.74	0.644
483.94	0.643
484.14	0.638
484.34	0.638
484.55	0.638
484.75	0.638
484.95	0.636
485.15	0.636
485.35	0.636
485.55	0.636
485.75	0.633
485.96	0.634
486.16	0.636
486.36	0.636
486.56	0.634
486.76	0.635
486.96	0.635
487.16	0.635
487.36	0.633
487.57	0.633
487.77	0.634
487.97	0.635
488.17	0.633
488.37	0.632
488.57	0.633
488.77	0.633
488.97	0.632
489.18	0.631
489.38	0.633
489.58	0.634
489.78	0.633
489.98	0.633
490.18	0.633
490.38	0.633
490.58	0.632
490.78	0.632
490.98	0.634
491.19	0.634
491.39	0.634
491.59	0.633
491.79	0.636
491.99	0.636
492.19	0.635
492.39	0.639
492.59	0.639
492.79	0.641
492.99	0.640
493.20	0.641
493.40	0.641
493.60	0.642
493.80	0.640
494.00	0.638
494.20	0.639
494.40	0.639
494.60	0.636
494.80	0.640
495.00	0.640
495.20	0.638
495.40	0.637
495.61	0.639
495.81	0.638
496.01	0.642
496.21	0.643
496.41	0.642
496.61	0.643
496.81	0.642
497.01	0.636
497.21	0.635
497.41	0.636
497.61	0.636
497.81	0.633
498.01	0.634
498.21	0.631
498.41	0.630
498.61	0.630
498.82	0.632
499.02	0.634
499.22	0.635
499.42	0.634
499.62	0.635
499.82	0.637
500.02	0.638
500.22	0.636
500.42	0.639
500.62	0.639
500.82	0.640
501.02	0.637
501.22	0.637
501.42	0.636
501.62	0.638
501.82	0.638
502.02	0.637
502.22	0.637
502.42	0.639
502.62	0.635
502.82	0.635
503.02	0.636
503.22	0.636
503.42	0.634
503.63	0.634
503.83	0.632
504.03	0.631
504.23	0.630
504.43	0.630
504.63	0.632
504.83	0.632
505.03	0.631
505.23	0.632
505.43	0.634
505.63	0.635
505.83	0.634
506.03	0.636
506.23	0.639
506.43	0.639
506.63	0.638
506.83	0.636
507.03	0.638
507.23	0.639
507.43	0.636
507.63	0.636
507.83	0.637
508.03	0.637
508.23	0.636
508.43	0.635
508.63	0.637
508.83	0.638
509.03	0.639
509.23	0.638
509.43	0.640
509.63	0.640
509.83	0.639
510.03	0.642
510.23	0.644
510.43	0.644
510.63	0.645
510.83	0.644
511.03	0.645
511.23	0.642
511.43	0.642
511.63	0.643
511.83	0.646
512.03	0.646
512.22	0.642
512.42	0.641
512.62	0.643
512.82	0.642
513.02	0.641
513.22	0.641
513.42	0.644
513.62	0.646
513.82	0.644
514.02	0.644
514.22	0.645
514.42	0.646
514.62	0.645
514.82	0.645
515.02	0.648
515.22	0.651
515.42	0.650
515.62	0.652
515.82	0.651
516.02	0.653
516.22	0.652
516.42	0.653
516.62	0.656
516.82	0.657
517.01	0.655
517.21	0.654
517.41	0.658
517.61	0.659
517.81	0.654
518.01	0.653
518.21	0.653
518.41	0.652
518.61	0.650
518.81	0.651
519.01	0.651
519.21	0.652
519.41	0.650
519.61	0.644
519.81	0.647
520.00	0.648
520.20	0.649
520.40	0.652
520.60	0.652
520.80	0.652
521.00	0.652
521.20	0.654
521.40	0.659
521.60	0.660
521.80	0.658
522.00	0.659
522.20	0.661
522.39	0.660
522.59	0.657
522.79	0.659
522.99	0.661
523.19	0.658
523.39	0.655
523.59	0.654
523.79	0.657
523.99	0.660
524.19	0.658
524.38	0.657
524.58	0.659
524.78	0.660
524.98	0.658
525.18	0.661
525.38	0.663
525.58	0.663
525.78	0.660
525.98	0.658
526.18	0.658
526.37	0.657
526.57	0.659
526.77	0.659
526.97	0.659
527.17	0.659
527.37	0.654
527.57	0.656
527.77	0.658
527.96	0.659
528.16	0.658
528.36	0.659
528.56	0.662
528.76	0.659
528.96	0.657
529.16	0.659
529.36	0.663
529.55	0.663
529.75	0.659
529.95	0.659
530.15	0.662
530.35	0.664
530.55	0.661
530.75	0.662
530.94	0.664
531.14	0.664
531.34	0.661
531.54	0.659
531.74	0.662
531.94	0.666
532.13	0.664
532.33	0.665
532.53	0.664
532.73	0.663
532.93	0.661
533.13	0.663
533.33	0.663
533.52	0.664
533.72	0.667
533.92	0.665
534.12	0.664
534.32	0.664
534.52	0.662
534.71	0.663
534.91	0.666
535.11	0.667
535.31	0.666
535.51	0.668
535.71	0.670
535.90	0.668
536.10	0.669
536.30	0.671
536.50	0.672
536.70	0.672
536.89	0.670
537.09	0.670
537.29	0.672
537.49	0.671
537.69	0.669
537.89	0.669
538.08	0.669
538.28	0.667
538.48	0.667
538.68	0.669
538.88	0.671
539.07	0.670
539.27	0.668
539.47	0.667
539.67	0.668
539.87	0.670
540.06	0.667
540.26	0.669
540.46	0.671
540.66	0.668
540.86	0.666
541.05	0.666
541.25	0.667
541.45	0.668
541.65	0.666
541.84	0.668
542.04	0.669
542.24	0.669
542.44	0.668
542.64	0.668
542.83	0.672
543.03	0.672
543.23	0.669
543.43	0.671
543.62	0.672
543.82	0.673
544.02	0.671
544.22	0.671
544.42	0.675
544.61	0.675
544.81	0.672
545.01	0.672
545.21	0.674
545.40	0.675
545.60	0.672
545.80	0.676
546.00	0.676
546.19	0.676
546.39	0.674
546.59	0.672
546.79	0.673
546.98	0.673
547.18	0.672
547.38	0.672
547.58	0.675
547.77	0.676
547.97	0.672
548.17	0.673
548.37	0.674
548.56	0.674
548.76	0.673
548.96	0.675
549.16	0.678
549.35	0.678
549.55	0.676
549.75	0.677
549.95	0.681
550.14	0.681
550.34	0.679
550.54	0.684
550.73	0.688
550.93	0.688
551.13	0.684
551.33	0.682
551.52	0.683
551.72	0.684
551.92	0.681
552.12	0.681
552.31	0.683
552.51	0.682
552.71	0.677
552.90	0.677
553.10	0.679
553.30	0.679
553.50	0.679
553.69	0.680
553.89	0.681
554.09	0.681
554.28	0.677
554.48	0.679
554.68	0.681
554.87	0.681
555.07	0.677
555.27	0.677
555.47	0.679
555.66	0.679
555.86	0.677
556.06	0.680
556.25	0.682
556.45	0.689
556.65	0.687
556.84	0.691
557.04	0.694
557.24	0.697
557.43	0.696
557.63	0.699
557.83	0.701
558.02	0.701
558.22	0.705
558.42	0.705
558.61	0.697
558.81	0.698
559.01	0.693
559.21	0.693
559.40	0.694
559.60	0.694
559.80	0.690
559.99	0.691
560.19	0.693
560.39	0.687
560.58	0.685
560.78	0.686
560.97	0.689
561.17	0.688
561.37	0.685
561.56	0.686
561.76	0.688
561.96	0.688
562.15	0.685
562.35	0.688
562.55	0.689
562.74	0.689
562.94	0.687
563.14	0.686
563.33	0.687
563.53	0.688
563.73	0.684
563.92	0.685
564.12	0.688
564.31	0.691
564.51	0.689
564.71	0.691
564.90	0.694
565.10	0.694
565.30	0.696
565.49	0.697
565.69	0.700
565.89	0.701
566.08	0.697
566.28	0.699
566.47	0.700
566.67	0.698
566.87	0.695
567.06	0.697
567.26	0.704
567.46	0.700
567.65	0.699
567.85	0.700
568.04	0.702
568.24	0.702
568.44	0.698
568.63	0.696
568.83	0.698
569.02	0.696
569.22	0.691
569.42	0.687
569.61	0.689
569.81	0.688
570.00	0.685
570.20	0.687
570.40	0.688
570.59	0.688
570.79	0.686
570.98	0.684
571.18	0.686
571.38	0.686
571.57	0.682
571.77	0.680
571.96	0.684
572.16	0.681
572.35	0.676
572.55	0.676
572.75	0.675
572.94	0.674
573.14	0.672
573.33	0.672
573.53	0.673
573.73	0.672
573.92	0.670
574.12	0.668
574.31	0.671
574.51	0.671
574.70	0.668
574.90	0.669
575.09	0.672
575.29	0.673
575.49	0.670
575.68	0.671
575.88	0.673
576.07	0.674
576.27	0.672
576.46	0.671
576.66	0.671
576.86	0.670
577.05	0.668
577.25	0.667
577.44	0.668
577.64	0.668
577.83	0.665
578.03	0.666
578.22	0.665
578.42	0.664
578.61	0.662
578.81	0.663
579.00	0.664
579.20	0.663
579.40	0.662
579.59	0.661
579.79	0.662
579.98	0.661
580.18	0.661
580.37	0.662
580.57	0.664
580.76	0.669
580.96	0.666
581.15	0.667
581.35	0.669
581.54	0.668
581.74	0.667
581.93	0.669
582.13	0.670
582.32	0.668
582.52	0.666
582.71	0.665
582.91	0.661
583.10	0.661
583.30	0.660
583.49	0.659
583.69	0.664
583.88	0.665
584.08	0.664
584.27	0.666
584.47	0.670
584.66	0.671
584.86	0.669
585.05	0.671
585.25	0.673
585.44	0.673
585.64	0.671
585.83	0.667
586.03	0.668
586.22	0.667
586.42	0.663
586.61	0.665
586.81	0.668
587.00	0.668
587.20	0.666
587.39	0.666
587.59	0.669
587.78	0.670
587.98	0.671
588.17	0.672
588.37	0.674
588.56	0.676
588.76	0.672
588.95	0.672
589.15	0.676
589.34	0.678
589.54	0.677
589.73	0.677
589.92	0.681
590.12	0.680
590.31	0.677
590.51	0.682
590.70	0.684
590.90	0.684
591.09	0.682
591.29	0.681
591.48	0.681
591.68	0.681
591.87	0.679
592.06	0.679
592.26	0.682
592.45	0.681
592.65	0.674
592.84	0.674
593.04	0.677
593.23	0.680
593.43	0.676
593.62	0.676
593.81	0.676
594.01	0.676
594.20	0.674
594.40	0.673
594.59	0.676
594.79	0.677
594.98	0.675
595.17	0.674
595.37	0.675
595.56	0.678
595.76	0.676
595.95	0.678
596.14	0.681
596.34	0.682
596.53	0.679
596.73	0.681
596.92	0.682
597.12	0.685
597.31	0.684
597.50	0.684
597.70	0.686
597.89	0.685
598.09	0.681
598.28	0.683
598.47	0.686
598.67	0.685
598.86	0.680
599.06	0.682
599.25	0.682
599.44	0.680
599.64	0.677
599.83	0.675
600.03	0.679
600.22	0.680
600.41	0.679
600.61	0.676
600.80	0.680
601.00	0.680
601.19	0.676
601.38	0.674
601.58	0.678
601.77	0.679
601.96	0.681
602.16	0.680
602.35	0.690
602.55	0.687
602.74	0.687
602.93	0.689
603.13	0.695
603.32	0.696
603.51	0.695
603.71	0.697
603.90	0.700
604.09	0.700
604.29	0.697
604.48	0.691
604.68	0.693
604.87	0.692
605.06	0.687
605.26	0.684
605.45	0.685
605.64	0.685
605.84	0.680
606.03	0.679
606.22	0.679
606.42	0.678
606.61	0.674
606.80	0.674
607.00	0.676
607.19	0.676
607.38	0.675
607.58	0.676
607.77	0.679
607.96	0.679
608.16	0.677
608.35	0.682
608.54	0.685
608.74	0.690
608.93	0.694
609.12	0.697
609.32	0.700
609.51	0.703
609.70	0.702
609.90	0.704
610.09	0.709
610.28	0.715
610.48	0.708
610.67	0.710
610.86	0.711
611.06	0.705
611.25	0.702
611.44	0.703
611.64	0.702
611.83	0.705
612.02	0.700
612.21	0.699
612.41	0.698
612.60	0.696
612.79	0.691
612.99	0.691
613.18	0.694
613.37	0.692
613.57	0.689
613.76	0.691
613.95	0.689
614.14	0.689
614.34	0.687
614.53	0.688
614.72	0.692
614.92	0.692
615.11	0.689
615.30	0.686
615.49	0.689
615.69	0.692
615.88	0.687
616.07	0.689
616.26	0.692
616.46	0.693
616.65	0.689
616.84	0.688
617.04	0.690
617.23	0.693
617.42	0.693
617.61	0.697
617.81	0.698
618.00	0.699
618.19	0.698
618.38	0.701
618.58	0.705
618.77	0.706
618.96	0.705
619.15	0.708
619.35	0.710
619.54	0.711
619.73	0.706
619.92	0.707
620.12	0.713
620.31	0.713
620.50	0.707
620.69	0.708
620.89	0.712
621.08	0.711
621.27	0.710
621.46	0.709
621.66	0.714
621.85	0.714
622.04	0.710
622.23	0.710
622.43	0.712
622.62	0.711
622.81	0.709
623.00	0.708
623.19	0.713
623.39	0.712
623.58	0.709
623.77	0.707
623.96	0.710
624.16	0.710
624.35	0.705
624.54	0.709
624.73	0.715
624.92	0.713
625.12	0.710
625.31	0.710
625.50	0.714
625.69	0.715
625.88	0.711
626.08	0.711
626.27	0.713
626.46	0.713
626.65	0.709
626.84	0.709
627.04	0.714
627.23	0.714
627.42	0.708
627.61	0.710
627.80	0.714
628.00	0.714
628.19	0.712
628.38	0.716
628.57	0.719
628.76	0.718
628.96	0.715
629.15	0.716
629.34	0.720
629.53	0.720
629.72	0.714
629.91	0.715
630.11	0.721
630.30	0.721
630.49	0.722
630.68	0.722
630.87	0.726
631.06	0.728
631.26	0.723
631.45	0.725
631.64	0.734
631.83	0.736
632.02	0.732
632.21	0.731
632.41	0.740
632.60	0.735
632.79	0.733
632.98	0.734
633.17	0.735
633.36	0.737
633.55	0.732
633.75	0.728
633.94	0.732
634.13	0.733
634.32	0.729
634.51	0.723
634.70	0.725
634.89	0.725
635.09	0.720
635.28	0.721
635.47	0.722
635.66	0.725
635.85	0.720
636.04	0.721
636.23	0.727
636.43	0.728
636.62	0.726
636.81	0.726
637.00	0.730
637.19	0.734
637.38	0.729
637.57	0.729
637.76	0.731
637.95	0.733
638.15	0.728
638.34	0.724
638.53	0.729
638.72	0.731
638.91	0.727
639.10	0.724
639.29	0.725
639.48	0.726
639.67	0.726
639.87	0.726
640.06	0.731
640.25	0.730
640.44	0.729
640.63	0.730
640.82	0.733
641.01	0.732
641.20	0.732
641.39	0.732
641.58	0.735
641.78	0.733
641.97	0.728
642.16	0.743
642.35	0.745
642.54	0.744
642.73	0.737
642.92	0.735
643.11	0.741
643.30	0.740
643.49	0.735
643.68	0.738
643.87	0.742
644.06	0.742
644.25	0.720
644.45	0.722
644.64	0.724
644.83	0.725
645.02	0.721
645.21	0.720
645.40	0.722
645.59	0.722
645.78	0.715
645.97	0.717
646.16	0.719
646.35	0.718
646.54	0.716
646.73	0.718
646.92	0.721
647.11	0.720
647.30	0.716
647.49	0.717
647.68	0.717
647.88	0.715
648.07	0.707
648.26	0.710
648.45	0.712
648.64	0.708
648.83	0.704
649.02	0.706
649.21	0.717
649.40	0.716
649.59	0.710
649.78	0.711
649.97	0.727
650.16	0.727
650.35	0.720
650.54	0.722
650.73	0.732
650.92	0.729
651.11	0.722
651.30	0.720
651.49	0.724
651.68	0.726
651.87	0.721
652.06	0.710
652.25	0.715
652.44	0.717
652.63	0.712
652.82	0.710
653.01	0.710
653.20	0.707
653.39	0.694
653.58	0.691
653.77	0.690
653.96	0.686
654.15	0.676
654.34	0.674
654.53	0.670
654.72	0.665
654.91	0.655
655.10	0.652
655.29	0.650
655.48	0.648
655.67	0.643
655.86	0.640
656.05	0.639
656.24	0.640
656.43	0.634
656.62	0.633
656.81	0.634
657.00	0.632
657.19	0.630
657.38	0.630
657.57	0.631
657.76	0.633
657.95	0.631
658.14	0.635
658.33	0.638
658.51	0.644
658.70	0.645
658.89	0.647
659.08	0.656
659.27	0.664
659.46	0.663
659.65	0.669
659.84	0.673
660.03	0.676
660.22	0.677
660.41	0.680
660.60	0.680
660.79	0.682
660.98	0.687
661.17	0.687
661.36	0.687
661.55	0.687
661.74	0.683
661.92	0.686
662.11	0.689
662.30	0.686
662.49	0.679
662.68	0.679
662.87	0.683
663.06	0.676
663.25	0.675
663.44	0.676
663.63	0.678
663.82	0.677
664.01	0.672
664.20	0.670
664.38	0.672
664.57	0.673
664.76	0.672
664.95	0.672
665.14	0.679
665.33	0.673
665.52	0.680
665.71	0.685
665.90	0.685
666.09	0.686
666.28	0.684
666.46	0.683
666.65	0.684
666.84	0.681
667.03	0.674
667.22	0.672
667.41	0.676
667.60	0.665
667.79	0.657
667.98	0.658
668.16	0.660
668.35	0.659
668.54	0.655
668.73	0.656
668.92	0.658
669.11	0.658
669.30	0.651
669.49	0.647
669.67	0.649
669.86	0.651
670.05	0.648
670.24	0.646
670.43	0.644
670.62	0.643
670.81	0.638
671.00	0.639
671.18	0.639
671.37	0.639
671.56	0.636
671.75	0.636
671.94	0.633
672.13	0.631
672.32	0.626
672.50	0.625
672.69	0.626
672.88	0.625
673.07	0.620
673.26	0.622
673.45	0.623
673.63	0.624
673.82	0.620
674.01	0.622
674.20	0.621
674.39	0.621
674.58	0.620
674.76	0.620
674.95	0.619
675.14	0.619
675.33	0.614
675.52	0.613
675.71	0.612
675.89	0.611
676.08	0.606
676.27	0.607
676.46	0.608
676.65	0.608
676.84	0.606
677.02	0.608
677.21	0.610
677.40	0.610
677.59	0.607
677.78	0.608
677.96	0.611
678.15	0.610
678.34	0.607
678.53	0.608
678.72	0.608
678.90	0.605
679.09	0.601
679.28	0.597
679.47	0.597
679.66	0.597
679.84	0.593
680.03	0.590
680.22	0.589
680.41	0.591
680.60	0.587
680.78	0.587
680.97	0.590
681.16	0.590
681.35	0.589
681.53	0.588
681.72	0.589
681.91	0.591
682.10	0.590
682.29	0.593
682.47	0.590
682.66	0.589
682.85	0.587
683.04	0.585
683.22	0.585
683.41	0.586
683.60	0.584
683.79	0.585
683.97	0.585
684.16	0.583
684.35	0.579
684.54	0.581
684.72	0.582
684.91	0.583
685.10	0.581
685.29	0.583
685.47	0.581
685.66	0.580
685.85	0.576
686.04	0.576
686.22	0.579
686.41	0.582
686.60	0.579
686.79	0.582
686.97	0.583
687.16	0.584
687.35	0.580
687.54	0.584
687.72	0.588
687.91	0.588
688.10	0.590
688.29	0.588
688.47	0.587
688.66	0.586
688.85	0.581
689.03	0.578
689.22	0.584
689.41	0.585
689.60	0.580
689.78	0.577
689.97	0.578
690.16	0.575
690.34	0.572
690.53	0.571
690.72	0.572
690.91	0.570
691.09	0.568
691.28	0.562
691.47	0.560
691.65	0.559
691.84	0.556
692.03	0.555
692.21	0.552
692.40	0.552
692.59	0.550
692.77	0.548
692.96	0.550
693.15	0.551
693.34	0.548
693.52	0.548
693.71	0.549
693.90	0.550
694.08	0.551
694.27	0.552
694.46	0.562
694.64	0.564
694.83	0.563
695.02	0.562
695.20	0.561
695.39	0.562
695.58	0.561
695.76	0.562
695.95	0.562
696.14	0.561
696.32	0.558
696.51	0.548
696.70	0.548
696.88	0.549
697.07	0.547
697.26	0.549
697.44	0.550
697.63	0.549
697.81	0.547
698.00	0.546
698.19	0.545
698.37	0.546
698.56	0.545
698.75	0.545
698.93	0.544
699.12	0.544
699.31	0.542
699.49	0.542
699.68	0.543
699.87	0.545
700.05	0.545
700.24	0.544
700.42	0.545
700.61	0.544
700.80	0.542
700.98	0.543
701.17	0.545
701.36	0.544
701.54	0.543
701.73	0.544
701.91	0.542
702.10	0.542
702.29	0.540
702.47	0.540
702.66	0.541
702.84	0.542
703.03	0.540
703.22	0.542
703.40	0.543
703.59	0.544
703.77	0.543
703.96	0.543
704.15	0.544
704.33	0.543
704.52	0.542
704.70	0.542
704.89	0.542
705.08	0.541
705.26	0.536
705.45	0.536
705.63	0.536
705.82	0.533
706.00	0.531
706.19	0.530
706.38	0.531
706.56	0.530
706.75	0.527
706.93	0.527
707.12	0.528
707.30	0.528
707.49	0.526
707.68	0.524
707.86	0.523
708.05	0.524
708.23	0.521
708.42	0.521
708.60	0.525
708.79	0.525
708.98	0.523
709.16	0.523
709.35	0.525
709.53	0.529
709.72	0.528
709.90	0.530
710.09	0.533
710.27	0.535
710.46	0.538
710.64	0.536
710.83	0.538
711.02	0.540
711.20	0.538
711.39	0.536
711.57	0.534
711.76	0.534
711.94	0.531
712.13	0.532
712.31	0.531
712.50	0.526
712.68	0.523
712.87	0.524
713.05	0.524
713.24	0.525
713.42	0.523
713.61	0.524
713.79	0.525
713.98	0.526
714.16	0.527
714.35	0.527
714.54	0.530
714.72	0.530
714.91	0.527
715.09	0.534
715.28	0.537
715.46	0.537
715.65	0.534
715.83	0.534
716.02	0.537
716.20	0.534
716.39	0.532
716.57	0.533
716.76	0.535
716.94	0.535
717.12	0.527
717.31	0.528
717.49	0.532
717.68	0.534
717.86	0.533
718.05	0.535
718.23	0.537
718.42	0.540
718.60	0.541
718.79	0.551
718.97	0.554
719.16	0.555
719.34	0.551
719.53	0.552
719.71	0.552
719.90	0.554
720.08	0.551
720.27	0.551
720.45	0.551
720.63	0.549
720.82	0.542
721.00	0.545
721.19	0.550
721.37	0.550
721.56	0.549
721.74	0.552
721.93	0.561
722.11	0.567
722.30	0.566
722.48	0.571
722.66	0.573
722.85	0.572
723.03	0.571
723.22	0.570
723.40	0.574
723.59	0.574
723.77	0.577
723.95	0.570
724.14	0.574
724.32	0.575
724.51	0.574
724.69	0.575
724.88	0.577
725.06	0.574
725.24	0.574
725.43	0.575
725.61	0.579
725.80	0.572
725.98	0.571
726.16	0.566
726.35	0.573
726.53	0.572
726.72	0.570
726.90	0.582
727.09	0.584
727.27	0.590
727.45	0.586
727.64	0.596
727.82	0.606
728.01	0.609
728.19	0.607
728.37	0.611
728.56	0.616
728.74	0.623
728.92	0.609
729.11	0.611
729.29	0.610
729.48	0.612
729.66	0.600
729.84	0.600
730.03	0.603
730.21	0.606
730.40	0.596
730.58	0.597
730.76	0.597
730.95	0.600
731.13	0.600
731.31	0.614
731.50	0.626
731.68	0.630
731.86	0.624
732.05	0.641
732.23	0.646
732.42	0.651
732.60	0.653
732.78	0.660
732.97	0.682
733.15	0.688
733.33	0.675
733.52	0.681
733.70	0.694
733.88	0.706
734.07	0.688
734.25	0.715
734.43	0.724
734.62	0.728
734.80	0.721
734.98	0.712
735.17	0.721
735.35	0.729
735.53	0.715
735.72	0.718
735.90	0.744
736.08	0.765
736.27	0.738
736.45	0.749
736.63	0.764
736.82	0.775
737.00	0.771
737.18	0.784
737.37	0.820
737.55	0.849
737.73	0.842
737.92	0.843
738.10	0.844
738.28	0.867
738.46	0.852
738.65	0.868
738.83	0.899
739.01	0.965
739.20	0.951
739.38	0.934
739.56	0.927
739.75	0.930
739.93	0.888
740.11	0.917
740.29	0.918
740.48	0.926
740.66	0.898
740.84	0.889
741.03	0.849
741.21	0.864
741.39	0.840
741.57	0.855
741.76	0.881
741.94	0.886
742.12	0.844
742.31	0.851
742.49	0.876
742.67	0.904
742.85	0.916
743.04	0.920
743.22	0.937
743.40	1.000
743.58	0.973
743.77	0.994
743.95	1.045
744.13	1.115
744.31	1.091
744.50	1.083
744.68	1.085
744.86	1.050
745.04	1.061
745.23	1.145
745.41	1.128
745.59	1.134
745.77	1.083
745.96	1.063
746.14	1.080
746.32	1.077
746.50	1.068
746.69	1.043
746.87	1.067
747.05	1.048
747.23	0.952
747.42	0.939
747.60	0.980
747.78	0.982
747.96	1.019
748.14	0.958
748.33	0.998
748.51	0.987
748.69	0.979
748.87	1.019
749.06	1.023
749.24	1.019
749.42	0.994
749.60	0.970
749.78	0.992
749.97	0.935
750.15	0.931
750.33	0.933
750.51	0.970
750.69	0.973
750.88	0.971
751.06	0.988
751.24	1.030
751.42	1.014
751.60	1.000
751.79	1.094
751.97	1.174
752.15	1.166
752.33	1.111
752.51	1.201
752.69	1.245
752.88	1.187
753.06	1.251
753.24	1.201
753.42	1.269
753.60	1.570
753.78	1.282
753.97	1.292
754.15	1.330
754.33	1.376
754.51	1.178
754.69	1.146
754.87	1.198
755.06	1.095
755.24	1.097
755.42	1.104
755.60	0.980
755.78	0.990
755.96	0.920
756.15	0.920
756.33	0.930
756.51	0.953
756.69	0.932
756.87	0.890
757.05	0.912
757.23	0.891
757.42	0.852
757.60	0.850
757.78	0.838
757.96	0.838
758.14	0.816
758.32	0.798
758.50	0.813
758.69	0.813
758.87	0.804
759.05	0.810
759.23	0.823
759.41	0.823
759.59	0.815
759.77	0.843
759.95	0.877
760.13	0.936
760.32	0.933
760.50	0.928
760.68	0.960
760.86	0.958
761.04	0.921
761.22	0.924
761.40	0.993
761.58	0.994
761.76	0.954
761.95	0.929
762.13	0.883
762.31	0.881
762.49	0.843
762.67	0.862
762.85	0.882
763.03	0.876
763.21	0.854
763.39	0.826
763.57	0.831
763.75	0.826
763.94	0.810
764.12	0.809
764.30	0.842
764.48	0.843
764.66	0.801
764.84	0.797
765.02	0.840
765.20	0.847
765.38	0.822
765.56	0.827
765.74	0.878
765.92	0.879
766.10	0.885
766.28	0.876
766.46	0.916
766.65	0.913
766.83	0.893
767.01	0.878
767.19	0.890
767.37	0.890
767.55	0.874
767.73	0.846
767.91	0.852
768.09	0.839
768.27	0.824
768.45	0.810
768.63	0.819
768.81	0.823
768.99	0.790
769.17	0.817
769.35	0.835
769.53	0.834
769.71	0.812
769.89	0.822
770.07	0.830
770.25	0.810
770.43	0.784
770.61	0.815
770.79	0.824
770.97	0.836
771.15	0.799
771.33	0.803
771.51	0.806
771.69	0.817
771.87	0.825
772.05	0.832
772.24	0.846
772.42	0.856
772.60	0.823
772.78	0.895
772.96	0.930
773.14	0.924
773.32	0.894
773.49	0.902
773.67	0.901
773.85	0.875
774.03	0.858
774.21	0.891
774.39	0.909
774.57	0.939
774.75	0.849
774.93	0.844
775.11	0.876
775.29	0.884
775.47	0.887
775.65	0.902
775.83	0.924
776.01	0.954
776.19	0.895
776.37	0.896
776.55	0.898
776.73	0.895
776.91	0.886
777.09	0.864
777.27	0.865
777.45	0.849
777.63	0.818
777.81	0.816
777.99	0.802
778.17	0.804
778.35	0.777
778.53	0.765
778.71	0.776
778.89	0.761
779.07	0.748
779.24	0.755
779.42	0.758
779.60	0.782
779.78	0.774
779.96	0.782
780.14	0.792
780.32	0.818
780.50	0.797
780.68	0.793
780.86	0.787
781.04	0.804
781.22	0.804
781.40	0.814
781.58	0.803
781.75	0.796
781.93	0.773
782.11	0.773
782.29	0.757
782.47	0.756
782.65	0.742
782.83	0.775
783.01	0.771
783.19	0.764
783.37	0.748
783.55	0.751
783.72	0.771
783.90	0.781
784.08	0.771
784.26	0.786
784.44	0.811
784.62	0.812
784.80	0.772
784.98	0.779
785.16	0.785
785.33	0.801
785.51	0.786
785.69	0.770
785.87	0.773
786.05	0.783
786.23	0.774
786.41	0.770
786.59	0.781
786.77	0.781
786.94	0.764
787.12	0.770
787.30	0.772
787.48	0.768
787.66	0.756
787.84	0.756
788.02	0.747
788.19	0.747
788.37	0.729
788.55	0.729
788.73	0.729
788.91	0.722
789.09	0.704
789.27	0.692
789.44	0.706
789.62	0.709
789.80	0.718
789.98	0.743
790.16	0.728
790.34	0.725
790.51	0.710
790.69	0.732
790.87	0.741
791.05	0.737
791.23	0.729
791.41	0.731
791.58	0.742
791.76	0.718
791.94	0.686
792.12	0.696
792.30	0.697
792.48	0.694
792.65	0.684
792.83	0.693
793.01	0.703
793.19	0.698
793.37	0.679
793.54	0.675
793.72	0.688
793.90	0.688
794.08	0.676
794.26	0.681
794.43	0.694
794.61	0.676
794.79	0.663
794.97	0.660
795.15	0.670
795.32	0.675
795.50	0.662
795.68	0.658
795.86	0.663
796.04	0.663
796.21	0.654
796.39	0.651
796.57	0.670
796.75	0.677
796.92	0.678
797.10	0.684
797.28	0.686
797.46	0.688
797.64	0.686
797.81	0.694
797.99	0.702
798.17	0.708
798.35	0.700
798.52	0.702
798.70	0.701
798.88	0.709
799.06	0.706
799.23	0.710
799.41	0.724
799.59	0.716
799.77	0.702
799.94	0.712
800.12	0.721
800.30	0.740
800.48	0.736
800.65	0.739
800.83	0.728
801.01	0.721
801.19	0.718
801.36	0.714
801.54	0.720
801.72	0.732
801.90	0.712
802.07	0.708
802.25	0.694
802.43	0.677
802.60	0.669
802.78	0.677
802.96	0.684
803.14	0.676
803.31	0.671
803.49	0.673
803.67	0.669
803.84	0.674
804.02	0.663
804.20	0.666
804.38	0.672
804.55	0.669
804.73	0.653
804.91	0.653
805.08	0.668
805.26	0.663
805.44	0.722
805.61	0.728
805.79	0.729
805.97	0.729
806.15	0.720
806.32	0.714
806.50	0.724
806.68	0.726
806.85	0.715
807.03	0.704
807.21	0.727
807.38	0.662
807.56	0.649
807.74	0.660
807.91	0.669
808.09	0.672
808.27	0.693
808.44	0.722
808.62	0.732
808.80	0.733
808.97	0.727
809.15	0.718
809.33	0.737
809.50	0.746
809.68	0.729
809.86	0.738
810.03	0.774
810.21	0.750
810.39	0.728
810.56	0.737
810.74	0.767
810.91	0.850
811.09	0.838
811.27	0.861
811.44	0.870
811.62	0.872
811.80	0.849
811.97	0.812
812.15	0.815
812.33	0.808
812.50	0.790
812.68	0.777
812.85	0.715
813.03	0.714
813.21	0.678
813.38	0.668
813.56	0.673
813.74	0.685
813.91	0.691
814.09	0.724
814.26	0.721
814.44	0.725
814.62	0.711
814.79	0.716
814.97	0.724
815.14	0.730
815.32	0.735
815.50	0.754
815.67	0.762
815.85	0.750
816.02	0.737
816.20	0.745
816.38	0.761
816.55	0.768
816.73	0.765
816.90	0.781
817.08	0.819
817.26	0.826
817.43	0.802
817.61	0.829
817.78	0.865
817.96	0.838
818.13	0.824
818.31	0.828
818.49	0.846
818.66	0.835
818.84	0.812
819.01	0.787
819.19	0.796
819.36	0.797
819.54	0.759
819.71	0.800
819.89	0.821
820.07	0.829
820.24	0.820
820.42	0.822
820.59	0.847
820.77	0.877
820.94	0.860
821.12	0.886
821.29	0.909
821.47	0.913
821.64	0.837
821.82	0.857
822.00	0.859
822.17	0.854
822.35	0.840
822.52	0.846
822.70	0.833
822.87	0.846
823.05	0.818
823.22	0.832
823.40	0.867
823.57	0.898
823.75	0.868
823.92	0.901
824.10	0.929
824.27	0.982
824.45	0.960
824.62	1.041
824.80	1.072
824.97	1.089
825.15	1.070
825.32	1.090
825.50	1.092
825.67	1.111
825.85	1.080
826.02	1.116
826.20	1.172
826.37	1.399
826.55	1.248
826.72	1.702
826.90	2.052
827.07	2.778
827.25	2.021
827.42	-0.000
827.60	-0.000
827.77	-0.000
827.95	-0.000
828.12	-0.000
828.30	-0.000
828.47	-0.000
828.65	2.367
828.82	-0.000
829.00	-0.000
829.17	-0.000
829.34	-0.000
829.52	-0.000
829.69	-0.000
829.87	-0.000
830.04	-0.000
830.22	-0.000
830.39	-0.000
830.57	-0.000
830.74	-0.000
830.92	-0.000
831.09	-0.000
831.26	-0.000
831.44	-0.000
831.61	-0.000
831.79	-0.000
831.96	-0.000
832.14	-0.000
832.31	-0.000
832.49	-0.000
832.66	-0.000
832.83	-0.000
833.01	-0.000
833.18	-0.000
833.36	-0.000
833.53	-0.000
833.70	-0.000
833.88	-0.000
834.05	-0.000
834.23	-0.000
834.40	-0.000
834.58	-0.000
834.75	-0.000
834.92	-0.000
835.10	-0.000
835.27	-0.000
835.45	-0.000
835.62	-0.000
835.79	-0.000
835.97	-0.000
836.14	-0.000
836.32	-0.000
836.49	-0.000
836.66	-0.000
836.84	-0.000
837.01	-0.000
837.18	-0.000
837.36	-0.000
837.53	-0.000
837.71	-0.000
837.88	-0.000
838.05	-0.000
838.23	-0.000
838.40	-0.000
838.58	-0.000
838.75	-0.000
838.92	-0.000
839.10	-0.000
839.27	-0.000
839.44	-0.000
839.62	-0.000
839.79	-0.000
839.96	-0.000
840.14	-0.000
840.31	-0.000
840.48	-0.000
840.66	-0.000
840.83	-0.000
841.01	-0.000
841.18	-0.000
841.35	-0.000
841.53	-0.000
841.70	-0.000
841.87	-0.000
842.05	-0.000
842.22	-0.000
842.39	-0.000
842.57	-0.000
842.74	-0.000
842.91	-0.000
843.09	-0.000
843.26	-0.000
843.43	-0.000
843.60	-0.000
843.78	-0.000
843.95	-0.000
844.12	-0.000
844.30	-0.000
844.47	-0.000
844.64	-0.000
844.82	-0.000
844.99	-0.000
845.16	-0.000
845.34	-0.000
845.51	-0.000
845.68	-0.000
845.85	-0.000
846.03	-0.000
846.20	-0.000
846.37	-0.000
846.55	-0.000
846.72	-0.000
846.89	-0.000
847.06	-0.000
847.24	-0.000
847.41	-0.000
847.58	-0.000
847.76	-0.000
847.93	-0.000
848.10	-0.000
848.27	-0.000
848.45	-0.000
848.62	-0.000
848.79	-0.000
848.97	-0.000
849.14	-0.000
849.31	-0.000
849.48	-0.000
849.66	-0.000
849.83	-0.000
850.00	-0.000
850.17	-0.000
850.35	-0.000
850.52	-0.000
850.69	-0.000
850.86	-0.000
851.04	-0.000
851.21	-0.000
851.38	-0.000
851.55	-0.000
851.72	-0.000
851.90	-0.000
852.07	-0.000
852.24	-0.000
852.41	-0.000
852.59	-0.000
852.76	-0.000
852.93	-0.000
853.10	-0.000
853.28	-0.000
853.45	-0.000
853.62	-0.000
853.79	-0.000
853.96	-0.000
854.14	-0.000
854.31	-0.000
854.48	-0.000
854.65	-0.000
854.82	-0.000
855.00	-0.000
855.17	-0.000
855.34	-0.000
855.51	-0.000
855.68	-0.000
855.86	-0.000
856.03	-0.000
856.20	-0.000
856.37	-0.000
856.54	-0.000
856.72	-0.000
856.89	-0.000
857.06	-0.000
857.23	-0.000
857.40	-0.000
857.57	-0.000
857.75	-0.000
857.92	-0.000
858.09	-0.000
858.26	-0.000
858.43	-0.000
858.60	-0.000
858.78	-0.000
858.95	-0.000
859.12	-0.000
859.29	-0.000
859.46	-0.000
859.63	-0.000
859.81	-0.000
859.98	-0.000
860.15	-0.000
860.32	-0.000
860.49	-0.000
860.66	-0.000
860.83	-0.000
861.01	-0.000
861.18	-0.000
861.35	-0.000
861.52	-0.000
861.69	-0.000
861.86	-0.000
862.03	-0.000
862.21	-0.000
862.38	-0.000
862.55	-0.000
862.72	-0.000
862.89	-0.000
863.06	-0.000
863.23	-0.000
863.40	-0.000
863.58	-0.000
863.75	-0.000
863.92	-0.000
864.09	-0.000
864.26	-0.000
864.43	-0.000
864.60	-0.000
864.77	-0.000
864.94	-0.000
865.11	-0.000
865.29	-0.000
865.46	-0.000
865.63	-0.000
865.80	-0.000
865.97	-0.000
866.14	-0.000
866.31	-0.000
866.48	-0.000
866.65	-0.000
866.82	-0.000
866.99	-0.000
867.16	-0.000
867.34	-0.000
867.51	-0.000
867.68	-0.000
867.85	-0.000
868.02	-0.000
868.19	-0.000
868.36	-0.000
868.53	-0.000
868.70	-0.000
868.87	-0.000
869.04	-0.000
869.21	-0.000
869.38	-0.000
869.55	-0.000
869.72	-0.000
869.89	-0.000
870.06	-0.000
870.24	-0.000
870.41	-0.000
870.58	-0.000
870.75	-0.000
870.92	-0.000
871.09	-0.000
871.26	-0.000
871.43	-0.000
871.60	-0.000
871.77	-0.000
871.94	-0.000
872.11	-0.000
872.28	-0.000
872.45	-0.000
872.62	-0.000
872.79	-0.000
872.96	-0.000
873.13	-0.000
873.30	-0.000
873.47	-0.000
873.64	-0.000
873.81	-0.000
873.98	-0.000
874.15	-0.000
874.32	-0.000
874.49	-0.000
874.66	-0.000
874.83	-0.000
875.00	-0.000
875.17	-0.000
875.34	-0.000
875.51	-0.000
875.68	-0.000
875.85	-0.000
876.02	-0.000
876.19	-0.000
876.36	-0.000
876.53	-0.000
876.70	-0.000
876.87	-0.000
877.04	-0.000
877.21	-0.000
877.38	-0.000
877.55	-0.000
877.72	-0.000
877.89	-0.000
878.06	-0.000
878.23	-0.000
878.39	-0.000
878.56	-0.000
878.73	-0.000
878.90	-0.000
879.07	-0.000
879.24	-0.000
879.41	-0.000
879.58	-0.000
879.75	-0.000
879.92	-0.000
880.09	-0.000
880.26	-0.000
880.43	-0.000
880.60	-0.000
880.77	-0.000
880.94	-0.000
881.11	-0.000
881.27	-0.000
881.44	-0.000
881.61	-0.000
881.78	-0.000
881.95	-0.000
882.12	-0.000
882.29	-0.000
882.46	-0.000
882.63	-0.000
882.80	-0.000
882.97	-0.000
883.14	-0.000
883.30	-0.000
883.47	-0.000
883.64	-0.000
883.81	-0.000
883.98	-0.000
884.15	-0.000
884.32	-0.000
884.49	-0.000
884.66	-0.000
884.82	-0.000
884.99	-0.000
885.16	-0.000
885.33	-0.000
885.50	-0.000
885.67	-0.000
885.84	-0.000
886.01	-0.000
886.17	-0.000
886.34	-0.000
886.51	-0.000
886.68	-0.000
886.85	-0.000
887.02	-0.000
887.19	-0.000
887.36	-0.000
887.52	-0.000
887.69	-0.000
887.86	-0.000
888.03	-0.000
888.20	-0.000
888.37	-0.000
888.54	-0.000
888.70	-0.000
888.87	-0.000
889.04	-0.000
889.21	-0.000
889.38	-0.000
889.55	-0.000
889.71	-0.000
889.88	-0.000
890.05	-0.000
890.22	-0.000
890.39	-0.000
>>>>>End Processed Spectral Data<<<<<
