SpectraSuite Data File
++++++++++++++++++++++++++++++++++++
Date: Fri Jun 19 13:01:14 CEST 2015
User: introlabs
Dark Spectrum Present: Yes
Reference Spectrum Present: Yes
Number of Sampled Component Spectra: 1
Spectrometers: USB4H08886
Integration Time (usec): 745692 (USB4H08886)
Spectra Averaged: 5 (USB4H08886)
Boxcar Smoothing: 5 (USB4H08886)
Correct for Electrical Dark: Yes (USB4H08886)
Strobe/Lamp Enabled: No (USB4H08886)
Correct for Detector Non-linearity: Yes (USB4H08886)
Correct for Stray Light: Yes (USB4H08886)
Number of Pixels in Processed Spectrum: 3648
>>>>>Begin Processed Spectral Data<<<<<
178.14	-0.000
178.36	-0.000
178.57	-0.000
178.79	-0.000
179.01	-0.000
179.22	-0.000
179.44	-0.000
179.65	-0.000
179.87	-0.000
180.08	-0.000
180.30	-0.000
180.52	-0.000
180.73	-0.000
180.95	-0.000
181.16	-0.000
181.38	-0.000
181.59	-0.000
181.81	-0.000
182.03	-0.000
182.24	-0.000
182.46	-0.000
182.67	-0.000
182.89	-0.000
183.10	-0.000
183.32	-0.000
183.54	-0.000
183.75	-0.000
183.97	-0.000
184.18	-0.000
184.40	-0.000
184.61	-0.000
184.83	-0.000
185.04	-0.000
185.26	-0.000
185.48	-0.000
185.69	-0.000
185.91	-0.000
186.12	-0.000
186.34	-0.000
186.55	-0.000
186.77	-0.000
186.98	-0.000
187.20	-0.000
187.42	-0.000
187.63	-0.000
187.85	-0.000
188.06	-0.000
188.28	-0.000
188.49	-0.000
188.71	-0.000
188.92	-0.000
189.14	-0.000
189.36	-0.000
189.57	-0.000
189.79	-0.000
190.00	-0.000
190.22	-0.000
190.43	-0.000
190.65	-0.000
190.86	-0.000
191.08	-0.000
191.29	-0.000
191.51	-0.000
191.72	-0.000
191.94	-0.000
192.16	-0.000
192.37	-0.000
192.59	-0.000
192.80	-0.000
193.02	-0.000
193.23	-0.000
193.45	-0.000
193.66	-0.000
193.88	-0.000
194.09	-0.000
194.31	-0.000
194.52	-0.000
194.74	-0.000
194.95	-0.000
195.17	-0.000
195.38	-0.000
195.60	-0.000
195.81	-0.000
196.03	-0.000
196.25	-0.000
196.46	-0.000
196.68	-0.000
196.89	-0.000
197.11	-0.000
197.32	-0.000
197.54	-0.000
197.75	-0.000
197.97	-0.000
198.18	-0.000
198.40	-0.000
198.61	-0.000
198.83	-0.000
199.04	-0.000
199.26	-0.000
199.47	-0.000
199.69	-0.000
199.90	-0.000
200.12	-0.000
200.33	-0.000
200.55	-0.000
200.76	-0.000
200.98	-0.000
201.19	-0.000
201.41	-0.000
201.62	-0.000
201.84	-0.000
202.05	-0.000
202.27	-0.000
202.48	-0.000
202.70	-0.000
202.91	-0.000
203.13	-0.000
203.34	-0.000
203.56	-0.000
203.77	-0.000
203.99	-0.000
204.20	-0.000
204.42	-0.000
204.63	-0.000
204.85	-0.000
205.06	-0.000
205.28	-0.000
205.49	-0.000
205.71	-0.000
205.92	-0.000
206.14	-0.000
206.35	-0.000
206.56	-0.000
206.78	-0.000
206.99	-0.000
207.21	-0.000
207.42	-0.000
207.64	-0.000
207.85	-0.000
208.07	-0.000
208.28	-0.000
208.50	-0.000
208.71	-0.000
208.93	-0.000
209.14	-0.000
209.36	-0.000
209.57	-0.000
209.79	-0.000
210.00	-0.000
210.22	-0.000
210.43	-0.000
210.64	-0.000
210.86	-0.000
211.07	-0.000
211.29	-0.000
211.50	-0.000
211.72	-0.000
211.93	-0.000
212.15	-0.000
212.36	-0.000
212.58	-0.000
212.79	-0.000
213.01	-0.000
213.22	-0.000
213.43	-0.000
213.65	-0.000
213.86	-0.000
214.08	-0.000
214.29	-0.000
214.51	-0.000
214.72	-0.000
214.94	-0.000
215.15	-0.000
215.36	-0.000
215.58	-0.000
215.79	-0.000
216.01	-0.000
216.22	-0.000
216.44	-0.000
216.65	-0.000
216.87	-0.000
217.08	-0.000
217.29	-0.000
217.51	-0.000
217.72	-0.000
217.94	-0.000
218.15	-0.000
218.37	-0.000
218.58	-0.000
218.80	-0.000
219.01	-0.000
219.22	-0.000
219.44	-0.000
219.65	-0.000
219.87	-0.000
220.08	-0.000
220.30	-0.000
220.51	-0.000
220.72	-0.000
220.94	-0.000
221.15	-0.000
221.37	-0.000
221.58	-0.000
221.79	-0.000
222.01	-0.000
222.22	-0.000
222.44	-0.000
222.65	-0.000
222.87	-0.000
223.08	-0.000
223.29	-0.000
223.51	-0.000
223.72	-0.000
223.94	-0.000
224.15	-0.000
224.36	-0.000
224.58	-0.000
224.79	-0.000
225.01	-0.000
225.22	-0.000
225.44	-0.000
225.65	-0.000
225.86	-0.000
226.08	-0.000
226.29	-0.000
226.51	-0.000
226.72	-0.000
226.93	-0.000
227.15	-0.000
227.36	-0.000
227.58	-0.000
227.79	-0.000
228.00	-0.000
228.22	-0.000
228.43	-0.000
228.65	-0.000
228.86	-0.000
229.07	-0.000
229.29	-0.000
229.50	-0.000
229.72	-0.000
229.93	-0.000
230.14	-0.000
230.36	-0.000
230.57	-0.000
230.78	-0.000
231.00	-0.000
231.21	-0.000
231.43	-0.000
231.64	-0.000
231.85	-0.000
232.07	-0.000
232.28	-0.000
232.50	-0.000
232.71	-0.000
232.92	-0.000
233.14	-0.000
233.35	-0.000
233.56	-0.000
233.78	-0.000
233.99	-0.000
234.21	-0.000
234.42	-0.000
234.63	-0.000
234.85	-0.000
235.06	-0.000
235.27	-0.000
235.49	-0.000
235.70	-0.000
235.91	-0.000
236.13	-0.000
236.34	-0.000
236.56	-0.000
236.77	-0.000
236.98	-0.000
237.20	-0.000
237.41	-0.000
237.62	-0.000
237.84	-0.000
238.05	-0.000
238.26	-0.000
238.48	-0.000
238.69	-0.000
238.91	-0.000
239.12	-0.000
239.33	-0.000
239.55	-0.000
239.76	-0.000
239.97	-0.000
240.19	-0.000
240.40	-0.000
240.61	-0.000
240.83	-0.000
241.04	-0.000
241.25	-0.000
241.47	-0.000
241.68	-0.000
241.89	-0.000
242.11	-0.000
242.32	-0.000
242.53	-0.000
242.75	-0.000
242.96	-0.000
243.17	-0.000
243.39	-0.000
243.60	-0.000
243.81	-0.000
244.03	-0.000
244.24	-0.000
244.45	-0.000
244.67	-0.000
244.88	-0.000
245.09	-0.000
245.31	-0.000
245.52	-0.000
245.73	-0.000
245.95	-0.000
246.16	-0.000
246.37	-0.000
246.59	-0.000
246.80	-0.000
247.01	-0.000
247.23	-0.000
247.44	-0.000
247.65	-0.000
247.87	-0.000
248.08	-0.000
248.29	-0.000
248.51	-0.000
248.72	-0.000
248.93	-0.000
249.15	-0.000
249.36	-0.000
249.57	-0.000
249.78	-0.000
250.00	-0.000
250.21	-0.000
250.42	-0.000
250.64	-0.000
250.85	-0.000
251.06	-0.000
251.28	-0.000
251.49	-0.000
251.70	-0.000
251.92	-0.000
252.13	-0.000
252.34	-0.000
252.55	-0.000
252.77	-0.000
252.98	-0.000
253.19	-0.000
253.41	-0.000
253.62	-0.000
253.83	-0.000
254.05	-0.000
254.26	-0.000
254.47	-0.000
254.68	-0.000
254.90	-0.000
255.11	-0.000
255.32	-0.000
255.54	-0.000
255.75	-0.000
255.96	-0.000
256.17	-0.000
256.39	-0.000
256.60	-0.000
256.81	-0.000
257.03	-0.000
257.24	-0.000
257.45	-0.000
257.66	-0.000
257.88	-0.000
258.09	-0.000
258.30	-0.000
258.51	-0.000
258.73	-0.000
258.94	-0.000
259.15	-0.000
259.37	-0.000
259.58	-0.000
259.79	-0.000
260.00	-0.000
260.22	-0.000
260.43	-0.000
260.64	-0.000
260.85	-0.000
261.07	-0.000
261.28	-0.000
261.49	-0.000
261.71	-0.000
261.92	-0.000
262.13	-0.000
262.34	-0.000
262.56	-0.000
262.77	-0.000
262.98	-0.000
263.19	-0.000
263.41	-0.000
263.62	-0.000
263.83	-0.000
264.04	-0.000
264.26	-0.000
264.47	-0.000
264.68	-0.000
264.89	-0.000
265.11	-0.000
265.32	-0.000
265.53	-0.000
265.74	-0.000
265.96	-0.000
266.17	-0.000
266.38	-0.000
266.59	-0.000
266.81	-0.000
267.02	-0.000
267.23	-0.000
267.44	-0.000
267.65	-0.000
267.87	-0.000
268.08	-0.000
268.29	-0.000
268.50	-0.000
268.72	-0.000
268.93	-0.000
269.14	-0.000
269.35	-0.000
269.57	-0.000
269.78	-0.000
269.99	-0.000
270.20	-0.000
270.41	-0.000
270.63	-0.000
270.84	-0.000
271.05	-0.000
271.26	-0.000
271.48	-0.000
271.69	-0.000
271.90	-0.000
272.11	-0.000
272.32	-0.000
272.54	-0.000
272.75	-0.000
272.96	-0.000
273.17	-0.000
273.39	-0.000
273.60	-0.000
273.81	-0.000
274.02	-0.000
274.23	-0.000
274.45	-0.000
274.66	-0.000
274.87	-0.000
275.08	-0.000
275.29	-0.000
275.51	-0.000
275.72	-0.000
275.93	-0.000
276.14	-0.000
276.35	-0.000
276.57	-0.000
276.78	-0.000
276.99	-0.000
277.20	-0.000
277.41	-0.000
277.63	-0.000
277.84	-0.000
278.05	-0.000
278.26	-0.000
278.47	-0.000
278.69	-0.000
278.90	-0.000
279.11	-0.000
279.32	-0.000
279.53	-0.000
279.74	-0.000
279.96	-0.000
280.17	-0.000
280.38	-0.000
280.59	-0.000
280.80	-0.000
281.02	-0.000
281.23	-0.000
281.44	-0.000
281.65	-0.000
281.86	-0.000
282.07	-0.000
282.29	-0.000
282.50	-0.000
282.71	-0.000
282.92	-0.000
283.13	-0.000
283.35	-0.000
283.56	-0.000
283.77	-0.000
283.98	-0.000
284.19	-0.000
284.40	-0.000
284.62	-0.000
284.83	-0.000
285.04	-0.000
285.25	-0.000
285.46	-0.000
285.67	-0.000
285.88	-0.000
286.10	-0.000
286.31	-0.000
286.52	-0.000
286.73	-0.000
286.94	-0.000
287.15	-0.000
287.37	-0.000
287.58	-0.000
287.79	-0.000
288.00	-0.000
288.21	-0.000
288.42	-0.000
288.63	-0.000
288.85	-0.000
289.06	-0.000
289.27	-0.000
289.48	-0.000
289.69	-0.000
289.90	-0.000
290.11	-0.000
290.33	-0.000
290.54	-0.000
290.75	-0.000
290.96	-0.000
291.17	-0.000
291.38	-0.000
291.59	-0.000
291.81	-0.000
292.02	-0.000
292.23	-0.000
292.44	-0.000
292.65	-0.000
292.86	-0.000
293.07	-0.000
293.28	-0.000
293.50	-0.000
293.71	-0.000
293.92	-0.000
294.13	-0.000
294.34	-0.000
294.55	-0.000
294.76	-0.000
294.97	-0.000
295.19	-0.000
295.40	-0.000
295.61	-0.000
295.82	-0.000
296.03	-0.000
296.24	-0.000
296.45	-0.000
296.66	-0.000
296.87	-0.000
297.09	-0.000
297.30	-0.000
297.51	-0.000
297.72	2.864
297.93	-0.000
298.14	-0.000
298.35	2.736
298.56	2.505
298.77	-0.000
298.99	-0.000
299.20	-0.000
299.41	3.476
299.62	2.672
299.83	2.516
300.04	2.170
300.25	2.134
300.46	2.394
300.67	2.224
300.88	1.993
301.10	1.966
301.31	2.151
301.52	1.981
301.73	1.813
301.94	1.825
302.15	1.879
302.36	1.763
302.57	1.640
302.78	1.646
302.99	1.743
303.20	1.777
303.41	1.606
303.63	1.581
303.84	1.599
304.05	1.584
304.26	1.479
304.47	1.480
304.68	1.495
304.89	1.478
305.10	1.416
305.31	1.393
305.52	1.456
305.73	1.445
305.94	1.385
306.15	1.370
306.37	1.404
306.58	1.414
306.79	1.369
307.00	1.393
307.21	1.452
307.42	1.443
307.63	1.391
307.84	1.345
308.05	1.399
308.26	1.401
308.47	1.371
308.68	1.363
308.89	1.369
309.10	1.363
309.31	1.310
309.52	1.300
309.73	1.318
309.95	1.308
310.16	1.271
310.37	1.254
310.58	1.277
310.79	1.268
311.00	1.263
311.21	1.262
311.42	1.270
311.63	1.261
311.84	1.232
312.05	1.230
312.26	1.260
312.47	1.273
312.68	1.240
312.89	1.220
313.10	1.232
313.31	1.197
313.52	1.194
313.73	1.191
313.94	1.195
314.15	1.174
314.36	1.144
314.57	1.134
314.78	1.122
314.99	1.116
315.21	1.100
315.42	1.105
315.63	1.123
315.84	1.098
316.05	1.082
316.26	1.090
316.47	1.112
316.68	1.109
316.89	1.088
317.10	1.109
317.31	1.117
317.52	1.119
317.73	1.094
317.94	1.093
318.15	1.154
318.36	1.153
318.57	1.131
318.78	1.115
318.99	1.159
319.20	1.155
319.41	1.114
319.62	1.115
319.83	1.129
320.04	1.124
320.25	1.103
320.46	1.057
320.67	1.062
320.88	1.058
321.09	1.042
321.30	1.026
321.51	1.043
321.72	1.040
321.93	1.022
322.14	1.014
322.35	1.045
322.56	1.048
322.77	1.031
322.98	1.042
323.19	1.052
323.40	1.059
323.61	1.035
323.82	1.031
324.03	1.037
324.24	1.034
324.45	1.020
324.66	0.998
324.87	0.996
325.08	0.997
325.29	0.976
325.50	0.974
325.71	0.980
325.92	0.986
326.13	0.969
326.34	0.971
326.55	0.981
326.76	0.981
326.97	0.968
327.18	0.960
327.39	0.989
327.60	0.988
327.80	0.982
328.01	0.979
328.22	0.981
328.43	0.985
328.64	0.970
328.85	0.974
329.06	0.977
329.27	0.975
329.48	0.969
329.69	0.947
329.90	0.958
330.11	0.951
330.32	0.943
330.53	0.936
330.74	0.938
330.95	0.936
331.16	0.919
331.37	0.927
331.58	0.929
331.79	0.929
332.00	0.921
332.21	0.914
332.42	0.920
332.63	0.911
332.83	0.905
333.04	0.907
333.25	0.920
333.46	0.918
333.67	0.903
333.88	0.905
334.09	0.915
334.30	0.910
334.51	0.899
334.72	0.894
334.93	0.897
335.14	0.897
335.35	0.888
335.56	0.883
335.77	0.893
335.98	0.891
336.18	0.883
336.39	0.878
336.60	0.885
336.81	0.884
337.02	0.883
337.23	0.888
337.44	0.892
337.65	0.893
337.86	0.880
338.07	0.875
338.28	0.880
338.49	0.878
338.70	0.868
338.91	0.875
339.11	0.883
339.32	0.878
339.53	0.865
339.74	0.861
339.95	0.860
340.16	0.859
340.37	0.850
340.58	0.848
340.79	0.853
341.00	0.854
341.21	0.842
341.41	0.842
341.62	0.844
341.83	0.845
342.04	0.840
342.25	0.851
342.46	0.855
342.67	0.855
342.88	0.846
343.09	0.845
343.30	0.853
343.50	0.857
343.71	0.846
343.92	0.844
344.13	0.850
344.34	0.850
344.55	0.833
344.76	0.831
344.97	0.837
345.18	0.835
345.38	0.831
345.59	0.826
345.80	0.824
346.01	0.823
346.22	0.818
346.43	0.811
346.64	0.820
346.85	0.819
347.06	0.811
347.26	0.812
347.47	0.817
347.68	0.814
347.89	0.809
348.10	0.804
348.31	0.811
348.52	0.811
348.73	0.808
348.93	0.804
349.14	0.807
349.35	0.807
349.56	0.799
349.77	0.794
349.98	0.801
350.19	0.798
350.39	0.793
350.60	0.789
350.81	0.805
351.02	0.803
351.23	0.798
351.44	0.801
351.65	0.805
351.86	0.803
352.06	0.801
352.27	0.800
352.48	0.802
352.69	0.801
352.90	0.795
353.11	0.782
353.31	0.790
353.52	0.786
353.73	0.777
353.94	0.778
354.15	0.784
354.36	0.784
354.57	0.775
354.77	0.778
354.98	0.779
355.19	0.778
355.40	0.777
355.61	0.783
355.82	0.788
356.02	0.788
356.23	0.781
356.44	0.782
356.65	0.786
356.86	0.787
357.07	0.779
357.27	0.782
357.48	0.785
357.69	0.780
357.90	0.764
358.11	0.761
358.32	0.765
358.52	0.768
358.73	0.758
358.94	0.760
359.15	0.766
359.36	0.766
359.56	0.761
359.77	0.758
359.98	0.766
360.19	0.766
360.40	0.762
360.61	0.762
360.81	0.762
361.02	0.762
361.23	0.754
361.44	0.753
361.65	0.754
361.85	0.753
362.06	0.750
362.27	0.751
362.48	0.752
362.69	0.754
362.89	0.747
363.10	0.749
363.31	0.754
363.52	0.757
363.73	0.751
363.93	0.752
364.14	0.755
364.35	0.756
364.56	0.745
364.77	0.747
364.97	0.751
365.18	0.750
365.39	0.745
365.60	0.741
365.81	0.743
366.01	0.742
366.22	0.738
366.43	0.737
366.64	0.740
366.84	0.747
367.05	0.742
367.26	0.741
367.47	0.744
367.68	0.744
367.88	0.739
368.09	0.737
368.30	0.741
368.51	0.740
368.71	0.738
368.92	0.741
369.13	0.739
369.34	0.739
369.55	0.738
369.75	0.737
369.96	0.745
370.17	0.745
370.38	0.740
370.58	0.740
370.79	0.746
371.00	0.744
371.21	0.735
371.41	0.741
371.62	0.745
371.83	0.741
372.04	0.738
372.24	0.731
372.45	0.733
372.66	0.734
372.87	0.730
373.07	0.727
373.28	0.729
373.49	0.732
373.70	0.722
373.90	0.721
374.11	0.731
374.32	0.730
374.53	0.729
374.73	0.729
374.94	0.732
375.15	0.732
375.36	0.729
375.56	0.738
375.77	0.739
375.98	0.739
376.19	0.735
376.39	0.728
376.60	0.733
376.81	0.734
377.02	0.730
377.22	0.729
377.43	0.729
377.64	0.729
377.84	0.720
378.05	0.724
378.26	0.731
378.47	0.730
378.67	0.726
378.88	0.723
379.09	0.724
379.30	0.723
379.50	0.720
379.71	0.723
379.92	0.726
380.12	0.726
380.33	0.717
380.54	0.713
380.75	0.720
380.95	0.720
381.16	0.718
381.37	0.718
381.57	0.720
381.78	0.721
381.99	0.720
382.20	0.720
382.40	0.722
382.61	0.722
382.82	0.718
383.02	0.711
383.23	0.715
383.44	0.714
383.64	0.712
383.85	0.714
384.06	0.717
384.27	0.715
384.47	0.713
384.68	0.713
384.89	0.719
385.09	0.718
385.30	0.717
385.51	0.716
385.71	0.721
385.92	0.721
386.13	0.718
386.33	0.721
386.54	0.721
386.75	0.720
386.95	0.716
387.16	0.711
387.37	0.714
387.58	0.714
387.78	0.712
387.99	0.709
388.20	0.711
388.40	0.709
388.61	0.704
388.82	0.707
389.02	0.710
389.23	0.710
389.44	0.707
389.64	0.707
389.85	0.718
390.06	0.717
390.26	0.717
390.47	0.716
390.68	0.718
390.88	0.716
391.09	0.712
391.30	0.711
391.50	0.711
391.71	0.711
391.92	0.708
392.12	0.700
392.33	0.701
392.53	0.700
392.74	0.700
392.95	0.700
393.15	0.703
393.36	0.705
393.57	0.702
393.77	0.705
393.98	0.706
394.19	0.707
394.39	0.706
394.60	0.707
394.81	0.710
395.01	0.708
395.22	0.705
395.43	0.706
395.63	0.710
395.84	0.711
396.04	0.706
396.25	0.708
396.46	0.709
396.66	0.707
396.87	0.703
397.08	0.700
397.28	0.703
397.49	0.704
397.69	0.700
397.90	0.694
398.11	0.697
398.31	0.697
398.52	0.693
398.73	0.695
398.93	0.694
399.14	0.694
399.34	0.692
399.55	0.693
399.76	0.694
399.96	0.695
400.17	0.693
400.37	0.690
400.58	0.698
400.79	0.699
400.99	0.696
401.20	0.702
401.41	0.704
401.61	0.704
401.82	0.709
402.02	0.708
402.23	0.709
402.44	0.709
402.64	0.710
402.85	0.704
403.05	0.703
403.26	0.702
403.47	0.695
403.67	0.695
403.88	0.696
404.08	0.690
404.29	0.688
404.50	0.688
404.70	0.688
404.91	0.687
405.11	0.684
405.32	0.685
405.52	0.685
405.73	0.685
405.94	0.682
406.14	0.685
406.35	0.688
406.55	0.687
406.76	0.684
406.97	0.684
407.17	0.686
407.38	0.686
407.58	0.683
407.79	0.686
407.99	0.689
408.20	0.690
408.41	0.685
408.61	0.683
408.82	0.685
409.02	0.685
409.23	0.683
409.43	0.682
409.64	0.683
409.84	0.683
410.05	0.679
410.26	0.677
410.46	0.676
410.67	0.676
410.87	0.676
411.08	0.677
411.28	0.679
411.49	0.680
411.69	0.678
411.90	0.681
412.11	0.682
412.31	0.683
412.52	0.682
412.72	0.683
412.93	0.684
413.13	0.683
413.34	0.679
413.54	0.681
413.75	0.682
413.95	0.682
414.16	0.677
414.37	0.680
414.57	0.681
414.78	0.683
414.98	0.680
415.19	0.681
415.39	0.679
415.60	0.681
415.80	0.680
416.01	0.678
416.21	0.681
416.42	0.681
416.62	0.675
416.83	0.676
417.03	0.676
417.24	0.676
417.44	0.674
417.65	0.673
417.86	0.674
418.06	0.673
418.27	0.671
418.47	0.672
418.68	0.673
418.88	0.674
419.09	0.671
419.29	0.672
419.50	0.673
419.70	0.672
419.91	0.670
420.11	0.668
420.32	0.670
420.52	0.670
420.73	0.669
420.93	0.670
421.14	0.672
421.34	0.670
421.55	0.667
421.75	0.666
421.96	0.668
422.16	0.668
422.37	0.666
422.57	0.664
422.78	0.666
422.98	0.662
423.19	0.660
423.39	0.659
423.60	0.663
423.80	0.664
424.01	0.663
424.21	0.666
424.42	0.668
424.62	0.667
424.83	0.666
425.03	0.666
425.23	0.669
425.44	0.669
425.64	0.669
425.85	0.668
426.05	0.669
426.26	0.670
426.46	0.666
426.67	0.665
426.87	0.670
427.08	0.671
427.28	0.668
427.49	0.669
427.69	0.669
427.90	0.668
428.10	0.665
428.31	0.665
428.51	0.667
428.71	0.666
428.92	0.667
429.12	0.664
429.33	0.665
429.53	0.669
429.74	0.673
429.94	0.673
430.15	0.673
430.35	0.673
430.56	0.671
430.76	0.670
430.96	0.672
431.17	0.669
431.37	0.666
431.58	0.664
431.78	0.662
431.99	0.656
432.19	0.658
432.40	0.660
432.60	0.660
432.80	0.662
433.01	0.660
433.21	0.660
433.42	0.662
433.62	0.663
433.83	0.662
434.03	0.664
434.23	0.668
434.44	0.667
434.64	0.664
434.85	0.670
435.05	0.671
435.26	0.672
435.46	0.669
435.66	0.669
435.87	0.669
436.07	0.669
436.28	0.664
436.48	0.662
436.69	0.661
436.89	0.662
437.09	0.655
437.30	0.654
437.50	0.655
437.71	0.667
437.91	0.666
438.11	0.668
438.32	0.673
438.52	0.673
438.73	0.671
438.93	0.670
439.13	0.670
439.34	0.674
439.54	0.672
439.75	0.672
439.95	0.662
440.15	0.666
440.36	0.664
440.56	0.662
440.77	0.663
440.97	0.664
441.17	0.662
441.38	0.664
441.58	0.661
441.79	0.661
441.99	0.659
442.19	0.658
442.40	0.657
442.60	0.657
442.81	0.654
443.01	0.654
443.21	0.655
443.42	0.655
443.62	0.653
443.82	0.653
444.03	0.655
444.23	0.654
444.44	0.655
444.64	0.653
444.84	0.655
445.05	0.655
445.25	0.652
445.45	0.653
445.66	0.656
445.86	0.655
446.06	0.656
446.27	0.656
446.47	0.659
446.68	0.657
446.88	0.656
447.08	0.655
447.29	0.657
447.49	0.658
447.69	0.657
447.90	0.655
448.10	0.659
448.30	0.657
448.51	0.658
448.71	0.656
448.91	0.659
449.12	0.658
449.32	0.660
449.52	0.659
449.73	0.663
449.93	0.662
450.14	0.663
450.34	0.662
450.54	0.665
450.75	0.662
450.95	0.661
451.15	0.660
451.36	0.663
451.56	0.660
451.76	0.659
451.97	0.656
452.17	0.657
452.37	0.655
452.58	0.651
452.78	0.651
452.98	0.653
453.19	0.653
453.39	0.654
453.59	0.653
453.79	0.655
454.00	0.655
454.20	0.654
454.40	0.654
454.61	0.656
454.81	0.656
455.01	0.654
455.22	0.655
455.42	0.657
455.62	0.655
455.83	0.654
456.03	0.657
456.23	0.658
456.44	0.659
456.64	0.658
456.84	0.659
457.04	0.659
457.25	0.659
457.45	0.656
457.65	0.654
457.86	0.656
458.06	0.654
458.26	0.649
458.47	0.648
458.67	0.650
458.87	0.650
459.07	0.648
459.28	0.650
459.48	0.652
459.68	0.653
459.89	0.652
460.09	0.651
460.29	0.652
460.49	0.654
460.70	0.653
460.90	0.653
461.10	0.653
461.31	0.653
461.51	0.650
461.71	0.651
461.91	0.652
462.12	0.653
462.32	0.651
462.52	0.652
462.72	0.655
462.93	0.655
463.13	0.653
463.33	0.655
463.53	0.657
463.74	0.656
463.94	0.652
464.14	0.652
464.35	0.653
464.55	0.654
464.75	0.651
464.95	0.649
465.16	0.652
465.36	0.650
465.56	0.649
465.76	0.648
465.97	0.648
466.17	0.650
466.37	0.647
466.57	0.649
466.78	0.649
466.98	0.650
467.18	0.648
467.38	0.646
467.59	0.649
467.79	0.650
467.99	0.649
468.19	0.650
468.39	0.653
468.60	0.654
468.80	0.652
469.00	0.653
469.20	0.654
469.41	0.655
469.61	0.654
469.81	0.654
470.01	0.654
470.22	0.654
470.42	0.652
470.62	0.650
470.82	0.652
471.02	0.651
471.23	0.649
471.43	0.649
471.63	0.652
471.83	0.651
472.04	0.650
472.24	0.648
472.44	0.653
472.64	0.654
472.84	0.652
473.05	0.651
473.25	0.654
473.45	0.653
473.65	0.651
473.85	0.651
474.06	0.653
474.26	0.652
474.46	0.653
474.66	0.650
474.86	0.651
475.07	0.651
475.27	0.649
475.47	0.647
475.67	0.648
475.87	0.650
476.08	0.646
476.28	0.647
476.48	0.649
476.68	0.647
476.88	0.645
477.09	0.645
477.29	0.648
477.49	0.648
477.69	0.647
477.89	0.647
478.09	0.647
478.30	0.649
478.50	0.647
478.70	0.646
478.90	0.646
479.10	0.649
479.31	0.650
479.51	0.647
479.71	0.648
479.91	0.648
480.11	0.647
480.31	0.647
480.52	0.646
480.72	0.646
480.92	0.645
481.12	0.644
481.32	0.642
481.52	0.640
481.72	0.640
481.93	0.643
482.13	0.644
482.33	0.643
482.53	0.641
482.73	0.641
482.93	0.642
483.14	0.642
483.34	0.641
483.54	0.642
483.74	0.642
483.94	0.641
484.14	0.636
484.34	0.636
484.55	0.637
484.75	0.637
484.95	0.635
485.15	0.635
485.35	0.635
485.55	0.635
485.75	0.633
485.96	0.633
486.16	0.634
486.36	0.634
486.56	0.632
486.76	0.633
486.96	0.633
487.16	0.633
487.36	0.631
487.57	0.631
487.77	0.632
487.97	0.633
488.17	0.631
488.37	0.631
488.57	0.632
488.77	0.631
488.97	0.630
489.18	0.629
489.38	0.632
489.58	0.632
489.78	0.631
489.98	0.631
490.18	0.631
490.38	0.632
490.58	0.630
490.78	0.630
490.98	0.633
491.19	0.633
491.39	0.632
491.59	0.631
491.79	0.634
491.99	0.634
492.19	0.634
492.39	0.637
492.59	0.637
492.79	0.639
492.99	0.639
493.20	0.640
493.40	0.640
493.60	0.641
493.80	0.639
494.00	0.637
494.20	0.638
494.40	0.638
494.60	0.635
494.80	0.639
495.00	0.638
495.20	0.636
495.40	0.635
495.61	0.637
495.81	0.637
496.01	0.640
496.21	0.641
496.41	0.640
496.61	0.641
496.81	0.640
497.01	0.635
497.21	0.634
497.41	0.635
497.61	0.635
497.81	0.632
498.01	0.632
498.21	0.630
498.41	0.628
498.61	0.628
498.82	0.630
499.02	0.632
499.22	0.633
499.42	0.632
499.62	0.633
499.82	0.634
500.02	0.635
500.22	0.634
500.42	0.636
500.62	0.637
500.82	0.637
501.02	0.635
501.22	0.635
501.42	0.635
501.62	0.637
501.82	0.637
502.02	0.637
502.22	0.636
502.42	0.638
502.62	0.636
502.82	0.635
503.02	0.637
503.22	0.636
503.42	0.634
503.63	0.634
503.83	0.632
504.03	0.631
504.23	0.630
504.43	0.631
504.63	0.632
504.83	0.631
505.03	0.630
505.23	0.632
505.43	0.634
505.63	0.635
505.83	0.635
506.03	0.636
506.23	0.639
506.43	0.639
506.63	0.637
506.83	0.636
507.03	0.638
507.23	0.639
507.43	0.636
507.63	0.637
507.83	0.638
508.03	0.638
508.23	0.637
508.43	0.635
508.63	0.637
508.83	0.638
509.03	0.639
509.23	0.637
509.43	0.639
509.63	0.639
509.83	0.637
510.03	0.639
510.23	0.641
510.43	0.642
510.63	0.642
510.83	0.642
511.03	0.644
511.23	0.641
511.43	0.641
511.63	0.643
511.83	0.645
512.03	0.645
512.22	0.642
512.42	0.641
512.62	0.642
512.82	0.642
513.02	0.641
513.22	0.640
513.42	0.642
513.62	0.645
513.82	0.641
514.02	0.641
514.22	0.642
514.42	0.643
514.62	0.643
514.82	0.643
515.02	0.645
515.22	0.649
515.42	0.647
515.62	0.651
515.82	0.650
516.02	0.652
516.22	0.651
516.42	0.652
516.62	0.654
516.82	0.655
517.01	0.653
517.21	0.652
517.41	0.656
517.61	0.656
517.81	0.652
518.01	0.651
518.21	0.652
518.41	0.651
518.61	0.650
518.81	0.650
519.01	0.652
519.21	0.652
519.41	0.651
519.61	0.645
519.81	0.648
520.00	0.649
520.20	0.649
520.40	0.652
520.60	0.653
520.80	0.652
521.00	0.652
521.20	0.652
521.40	0.657
521.60	0.658
521.80	0.656
522.00	0.657
522.20	0.659
522.39	0.659
522.59	0.655
522.79	0.657
522.99	0.659
523.19	0.657
523.39	0.655
523.59	0.653
523.79	0.657
523.99	0.659
524.19	0.657
524.38	0.656
524.58	0.657
524.78	0.657
524.98	0.655
525.18	0.657
525.38	0.659
525.58	0.660
525.78	0.657
525.98	0.655
526.18	0.655
526.37	0.655
526.57	0.657
526.77	0.657
526.97	0.658
527.17	0.658
527.37	0.654
527.57	0.657
527.77	0.659
527.96	0.659
528.16	0.657
528.36	0.658
528.56	0.660
528.76	0.658
528.96	0.657
529.16	0.658
529.36	0.662
529.55	0.661
529.75	0.658
529.95	0.658
530.15	0.660
530.35	0.662
530.55	0.660
530.75	0.661
530.94	0.662
531.14	0.663
531.34	0.660
531.54	0.658
531.74	0.662
531.94	0.664
532.13	0.662
532.33	0.664
532.53	0.664
532.73	0.663
532.93	0.661
533.13	0.662
533.33	0.662
533.52	0.663
533.72	0.665
533.92	0.663
534.12	0.662
534.32	0.662
534.52	0.660
534.71	0.661
534.91	0.665
535.11	0.667
535.31	0.665
535.51	0.667
535.71	0.669
535.90	0.666
536.10	0.668
536.30	0.669
536.50	0.670
536.70	0.671
536.89	0.668
537.09	0.668
537.29	0.670
537.49	0.670
537.69	0.668
537.89	0.669
538.08	0.669
538.28	0.666
538.48	0.666
538.68	0.668
538.88	0.670
539.07	0.670
539.27	0.668
539.47	0.667
539.67	0.667
539.87	0.668
540.06	0.665
540.26	0.667
540.46	0.670
540.66	0.668
540.86	0.665
541.05	0.664
541.25	0.667
541.45	0.667
541.65	0.665
541.84	0.667
542.04	0.668
542.24	0.668
542.44	0.666
542.64	0.667
542.83	0.670
543.03	0.670
543.23	0.668
543.43	0.668
543.62	0.669
543.82	0.670
544.02	0.668
544.22	0.669
544.42	0.672
544.61	0.672
544.81	0.669
545.01	0.668
545.21	0.670
545.40	0.671
545.60	0.669
545.80	0.672
546.00	0.673
546.19	0.672
546.39	0.671
546.59	0.668
546.79	0.670
546.98	0.671
547.18	0.670
547.38	0.671
547.58	0.674
547.77	0.674
547.97	0.670
548.17	0.672
548.37	0.672
548.56	0.673
548.76	0.672
548.96	0.674
549.16	0.677
549.35	0.676
549.55	0.674
549.75	0.674
549.95	0.678
550.14	0.679
550.34	0.677
550.54	0.682
550.73	0.686
550.93	0.686
551.13	0.683
551.33	0.681
551.52	0.682
551.72	0.682
551.92	0.680
552.12	0.680
552.31	0.681
552.51	0.682
552.71	0.676
552.90	0.676
553.10	0.678
553.30	0.677
553.50	0.676
553.69	0.677
553.89	0.678
554.09	0.679
554.28	0.676
554.48	0.678
554.68	0.680
554.87	0.680
555.07	0.676
555.27	0.676
555.47	0.678
555.66	0.679
555.86	0.677
556.06	0.680
556.25	0.682
556.45	0.690
556.65	0.687
556.84	0.690
557.04	0.694
557.24	0.696
557.43	0.695
557.63	0.698
557.83	0.699
558.02	0.700
558.22	0.703
558.42	0.704
558.61	0.696
558.81	0.697
559.01	0.692
559.21	0.692
559.40	0.694
559.60	0.694
559.80	0.690
559.99	0.692
560.19	0.694
560.39	0.687
560.58	0.684
560.78	0.685
560.97	0.689
561.17	0.687
561.37	0.685
561.56	0.686
561.76	0.687
561.96	0.686
562.15	0.683
562.35	0.686
562.55	0.688
562.74	0.688
562.94	0.686
563.14	0.685
563.33	0.686
563.53	0.686
563.73	0.682
563.92	0.685
564.12	0.688
564.31	0.690
564.51	0.687
564.71	0.689
564.90	0.693
565.10	0.693
565.30	0.695
565.49	0.696
565.69	0.698
565.89	0.699
566.08	0.695
566.28	0.697
566.47	0.699
566.67	0.696
566.87	0.693
567.06	0.695
567.26	0.702
567.46	0.697
567.65	0.696
567.85	0.697
568.04	0.700
568.24	0.699
568.44	0.696
568.63	0.694
568.83	0.696
569.02	0.695
569.22	0.690
569.42	0.686
569.61	0.689
569.81	0.686
570.00	0.684
570.20	0.686
570.40	0.687
570.59	0.687
570.79	0.685
570.98	0.683
571.18	0.685
571.38	0.685
571.57	0.681
571.77	0.679
571.96	0.683
572.16	0.681
572.35	0.675
572.55	0.676
572.75	0.674
572.94	0.674
573.14	0.672
573.33	0.672
573.53	0.673
573.73	0.672
573.92	0.671
574.12	0.669
574.31	0.672
574.51	0.673
574.70	0.669
574.90	0.670
575.09	0.673
575.29	0.673
575.49	0.671
575.68	0.671
575.88	0.672
576.07	0.673
576.27	0.671
576.46	0.670
576.66	0.669
576.86	0.669
577.05	0.667
577.25	0.665
577.44	0.666
577.64	0.666
577.83	0.664
578.03	0.665
578.22	0.664
578.42	0.663
578.61	0.662
578.81	0.662
579.00	0.663
579.20	0.662
579.40	0.661
579.59	0.660
579.79	0.661
579.98	0.661
580.18	0.660
580.37	0.660
580.57	0.663
580.76	0.668
580.96	0.665
581.15	0.667
581.35	0.669
581.54	0.668
581.74	0.667
581.93	0.668
582.13	0.669
582.32	0.667
582.52	0.665
582.71	0.664
582.91	0.660
583.10	0.661
583.30	0.659
583.49	0.658
583.69	0.662
583.88	0.664
584.08	0.663
584.27	0.665
584.47	0.669
584.66	0.669
584.86	0.668
585.05	0.670
585.25	0.672
585.44	0.672
585.64	0.670
585.83	0.667
586.03	0.668
586.22	0.667
586.42	0.663
586.61	0.665
586.81	0.668
587.00	0.668
587.20	0.665
587.39	0.666
587.59	0.668
587.78	0.670
587.98	0.671
588.17	0.671
588.37	0.674
588.56	0.676
588.76	0.672
588.95	0.672
589.15	0.676
589.34	0.678
589.54	0.676
589.73	0.676
589.92	0.679
590.12	0.679
590.31	0.676
590.51	0.681
590.70	0.683
590.90	0.683
591.09	0.680
591.29	0.679
591.48	0.679
591.68	0.680
591.87	0.678
592.06	0.678
592.26	0.681
592.45	0.680
592.65	0.674
592.84	0.673
593.04	0.677
593.23	0.679
593.43	0.676
593.62	0.676
593.81	0.678
594.01	0.677
594.20	0.674
594.40	0.673
594.59	0.675
594.79	0.677
594.98	0.675
595.17	0.674
595.37	0.675
595.56	0.677
595.76	0.675
595.95	0.677
596.14	0.680
596.34	0.682
596.53	0.679
596.73	0.680
596.92	0.681
597.12	0.684
597.31	0.683
597.50	0.682
597.70	0.685
597.89	0.684
598.09	0.680
598.28	0.681
598.47	0.684
598.67	0.683
598.86	0.679
599.06	0.681
599.25	0.681
599.44	0.680
599.64	0.677
599.83	0.675
600.03	0.679
600.22	0.680
600.41	0.679
600.61	0.678
600.80	0.681
601.00	0.682
601.19	0.678
601.38	0.676
601.58	0.678
601.77	0.680
601.96	0.681
602.16	0.681
602.35	0.690
602.55	0.687
602.74	0.687
602.93	0.688
603.13	0.693
603.32	0.694
603.51	0.693
603.71	0.697
603.90	0.700
604.09	0.700
604.29	0.696
604.48	0.691
604.68	0.692
604.87	0.691
605.06	0.687
605.26	0.684
605.45	0.685
605.64	0.685
605.84	0.680
606.03	0.678
606.22	0.678
606.42	0.677
606.61	0.673
606.80	0.674
607.00	0.676
607.19	0.676
607.38	0.675
607.58	0.676
607.77	0.679
607.96	0.679
608.16	0.678
608.35	0.683
608.54	0.687
608.74	0.691
608.93	0.695
609.12	0.698
609.32	0.701
609.51	0.704
609.70	0.703
609.90	0.705
610.09	0.710
610.28	0.715
610.48	0.708
610.67	0.709
610.86	0.709
611.06	0.703
611.25	0.701
611.44	0.701
611.64	0.701
611.83	0.704
612.02	0.700
612.21	0.698
612.41	0.697
612.60	0.696
612.79	0.691
612.99	0.692
613.18	0.695
613.37	0.692
613.57	0.688
613.76	0.691
613.95	0.689
614.14	0.689
614.34	0.686
614.53	0.686
614.72	0.690
614.92	0.690
615.11	0.687
615.30	0.684
615.49	0.687
615.69	0.690
615.88	0.686
616.07	0.687
616.26	0.690
616.46	0.692
616.65	0.688
616.84	0.687
617.04	0.689
617.23	0.692
617.42	0.691
617.61	0.696
617.81	0.697
618.00	0.698
618.19	0.696
618.38	0.700
618.58	0.703
618.77	0.705
618.96	0.704
619.15	0.706
619.35	0.708
619.54	0.710
619.73	0.704
619.92	0.706
620.12	0.711
620.31	0.712
620.50	0.706
620.69	0.706
620.89	0.710
621.08	0.710
621.27	0.709
621.46	0.708
621.66	0.713
621.85	0.713
622.04	0.709
622.23	0.709
622.43	0.710
622.62	0.710
622.81	0.709
623.00	0.708
623.19	0.713
623.39	0.712
623.58	0.708
623.77	0.706
623.96	0.710
624.16	0.709
624.35	0.704
624.54	0.707
624.73	0.712
624.92	0.708
625.12	0.705
625.31	0.706
625.50	0.710
625.69	0.712
625.88	0.708
626.08	0.707
626.27	0.709
626.46	0.710
626.65	0.706
626.84	0.706
627.04	0.713
627.23	0.712
627.42	0.707
627.61	0.709
627.80	0.711
628.00	0.712
628.19	0.710
628.38	0.713
628.57	0.717
628.76	0.717
628.96	0.713
629.15	0.713
629.34	0.717
629.53	0.718
629.72	0.711
629.91	0.712
630.11	0.717
630.30	0.719
630.49	0.721
630.68	0.721
630.87	0.725
631.06	0.728
631.26	0.723
631.45	0.725
631.64	0.733
631.83	0.737
632.02	0.733
632.21	0.733
632.41	0.740
632.60	0.734
632.79	0.732
632.98	0.732
633.17	0.733
633.36	0.734
633.55	0.729
633.75	0.725
633.94	0.726
634.13	0.727
634.32	0.722
634.51	0.717
634.70	0.720
634.89	0.719
635.09	0.715
635.28	0.716
635.47	0.718
635.66	0.721
635.85	0.716
636.04	0.718
636.23	0.724
636.43	0.726
636.62	0.724
636.81	0.722
637.00	0.726
637.19	0.730
637.38	0.726
637.57	0.725
637.76	0.728
637.95	0.730
638.15	0.726
638.34	0.722
638.53	0.725
638.72	0.727
638.91	0.725
639.10	0.722
639.29	0.723
639.48	0.725
639.67	0.724
639.87	0.723
640.06	0.729
640.25	0.729
640.44	0.730
640.63	0.730
640.82	0.733
641.01	0.733
641.20	0.732
641.39	0.733
641.58	0.735
641.78	0.734
641.97	0.728
642.16	0.742
642.35	0.744
642.54	0.743
642.73	0.736
642.92	0.734
643.11	0.738
643.30	0.737
643.49	0.731
643.68	0.734
643.87	0.737
644.06	0.738
644.25	0.717
644.45	0.720
644.64	0.721
644.83	0.723
645.02	0.719
645.21	0.718
645.40	0.722
645.59	0.721
645.78	0.714
645.97	0.715
646.16	0.716
646.35	0.716
646.54	0.713
646.73	0.713
646.92	0.715
647.11	0.715
647.30	0.710
647.49	0.712
647.68	0.712
647.88	0.710
648.07	0.703
648.26	0.707
648.45	0.709
648.64	0.705
648.83	0.703
649.02	0.705
649.21	0.717
649.40	0.715
649.59	0.709
649.78	0.710
649.97	0.726
650.16	0.726
650.35	0.719
650.54	0.721
650.73	0.730
650.92	0.727
651.11	0.720
651.30	0.717
651.49	0.722
651.68	0.722
651.87	0.718
652.06	0.707
652.25	0.711
652.44	0.713
652.63	0.708
652.82	0.707
653.01	0.706
653.20	0.703
653.39	0.690
653.58	0.688
653.77	0.687
653.96	0.683
654.15	0.674
654.34	0.672
654.53	0.668
654.72	0.662
654.91	0.653
655.10	0.651
655.29	0.649
655.48	0.647
655.67	0.641
655.86	0.639
656.05	0.638
656.24	0.638
656.43	0.633
656.62	0.633
656.81	0.634
657.00	0.633
657.19	0.630
657.38	0.631
657.57	0.631
657.76	0.634
657.95	0.632
658.14	0.636
658.33	0.639
658.51	0.645
658.70	0.645
658.89	0.646
659.08	0.655
659.27	0.662
659.46	0.662
659.65	0.668
659.84	0.672
660.03	0.675
660.22	0.675
660.41	0.679
660.60	0.679
660.79	0.680
660.98	0.685
661.17	0.684
661.36	0.683
661.55	0.683
661.74	0.679
661.92	0.683
662.11	0.686
662.30	0.685
662.49	0.678
662.68	0.678
662.87	0.681
663.06	0.675
663.25	0.676
663.44	0.677
663.63	0.678
663.82	0.677
664.01	0.670
664.20	0.669
664.38	0.670
664.57	0.671
664.76	0.670
664.95	0.671
665.14	0.676
665.33	0.671
665.52	0.678
665.71	0.683
665.90	0.683
666.09	0.685
666.28	0.682
666.46	0.683
666.65	0.685
666.84	0.683
667.03	0.677
667.22	0.675
667.41	0.679
667.60	0.667
667.79	0.660
667.98	0.661
668.16	0.663
668.35	0.662
668.54	0.656
668.73	0.657
668.92	0.658
669.11	0.657
669.30	0.650
669.49	0.647
669.67	0.649
669.86	0.652
670.05	0.649
670.24	0.646
670.43	0.644
670.62	0.643
670.81	0.637
671.00	0.638
671.18	0.638
671.37	0.637
671.56	0.634
671.75	0.633
671.94	0.630
672.13	0.628
672.32	0.623
672.50	0.623
672.69	0.623
672.88	0.624
673.07	0.618
673.26	0.620
673.45	0.623
673.63	0.623
673.82	0.619
674.01	0.621
674.20	0.620
674.39	0.619
674.58	0.618
674.76	0.618
674.95	0.616
675.14	0.616
675.33	0.612
675.52	0.609
675.71	0.610
675.89	0.609
676.08	0.604
676.27	0.604
676.46	0.606
676.65	0.606
676.84	0.605
677.02	0.607
677.21	0.610
677.40	0.608
677.59	0.607
677.78	0.607
677.96	0.610
678.15	0.610
678.34	0.608
678.53	0.607
678.72	0.608
678.90	0.604
679.09	0.599
679.28	0.596
679.47	0.597
679.66	0.596
679.84	0.592
680.03	0.590
680.22	0.589
680.41	0.591
680.60	0.587
680.78	0.587
680.97	0.590
681.16	0.591
681.35	0.589
681.53	0.588
681.72	0.590
681.91	0.592
682.10	0.589
682.29	0.592
682.47	0.590
682.66	0.589
682.85	0.587
683.04	0.585
683.22	0.584
683.41	0.586
683.60	0.584
683.79	0.585
683.97	0.584
684.16	0.583
684.35	0.578
684.54	0.580
684.72	0.580
684.91	0.581
685.10	0.579
685.29	0.581
685.47	0.578
685.66	0.578
685.85	0.574
686.04	0.573
686.22	0.576
686.41	0.579
686.60	0.575
686.79	0.578
686.97	0.579
687.16	0.581
687.35	0.578
687.54	0.582
687.72	0.585
687.91	0.585
688.10	0.587
688.29	0.586
688.47	0.585
688.66	0.584
688.85	0.580
689.03	0.578
689.22	0.583
689.41	0.583
689.60	0.578
689.78	0.575
689.97	0.576
690.16	0.574
690.34	0.570
690.53	0.569
690.72	0.570
690.91	0.568
691.09	0.566
691.28	0.559
691.47	0.558
691.65	0.557
691.84	0.554
692.03	0.553
692.21	0.552
692.40	0.551
692.59	0.549
692.77	0.547
692.96	0.549
693.15	0.550
693.34	0.547
693.52	0.548
693.71	0.549
693.90	0.550
694.08	0.550
694.27	0.551
694.46	0.561
694.64	0.562
694.83	0.561
695.02	0.560
695.20	0.560
695.39	0.560
695.58	0.559
695.76	0.560
695.95	0.560
696.14	0.559
696.32	0.556
696.51	0.546
696.70	0.546
696.88	0.547
697.07	0.546
697.26	0.547
697.44	0.548
697.63	0.548
697.81	0.545
698.00	0.544
698.19	0.544
698.37	0.545
698.56	0.545
698.75	0.545
698.93	0.544
699.12	0.544
699.31	0.542
699.49	0.542
699.68	0.543
699.87	0.546
700.05	0.546
700.24	0.545
700.42	0.546
700.61	0.544
700.80	0.542
700.98	0.542
701.17	0.544
701.36	0.543
701.54	0.542
701.73	0.543
701.91	0.541
702.10	0.541
702.29	0.539
702.47	0.538
702.66	0.541
702.84	0.542
703.03	0.540
703.22	0.542
703.40	0.542
703.59	0.543
703.77	0.543
703.96	0.542
704.15	0.542
704.33	0.543
704.52	0.542
704.70	0.541
704.89	0.541
705.08	0.540
705.26	0.536
705.45	0.536
705.63	0.535
705.82	0.532
706.00	0.531
706.19	0.531
706.38	0.530
706.56	0.530
706.75	0.527
706.93	0.526
707.12	0.528
707.30	0.529
707.49	0.526
707.68	0.524
707.86	0.524
708.05	0.524
708.23	0.521
708.42	0.522
708.60	0.525
708.79	0.525
708.98	0.523
709.16	0.523
709.35	0.525
709.53	0.529
709.72	0.528
709.90	0.530
710.09	0.532
710.27	0.534
710.46	0.537
710.64	0.536
710.83	0.537
711.02	0.539
711.20	0.537
711.39	0.535
711.57	0.533
711.76	0.534
711.94	0.531
712.13	0.532
712.31	0.532
712.50	0.527
712.68	0.524
712.87	0.525
713.05	0.526
713.24	0.526
713.42	0.525
713.61	0.526
713.79	0.527
713.98	0.527
714.16	0.527
714.35	0.527
714.54	0.528
714.72	0.528
714.91	0.526
715.09	0.532
715.28	0.535
715.46	0.535
715.65	0.532
715.83	0.532
716.02	0.536
716.20	0.532
716.39	0.531
716.57	0.532
716.76	0.535
716.94	0.535
717.12	0.526
717.31	0.528
717.49	0.531
717.68	0.533
717.86	0.532
718.05	0.534
718.23	0.537
718.42	0.540
718.60	0.541
718.79	0.549
718.97	0.552
719.16	0.552
719.34	0.549
719.53	0.549
719.71	0.549
719.90	0.551
720.08	0.549
720.27	0.548
720.45	0.549
720.63	0.547
720.82	0.541
721.00	0.543
721.19	0.547
721.37	0.547
721.56	0.546
721.74	0.550
721.93	0.560
722.11	0.566
722.30	0.565
722.48	0.569
722.66	0.572
722.85	0.572
723.03	0.572
723.22	0.570
723.40	0.573
723.59	0.573
723.77	0.576
723.95	0.568
724.14	0.570
724.32	0.572
724.51	0.570
724.69	0.571
724.88	0.572
725.06	0.570
725.24	0.571
725.43	0.573
725.61	0.576
725.80	0.570
725.98	0.568
726.16	0.564
726.35	0.571
726.53	0.570
726.72	0.569
726.90	0.580
727.09	0.581
727.27	0.588
727.45	0.584
727.64	0.594
727.82	0.603
728.01	0.607
728.19	0.603
728.37	0.609
728.56	0.614
728.74	0.620
728.92	0.606
729.11	0.609
729.29	0.608
729.48	0.611
729.66	0.599
729.84	0.599
730.03	0.603
730.21	0.606
730.40	0.595
730.58	0.596
730.76	0.598
730.95	0.602
731.13	0.601
731.31	0.614
731.50	0.625
731.68	0.628
731.86	0.624
732.05	0.639
732.23	0.645
732.42	0.649
732.60	0.652
732.78	0.657
732.97	0.676
733.15	0.682
733.33	0.669
733.52	0.676
733.70	0.690
733.88	0.698
734.07	0.682
734.25	0.710
734.43	0.719
734.62	0.721
734.80	0.713
734.98	0.704
735.17	0.715
735.35	0.723
735.53	0.710
735.72	0.714
735.90	0.738
736.08	0.758
736.27	0.730
736.45	0.743
736.63	0.760
736.82	0.770
737.00	0.770
737.18	0.783
737.37	0.822
737.55	0.848
737.73	0.839
737.92	0.844
738.10	0.843
738.28	0.871
738.46	0.856
738.65	0.872
738.83	0.901
739.01	0.964
739.20	0.950
739.38	0.931
739.56	0.925
739.75	0.933
739.93	0.888
740.11	0.919
740.29	0.921
740.48	0.928
740.66	0.898
740.84	0.891
741.03	0.858
741.21	0.870
741.39	0.842
741.57	0.859
741.76	0.880
741.94	0.890
742.12	0.846
742.31	0.854
742.49	0.881
742.67	0.910
742.85	0.925
743.04	0.929
743.22	0.944
743.40	1.011
743.58	0.980
743.77	1.003
743.95	1.055
744.13	1.122
744.31	1.087
744.50	1.077
744.68	1.083
744.86	1.051
745.04	1.058
745.23	1.138
745.41	1.119
745.59	1.131
745.77	1.079
745.96	1.057
746.14	1.073
746.32	1.075
746.50	1.055
746.69	1.038
746.87	1.060
747.05	1.042
747.23	0.950
747.42	0.933
747.60	0.972
747.78	0.975
747.96	1.011
748.14	0.958
748.33	0.994
748.51	0.987
748.69	0.971
748.87	1.009
749.06	1.012
749.24	1.007
749.42	0.982
749.60	0.957
749.78	0.979
749.97	0.922
750.15	0.915
750.33	0.922
750.51	0.959
750.69	0.965
750.88	0.962
751.06	0.971
751.24	1.017
751.42	1.005
751.60	0.989
751.79	1.075
751.97	1.145
752.15	1.140
752.33	1.086
752.51	1.169
752.69	1.202
752.88	1.150
753.06	1.211
753.24	1.163
753.42	1.223
753.60	1.492
753.78	1.246
753.97	1.270
754.15	1.309
754.33	1.352
754.51	1.165
754.69	1.149
754.87	1.196
755.06	1.087
755.24	1.090
755.42	1.096
755.60	0.977
755.78	0.988
755.96	0.920
756.15	0.921
756.33	0.931
756.51	0.952
756.69	0.928
756.87	0.890
757.05	0.916
757.23	0.896
757.42	0.858
757.60	0.855
757.78	0.843
757.96	0.841
758.14	0.819
758.32	0.800
758.50	0.815
758.69	0.815
758.87	0.803
759.05	0.808
759.23	0.821
759.41	0.820
759.59	0.810
759.77	0.834
759.95	0.869
760.13	0.926
760.32	0.926
760.50	0.921
760.68	0.952
760.86	0.956
761.04	0.918
761.22	0.922
761.40	0.983
761.58	0.987
761.76	0.954
761.95	0.930
762.13	0.876
762.31	0.875
762.49	0.837
762.67	0.854
762.85	0.872
763.03	0.871
763.21	0.847
763.39	0.825
763.57	0.831
763.75	0.825
763.94	0.807
764.12	0.808
764.30	0.841
764.48	0.844
764.66	0.802
764.84	0.799
765.02	0.843
765.20	0.851
765.38	0.825
765.56	0.832
765.74	0.880
765.92	0.879
766.10	0.888
766.28	0.879
766.46	0.916
766.65	0.916
766.83	0.899
767.01	0.879
767.19	0.890
767.37	0.891
767.55	0.868
767.73	0.844
767.91	0.854
768.09	0.841
768.27	0.825
768.45	0.816
768.63	0.825
768.81	0.822
768.99	0.792
769.17	0.822
769.35	0.842
769.53	0.844
769.71	0.823
769.89	0.832
770.07	0.839
770.25	0.819
770.43	0.791
770.61	0.817
770.79	0.830
770.97	0.839
771.15	0.803
771.33	0.805
771.51	0.810
771.69	0.822
771.87	0.827
772.05	0.834
772.24	0.849
772.42	0.858
772.60	0.830
772.78	0.902
772.96	0.943
773.14	0.934
773.32	0.903
773.49	0.909
773.67	0.906
773.85	0.884
774.03	0.863
774.21	0.901
774.39	0.916
774.57	0.944
774.75	0.858
774.93	0.850
775.11	0.880
775.29	0.887
775.47	0.885
775.65	0.896
775.83	0.917
776.01	0.949
776.19	0.884
776.37	0.887
776.55	0.886
776.73	0.877
776.91	0.869
777.09	0.845
777.27	0.846
777.45	0.837
777.63	0.811
777.81	0.807
777.99	0.795
778.17	0.797
778.35	0.771
778.53	0.758
778.71	0.768
778.89	0.754
779.07	0.744
779.24	0.752
779.42	0.751
779.60	0.774
779.78	0.767
779.96	0.773
780.14	0.785
780.32	0.808
780.50	0.789
780.68	0.787
780.86	0.781
781.04	0.797
781.22	0.799
781.40	0.815
781.58	0.802
781.75	0.796
781.93	0.775
782.11	0.775
782.29	0.761
782.47	0.761
782.65	0.747
782.83	0.778
783.01	0.776
783.19	0.766
783.37	0.748
783.55	0.752
783.72	0.772
783.90	0.783
784.08	0.773
784.26	0.787
784.44	0.810
784.62	0.810
784.80	0.770
784.98	0.774
785.16	0.783
785.33	0.797
785.51	0.779
785.69	0.764
785.87	0.764
786.05	0.777
786.23	0.768
786.41	0.767
786.59	0.776
786.77	0.777
786.94	0.761
787.12	0.766
787.30	0.773
787.48	0.770
787.66	0.756
787.84	0.757
788.02	0.746
788.19	0.745
788.37	0.728
788.55	0.732
788.73	0.734
788.91	0.728
789.09	0.706
789.27	0.693
789.44	0.708
789.62	0.713
789.80	0.720
789.98	0.747
790.16	0.733
790.34	0.727
790.51	0.712
790.69	0.732
790.87	0.740
791.05	0.741
791.23	0.730
791.41	0.729
791.58	0.740
791.76	0.715
791.94	0.681
792.12	0.690
792.30	0.696
792.48	0.692
792.65	0.687
792.83	0.695
793.01	0.703
793.19	0.703
793.37	0.685
793.54	0.681
793.72	0.697
793.90	0.694
794.08	0.681
794.26	0.681
794.43	0.693
794.61	0.673
794.79	0.658
794.97	0.658
795.15	0.666
795.32	0.670
795.50	0.658
795.68	0.651
795.86	0.658
796.04	0.661
796.21	0.655
796.39	0.652
796.57	0.670
796.75	0.681
796.92	0.681
797.10	0.686
797.28	0.689
797.46	0.693
797.64	0.693
797.81	0.703
797.99	0.709
798.17	0.712
798.35	0.703
798.52	0.706
798.70	0.701
798.88	0.709
799.06	0.707
799.23	0.710
799.41	0.719
799.59	0.712
799.77	0.695
799.94	0.704
800.12	0.717
800.30	0.738
800.48	0.734
800.65	0.735
800.83	0.727
801.01	0.716
801.19	0.716
801.36	0.712
801.54	0.716
801.72	0.728
801.90	0.712
802.07	0.706
802.25	0.690
802.43	0.673
802.60	0.669
802.78	0.676
802.96	0.685
803.14	0.678
803.31	0.675
803.49	0.678
803.67	0.674
803.84	0.677
804.02	0.667
804.20	0.671
804.38	0.676
804.55	0.673
804.73	0.655
804.91	0.654
805.08	0.667
805.26	0.663
805.44	0.724
805.61	0.730
805.79	0.731
805.97	0.731
806.15	0.719
806.32	0.717
806.50	0.727
806.68	0.727
806.85	0.715
807.03	0.708
807.21	0.728
807.38	0.659
807.56	0.645
807.74	0.657
807.91	0.665
808.09	0.669
808.27	0.687
808.44	0.715
808.62	0.729
808.80	0.730
808.97	0.722
809.15	0.717
809.33	0.740
809.50	0.749
809.68	0.730
809.86	0.739
810.03	0.777
810.21	0.752
810.39	0.731
810.56	0.737
810.74	0.765
810.91	0.846
811.09	0.830
811.27	0.853
811.44	0.863
811.62	0.869
811.80	0.846
811.97	0.812
812.15	0.814
812.33	0.807
812.50	0.791
812.68	0.780
812.85	0.720
813.03	0.721
813.21	0.685
813.38	0.677
813.56	0.683
813.74	0.694
813.91	0.699
814.09	0.734
814.26	0.728
814.44	0.729
814.62	0.716
814.79	0.719
814.97	0.728
815.14	0.732
815.32	0.735
815.50	0.752
815.67	0.759
815.85	0.748
816.02	0.735
816.20	0.744
816.38	0.764
816.55	0.772
816.73	0.769
816.90	0.780
817.08	0.818
817.26	0.826
817.43	0.801
817.61	0.828
817.78	0.859
817.96	0.834
818.13	0.818
818.31	0.817
818.49	0.832
818.66	0.820
818.84	0.804
819.01	0.780
819.19	0.791
819.36	0.792
819.54	0.755
819.71	0.801
819.89	0.820
820.07	0.839
820.24	0.831
820.42	0.832
820.59	0.859
820.77	0.884
820.94	0.870
821.12	0.890
821.29	0.914
821.47	0.916
821.64	0.835
821.82	0.850
822.00	0.849
822.17	0.845
822.35	0.835
822.52	0.839
822.70	0.829
822.87	0.840
823.05	0.815
823.22	0.829
823.40	0.867
823.57	0.893
823.75	0.870
823.92	0.901
824.10	0.934
824.27	0.987
824.45	0.972
824.62	1.055
824.80	1.091
824.97	1.111
825.15	1.089
825.32	1.116
825.50	1.131
825.67	1.142
825.85	1.110
826.02	1.130
826.20	1.175
826.37	1.410
826.55	1.258
826.72	1.731
826.90	2.218
827.07	-0.000
827.25	2.111
827.42	-0.000
827.60	-0.000
827.77	-0.000
827.95	-0.000
828.12	-0.000
828.30	-0.000
828.47	-0.000
828.65	2.974
828.82	-0.000
829.00	-0.000
829.17	-0.000
829.34	-0.000
829.52	-0.000
829.69	-0.000
829.87	-0.000
830.04	-0.000
830.22	-0.000
830.39	-0.000
830.57	-0.000
830.74	-0.000
830.92	-0.000
831.09	-0.000
831.26	-0.000
831.44	-0.000
831.61	-0.000
831.79	-0.000
831.96	-0.000
832.14	-0.000
832.31	-0.000
832.49	-0.000
832.66	-0.000
832.83	-0.000
833.01	-0.000
833.18	-0.000
833.36	-0.000
833.53	-0.000
833.70	-0.000
833.88	-0.000
834.05	-0.000
834.23	-0.000
834.40	-0.000
834.58	-0.000
834.75	-0.000
834.92	-0.000
835.10	-0.000
835.27	-0.000
835.45	-0.000
835.62	-0.000
835.79	-0.000
835.97	-0.000
836.14	-0.000
836.32	-0.000
836.49	-0.000
836.66	-0.000
836.84	-0.000
837.01	-0.000
837.18	-0.000
837.36	-0.000
837.53	-0.000
837.71	-0.000
837.88	-0.000
838.05	-0.000
838.23	-0.000
838.40	-0.000
838.58	-0.000
838.75	-0.000
838.92	-0.000
839.10	-0.000
839.27	-0.000
839.44	-0.000
839.62	-0.000
839.79	-0.000
839.96	-0.000
840.14	-0.000
840.31	-0.000
840.48	-0.000
840.66	-0.000
840.83	-0.000
841.01	-0.000
841.18	-0.000
841.35	-0.000
841.53	-0.000
841.70	-0.000
841.87	-0.000
842.05	-0.000
842.22	-0.000
842.39	-0.000
842.57	-0.000
842.74	-0.000
842.91	-0.000
843.09	-0.000
843.26	-0.000
843.43	-0.000
843.60	-0.000
843.78	-0.000
843.95	-0.000
844.12	-0.000
844.30	-0.000
844.47	-0.000
844.64	-0.000
844.82	-0.000
844.99	-0.000
845.16	-0.000
845.34	-0.000
845.51	-0.000
845.68	-0.000
845.85	-0.000
846.03	-0.000
846.20	-0.000
846.37	-0.000
846.55	-0.000
846.72	-0.000
846.89	-0.000
847.06	-0.000
847.24	-0.000
847.41	-0.000
847.58	-0.000
847.76	-0.000
847.93	-0.000
848.10	-0.000
848.27	-0.000
848.45	-0.000
848.62	-0.000
848.79	-0.000
848.97	-0.000
849.14	-0.000
849.31	-0.000
849.48	-0.000
849.66	-0.000
849.83	-0.000
850.00	-0.000
850.17	-0.000
850.35	-0.000
850.52	-0.000
850.69	-0.000
850.86	-0.000
851.04	-0.000
851.21	-0.000
851.38	-0.000
851.55	-0.000
851.72	-0.000
851.90	-0.000
852.07	-0.000
852.24	-0.000
852.41	-0.000
852.59	-0.000
852.76	-0.000
852.93	-0.000
853.10	-0.000
853.28	-0.000
853.45	-0.000
853.62	-0.000
853.79	-0.000
853.96	-0.000
854.14	-0.000
854.31	-0.000
854.48	-0.000
854.65	-0.000
854.82	-0.000
855.00	-0.000
855.17	-0.000
855.34	-0.000
855.51	-0.000
855.68	-0.000
855.86	-0.000
856.03	-0.000
856.20	-0.000
856.37	-0.000
856.54	-0.000
856.72	-0.000
856.89	-0.000
857.06	-0.000
857.23	-0.000
857.40	-0.000
857.57	-0.000
857.75	-0.000
857.92	-0.000
858.09	-0.000
858.26	-0.000
858.43	-0.000
858.60	-0.000
858.78	-0.000
858.95	-0.000
859.12	-0.000
859.29	-0.000
859.46	-0.000
859.63	-0.000
859.81	-0.000
859.98	-0.000
860.15	-0.000
860.32	-0.000
860.49	-0.000
860.66	-0.000
860.83	-0.000
861.01	-0.000
861.18	-0.000
861.35	-0.000
861.52	-0.000
861.69	-0.000
861.86	-0.000
862.03	-0.000
862.21	-0.000
862.38	-0.000
862.55	-0.000
862.72	-0.000
862.89	-0.000
863.06	-0.000
863.23	-0.000
863.40	-0.000
863.58	-0.000
863.75	-0.000
863.92	-0.000
864.09	-0.000
864.26	-0.000
864.43	-0.000
864.60	-0.000
864.77	-0.000
864.94	-0.000
865.11	-0.000
865.29	-0.000
865.46	-0.000
865.63	-0.000
865.80	-0.000
865.97	-0.000
866.14	-0.000
866.31	-0.000
866.48	-0.000
866.65	-0.000
866.82	-0.000
866.99	-0.000
867.16	-0.000
867.34	-0.000
867.51	-0.000
867.68	-0.000
867.85	-0.000
868.02	-0.000
868.19	-0.000
868.36	-0.000
868.53	-0.000
868.70	-0.000
868.87	-0.000
869.04	-0.000
869.21	-0.000
869.38	-0.000
869.55	-0.000
869.72	-0.000
869.89	-0.000
870.06	-0.000
870.24	-0.000
870.41	-0.000
870.58	-0.000
870.75	-0.000
870.92	-0.000
871.09	-0.000
871.26	-0.000
871.43	-0.000
871.60	-0.000
871.77	-0.000
871.94	-0.000
872.11	-0.000
872.28	-0.000
872.45	-0.000
872.62	-0.000
872.79	-0.000
872.96	-0.000
873.13	-0.000
873.30	-0.000
873.47	-0.000
873.64	-0.000
873.81	-0.000
873.98	-0.000
874.15	-0.000
874.32	-0.000
874.49	-0.000
874.66	-0.000
874.83	-0.000
875.00	-0.000
875.17	-0.000
875.34	-0.000
875.51	-0.000
875.68	-0.000
875.85	-0.000
876.02	-0.000
876.19	-0.000
876.36	-0.000
876.53	-0.000
876.70	-0.000
876.87	-0.000
877.04	-0.000
877.21	-0.000
877.38	-0.000
877.55	-0.000
877.72	-0.000
877.89	-0.000
878.06	-0.000
878.23	-0.000
878.39	-0.000
878.56	-0.000
878.73	-0.000
878.90	-0.000
879.07	-0.000
879.24	-0.000
879.41	-0.000
879.58	-0.000
879.75	-0.000
879.92	-0.000
880.09	-0.000
880.26	-0.000
880.43	-0.000
880.60	-0.000
880.77	-0.000
880.94	-0.000
881.11	-0.000
881.27	-0.000
881.44	-0.000
881.61	-0.000
881.78	-0.000
881.95	-0.000
882.12	-0.000
882.29	-0.000
882.46	-0.000
882.63	-0.000
882.80	-0.000
882.97	-0.000
883.14	-0.000
883.30	-0.000
883.47	-0.000
883.64	-0.000
883.81	-0.000
883.98	-0.000
884.15	-0.000
884.32	-0.000
884.49	-0.000
884.66	-0.000
884.82	-0.000
884.99	-0.000
885.16	-0.000
885.33	-0.000
885.50	-0.000
885.67	-0.000
885.84	-0.000
886.01	-0.000
886.17	-0.000
886.34	-0.000
886.51	-0.000
886.68	-0.000
886.85	-0.000
887.02	-0.000
887.19	-0.000
887.36	-0.000
887.52	-0.000
887.69	-0.000
887.86	-0.000
888.03	-0.000
888.20	-0.000
888.37	-0.000
888.54	-0.000
888.70	-0.000
888.87	-0.000
889.04	-0.000
889.21	-0.000
889.38	-0.000
889.55	-0.000
889.71	-0.000
889.88	-0.000
890.05	-0.000
890.22	-0.000
890.39	-0.000
>>>>>End Processed Spectral Data<<<<<
