SpectraSuite Data File
++++++++++++++++++++++++++++++++++++
Date: Fri Jun 19 13:57:04 CEST 2015
User: introlabs
Dark Spectrum Present: Yes
Reference Spectrum Present: Yes
Number of Sampled Component Spectra: 1
Spectrometers: USB4H08886
Integration Time (usec): 745692 (USB4H08886)
Spectra Averaged: 5 (USB4H08886)
Boxcar Smoothing: 5 (USB4H08886)
Correct for Electrical Dark: Yes (USB4H08886)
Strobe/Lamp Enabled: No (USB4H08886)
Correct for Detector Non-linearity: Yes (USB4H08886)
Correct for Stray Light: Yes (USB4H08886)
Number of Pixels in Processed Spectrum: 3648
>>>>>Begin Processed Spectral Data<<<<<
178.14	-0.000
178.36	-0.000
178.57	-0.000
178.79	-0.000
179.01	-0.000
179.22	-0.000
179.44	-0.000
179.65	-0.000
179.87	-0.000
180.08	-0.000
180.30	-0.000
180.52	-0.000
180.73	-0.000
180.95	-0.000
181.16	-0.000
181.38	-0.000
181.59	-0.000
181.81	-0.000
182.03	-0.000
182.24	-0.000
182.46	-0.000
182.67	-0.000
182.89	-0.000
183.10	-0.000
183.32	-0.000
183.54	-0.000
183.75	-0.000
183.97	-0.000
184.18	-0.000
184.40	-0.000
184.61	-0.000
184.83	-0.000
185.04	-0.000
185.26	-0.000
185.48	-0.000
185.69	-0.000
185.91	-0.000
186.12	-0.000
186.34	-0.000
186.55	-0.000
186.77	-0.000
186.98	-0.000
187.20	-0.000
187.42	-0.000
187.63	-0.000
187.85	-0.000
188.06	-0.000
188.28	-0.000
188.49	-0.000
188.71	-0.000
188.92	-0.000
189.14	-0.000
189.36	-0.000
189.57	-0.000
189.79	-0.000
190.00	-0.000
190.22	-0.000
190.43	-0.000
190.65	-0.000
190.86	-0.000
191.08	-0.000
191.29	-0.000
191.51	-0.000
191.72	-0.000
191.94	-0.000
192.16	-0.000
192.37	-0.000
192.59	-0.000
192.80	-0.000
193.02	-0.000
193.23	-0.000
193.45	-0.000
193.66	-0.000
193.88	-0.000
194.09	-0.000
194.31	-0.000
194.52	-0.000
194.74	-0.000
194.95	-0.000
195.17	-0.000
195.38	-0.000
195.60	-0.000
195.81	-0.000
196.03	-0.000
196.25	-0.000
196.46	-0.000
196.68	-0.000
196.89	-0.000
197.11	-0.000
197.32	-0.000
197.54	-0.000
197.75	-0.000
197.97	-0.000
198.18	-0.000
198.40	-0.000
198.61	-0.000
198.83	-0.000
199.04	-0.000
199.26	-0.000
199.47	-0.000
199.69	-0.000
199.90	-0.000
200.12	-0.000
200.33	-0.000
200.55	-0.000
200.76	-0.000
200.98	-0.000
201.19	-0.000
201.41	-0.000
201.62	-0.000
201.84	-0.000
202.05	-0.000
202.27	-0.000
202.48	-0.000
202.70	-0.000
202.91	-0.000
203.13	-0.000
203.34	-0.000
203.56	-0.000
203.77	-0.000
203.99	-0.000
204.20	-0.000
204.42	-0.000
204.63	-0.000
204.85	-0.000
205.06	-0.000
205.28	-0.000
205.49	-0.000
205.71	-0.000
205.92	-0.000
206.14	-0.000
206.35	-0.000
206.56	-0.000
206.78	-0.000
206.99	-0.000
207.21	-0.000
207.42	-0.000
207.64	-0.000
207.85	-0.000
208.07	-0.000
208.28	-0.000
208.50	-0.000
208.71	-0.000
208.93	-0.000
209.14	-0.000
209.36	-0.000
209.57	-0.000
209.79	-0.000
210.00	-0.000
210.22	-0.000
210.43	-0.000
210.64	-0.000
210.86	-0.000
211.07	-0.000
211.29	-0.000
211.50	-0.000
211.72	-0.000
211.93	-0.000
212.15	-0.000
212.36	-0.000
212.58	-0.000
212.79	-0.000
213.01	-0.000
213.22	-0.000
213.43	-0.000
213.65	-0.000
213.86	-0.000
214.08	-0.000
214.29	-0.000
214.51	-0.000
214.72	-0.000
214.94	-0.000
215.15	-0.000
215.36	-0.000
215.58	-0.000
215.79	-0.000
216.01	-0.000
216.22	-0.000
216.44	-0.000
216.65	-0.000
216.87	-0.000
217.08	-0.000
217.29	-0.000
217.51	-0.000
217.72	-0.000
217.94	-0.000
218.15	-0.000
218.37	-0.000
218.58	-0.000
218.80	-0.000
219.01	-0.000
219.22	-0.000
219.44	-0.000
219.65	-0.000
219.87	-0.000
220.08	-0.000
220.30	-0.000
220.51	-0.000
220.72	-0.000
220.94	-0.000
221.15	-0.000
221.37	-0.000
221.58	-0.000
221.79	-0.000
222.01	-0.000
222.22	-0.000
222.44	-0.000
222.65	-0.000
222.87	-0.000
223.08	-0.000
223.29	-0.000
223.51	-0.000
223.72	-0.000
223.94	-0.000
224.15	-0.000
224.36	-0.000
224.58	-0.000
224.79	-0.000
225.01	-0.000
225.22	-0.000
225.44	-0.000
225.65	-0.000
225.86	-0.000
226.08	-0.000
226.29	-0.000
226.51	-0.000
226.72	-0.000
226.93	-0.000
227.15	-0.000
227.36	-0.000
227.58	-0.000
227.79	-0.000
228.00	-0.000
228.22	-0.000
228.43	-0.000
228.65	-0.000
228.86	-0.000
229.07	-0.000
229.29	-0.000
229.50	-0.000
229.72	-0.000
229.93	-0.000
230.14	-0.000
230.36	-0.000
230.57	-0.000
230.78	-0.000
231.00	-0.000
231.21	-0.000
231.43	-0.000
231.64	-0.000
231.85	-0.000
232.07	-0.000
232.28	-0.000
232.50	-0.000
232.71	-0.000
232.92	-0.000
233.14	-0.000
233.35	-0.000
233.56	-0.000
233.78	-0.000
233.99	-0.000
234.21	-0.000
234.42	-0.000
234.63	-0.000
234.85	-0.000
235.06	-0.000
235.27	-0.000
235.49	-0.000
235.70	-0.000
235.91	-0.000
236.13	-0.000
236.34	-0.000
236.56	-0.000
236.77	-0.000
236.98	-0.000
237.20	-0.000
237.41	-0.000
237.62	-0.000
237.84	-0.000
238.05	-0.000
238.26	-0.000
238.48	-0.000
238.69	-0.000
238.91	-0.000
239.12	-0.000
239.33	-0.000
239.55	-0.000
239.76	-0.000
239.97	-0.000
240.19	-0.000
240.40	-0.000
240.61	-0.000
240.83	-0.000
241.04	-0.000
241.25	-0.000
241.47	-0.000
241.68	-0.000
241.89	-0.000
242.11	-0.000
242.32	-0.000
242.53	-0.000
242.75	-0.000
242.96	-0.000
243.17	-0.000
243.39	-0.000
243.60	-0.000
243.81	-0.000
244.03	-0.000
244.24	-0.000
244.45	-0.000
244.67	-0.000
244.88	-0.000
245.09	-0.000
245.31	-0.000
245.52	-0.000
245.73	-0.000
245.95	-0.000
246.16	-0.000
246.37	-0.000
246.59	-0.000
246.80	-0.000
247.01	-0.000
247.23	-0.000
247.44	-0.000
247.65	-0.000
247.87	-0.000
248.08	-0.000
248.29	-0.000
248.51	-0.000
248.72	-0.000
248.93	-0.000
249.15	-0.000
249.36	-0.000
249.57	-0.000
249.78	-0.000
250.00	-0.000
250.21	-0.000
250.42	-0.000
250.64	-0.000
250.85	-0.000
251.06	-0.000
251.28	-0.000
251.49	-0.000
251.70	-0.000
251.92	-0.000
252.13	-0.000
252.34	-0.000
252.55	-0.000
252.77	-0.000
252.98	-0.000
253.19	-0.000
253.41	-0.000
253.62	-0.000
253.83	-0.000
254.05	-0.000
254.26	-0.000
254.47	-0.000
254.68	-0.000
254.90	-0.000
255.11	-0.000
255.32	-0.000
255.54	-0.000
255.75	-0.000
255.96	-0.000
256.17	-0.000
256.39	-0.000
256.60	-0.000
256.81	-0.000
257.03	-0.000
257.24	-0.000
257.45	-0.000
257.66	-0.000
257.88	-0.000
258.09	-0.000
258.30	-0.000
258.51	-0.000
258.73	-0.000
258.94	-0.000
259.15	-0.000
259.37	-0.000
259.58	-0.000
259.79	-0.000
260.00	-0.000
260.22	-0.000
260.43	-0.000
260.64	-0.000
260.85	-0.000
261.07	-0.000
261.28	-0.000
261.49	-0.000
261.71	-0.000
261.92	-0.000
262.13	-0.000
262.34	-0.000
262.56	-0.000
262.77	-0.000
262.98	-0.000
263.19	-0.000
263.41	-0.000
263.62	-0.000
263.83	-0.000
264.04	-0.000
264.26	-0.000
264.47	-0.000
264.68	-0.000
264.89	-0.000
265.11	-0.000
265.32	-0.000
265.53	-0.000
265.74	-0.000
265.96	-0.000
266.17	-0.000
266.38	-0.000
266.59	-0.000
266.81	-0.000
267.02	-0.000
267.23	-0.000
267.44	-0.000
267.65	-0.000
267.87	-0.000
268.08	-0.000
268.29	-0.000
268.50	-0.000
268.72	-0.000
268.93	-0.000
269.14	-0.000
269.35	-0.000
269.57	-0.000
269.78	-0.000
269.99	-0.000
270.20	-0.000
270.41	-0.000
270.63	-0.000
270.84	-0.000
271.05	-0.000
271.26	-0.000
271.48	-0.000
271.69	-0.000
271.90	-0.000
272.11	-0.000
272.32	-0.000
272.54	-0.000
272.75	-0.000
272.96	-0.000
273.17	-0.000
273.39	-0.000
273.60	-0.000
273.81	-0.000
274.02	-0.000
274.23	-0.000
274.45	-0.000
274.66	-0.000
274.87	-0.000
275.08	-0.000
275.29	-0.000
275.51	-0.000
275.72	-0.000
275.93	-0.000
276.14	-0.000
276.35	-0.000
276.57	-0.000
276.78	-0.000
276.99	-0.000
277.20	-0.000
277.41	-0.000
277.63	-0.000
277.84	-0.000
278.05	-0.000
278.26	-0.000
278.47	-0.000
278.69	-0.000
278.90	-0.000
279.11	-0.000
279.32	-0.000
279.53	-0.000
279.74	-0.000
279.96	-0.000
280.17	-0.000
280.38	-0.000
280.59	-0.000
280.80	-0.000
281.02	-0.000
281.23	-0.000
281.44	-0.000
281.65	-0.000
281.86	-0.000
282.07	-0.000
282.29	-0.000
282.50	-0.000
282.71	-0.000
282.92	-0.000
283.13	-0.000
283.35	-0.000
283.56	-0.000
283.77	-0.000
283.98	-0.000
284.19	-0.000
284.40	-0.000
284.62	-0.000
284.83	-0.000
285.04	-0.000
285.25	-0.000
285.46	-0.000
285.67	-0.000
285.88	-0.000
286.10	-0.000
286.31	-0.000
286.52	-0.000
286.73	-0.000
286.94	-0.000
287.15	-0.000
287.37	-0.000
287.58	-0.000
287.79	-0.000
288.00	-0.000
288.21	-0.000
288.42	-0.000
288.63	-0.000
288.85	-0.000
289.06	-0.000
289.27	-0.000
289.48	-0.000
289.69	-0.000
289.90	-0.000
290.11	-0.000
290.33	-0.000
290.54	-0.000
290.75	-0.000
290.96	-0.000
291.17	-0.000
291.38	-0.000
291.59	-0.000
291.81	-0.000
292.02	-0.000
292.23	-0.000
292.44	-0.000
292.65	-0.000
292.86	-0.000
293.07	-0.000
293.28	-0.000
293.50	-0.000
293.71	-0.000
293.92	-0.000
294.13	-0.000
294.34	-0.000
294.55	-0.000
294.76	-0.000
294.97	-0.000
295.19	-0.000
295.40	-0.000
295.61	-0.000
295.82	-0.000
296.03	-0.000
296.24	-0.000
296.45	-0.000
296.66	2.646
296.87	2.646
297.09	-0.000
297.30	-0.000
297.51	2.217
297.72	2.070
297.93	2.450
298.14	2.242
298.35	2.094
298.56	2.040
298.77	2.464
298.99	2.308
299.20	2.219
299.41	2.117
299.62	2.010
299.83	1.987
300.04	1.861
300.25	1.821
300.46	1.891
300.67	1.848
300.88	1.749
301.10	1.757
301.31	1.887
301.52	1.768
301.73	1.677
301.94	1.675
302.15	1.696
302.36	1.627
302.57	1.537
302.78	1.551
302.99	1.608
303.20	1.628
303.41	1.506
303.63	1.481
303.84	1.500
304.05	1.495
304.26	1.421
304.47	1.423
304.68	1.426
304.89	1.416
305.10	1.365
305.31	1.350
305.52	1.403
305.73	1.390
305.94	1.340
306.15	1.325
306.37	1.349
306.58	1.356
306.79	1.326
307.00	1.352
307.21	1.401
307.42	1.393
307.63	1.349
307.84	1.309
308.05	1.353
308.26	1.353
308.47	1.327
308.68	1.318
308.89	1.321
309.10	1.314
309.31	1.268
309.52	1.256
309.73	1.270
309.95	1.264
310.16	1.230
310.37	1.217
310.58	1.236
310.79	1.235
311.00	1.232
311.21	1.232
311.42	1.233
311.63	1.223
311.84	1.198
312.05	1.197
312.26	1.222
312.47	1.235
312.68	1.208
312.89	1.189
313.10	1.197
313.31	1.167
313.52	1.169
313.73	1.171
313.94	1.176
314.15	1.160
314.36	1.136
314.57	1.126
314.78	1.114
314.99	1.107
315.21	1.095
315.42	1.099
315.63	1.114
315.84	1.091
316.05	1.076
316.26	1.084
316.47	1.102
316.68	1.098
316.89	1.079
317.10	1.101
317.31	1.106
317.52	1.109
317.73	1.086
317.94	1.084
318.15	1.127
318.36	1.127
318.57	1.109
318.78	1.097
318.99	1.134
319.20	1.131
319.41	1.095
319.62	1.098
319.83	1.110
320.04	1.104
320.25	1.090
320.46	1.055
320.67	1.059
320.88	1.052
321.09	1.038
321.30	1.022
321.51	1.038
321.72	1.035
321.93	1.016
322.14	1.008
322.35	1.038
322.56	1.039
322.77	1.026
322.98	1.037
323.19	1.047
323.40	1.054
323.61	1.029
323.82	1.024
324.03	1.030
324.24	1.029
324.45	1.015
324.66	0.994
324.87	0.990
325.08	0.989
325.29	0.968
325.50	0.960
325.71	0.965
325.92	0.973
326.13	0.958
326.34	0.958
326.55	0.965
326.76	0.963
326.97	0.952
327.18	0.946
327.39	0.971
327.60	0.973
327.80	0.974
328.01	0.972
328.22	0.973
328.43	0.976
328.64	0.964
328.85	0.969
329.06	0.971
329.27	0.971
329.48	0.966
329.69	0.948
329.90	0.958
330.11	0.951
330.32	0.943
330.53	0.936
330.74	0.936
330.95	0.935
331.16	0.921
331.37	0.929
331.58	0.929
331.79	0.928
332.00	0.918
332.21	0.911
332.42	0.915
332.63	0.906
332.83	0.901
333.04	0.903
333.25	0.915
333.46	0.913
333.67	0.898
333.88	0.902
334.09	0.911
334.30	0.908
334.51	0.899
334.72	0.894
334.93	0.898
335.14	0.898
335.35	0.890
335.56	0.885
335.77	0.894
335.98	0.894
336.18	0.887
336.39	0.879
336.60	0.884
336.81	0.882
337.02	0.882
337.23	0.887
337.44	0.889
337.65	0.891
337.86	0.880
338.07	0.876
338.28	0.881
338.49	0.879
338.70	0.872
338.91	0.879
339.11	0.887
339.32	0.881
339.53	0.869
339.74	0.867
339.95	0.864
340.16	0.863
340.37	0.854
340.58	0.851
340.79	0.855
341.00	0.855
341.21	0.843
341.41	0.845
341.62	0.847
341.83	0.848
342.04	0.843
342.25	0.853
342.46	0.857
342.67	0.857
342.88	0.850
343.09	0.850
343.30	0.856
343.50	0.860
343.71	0.848
343.92	0.846
344.13	0.851
344.34	0.851
344.55	0.835
344.76	0.835
344.97	0.839
345.18	0.838
345.38	0.833
345.59	0.829
345.80	0.828
346.01	0.826
346.22	0.822
346.43	0.816
346.64	0.825
346.85	0.825
347.06	0.818
347.26	0.818
347.47	0.823
347.68	0.819
347.89	0.815
348.10	0.810
348.31	0.816
348.52	0.815
348.73	0.812
348.93	0.808
349.14	0.810
349.35	0.809
349.56	0.802
349.77	0.797
349.98	0.803
350.19	0.800
350.39	0.795
350.60	0.792
350.81	0.808
351.02	0.808
351.23	0.803
351.44	0.806
351.65	0.809
351.86	0.807
352.06	0.806
352.27	0.807
352.48	0.809
352.69	0.808
352.90	0.802
353.11	0.788
353.31	0.794
353.52	0.790
353.73	0.781
353.94	0.783
354.15	0.789
354.36	0.788
354.57	0.778
354.77	0.780
354.98	0.780
355.19	0.780
355.40	0.779
355.61	0.786
355.82	0.791
356.02	0.790
356.23	0.783
356.44	0.784
356.65	0.787
356.86	0.788
357.07	0.782
357.27	0.786
357.48	0.788
357.69	0.783
357.90	0.767
358.11	0.764
358.32	0.767
358.52	0.771
358.73	0.761
358.94	0.764
359.15	0.767
359.36	0.767
359.56	0.763
359.77	0.760
359.98	0.767
360.19	0.768
360.40	0.764
360.61	0.766
360.81	0.764
361.02	0.764
361.23	0.756
361.44	0.755
361.65	0.755
361.85	0.755
362.06	0.753
362.27	0.755
362.48	0.754
362.69	0.756
362.89	0.749
363.10	0.751
363.31	0.756
363.52	0.759
363.73	0.754
363.93	0.754
364.14	0.756
364.35	0.758
364.56	0.747
364.77	0.750
364.97	0.752
365.18	0.753
365.39	0.747
365.60	0.743
365.81	0.745
366.01	0.745
366.22	0.742
366.43	0.742
366.64	0.745
366.84	0.750
367.05	0.746
367.26	0.746
367.47	0.748
367.68	0.748
367.88	0.745
368.09	0.743
368.30	0.745
368.51	0.746
368.71	0.743
368.92	0.747
369.13	0.746
369.34	0.745
369.55	0.743
369.75	0.743
369.96	0.750
370.17	0.751
370.38	0.747
370.58	0.746
370.79	0.750
371.00	0.749
371.21	0.740
371.41	0.746
371.62	0.750
371.83	0.746
372.04	0.744
372.24	0.736
372.45	0.737
372.66	0.737
372.87	0.734
373.07	0.731
373.28	0.732
373.49	0.736
373.70	0.727
373.90	0.725
374.11	0.734
374.32	0.733
374.53	0.733
374.73	0.734
374.94	0.736
375.15	0.737
375.36	0.734
375.56	0.743
375.77	0.743
375.98	0.743
376.19	0.740
376.39	0.734
376.60	0.737
376.81	0.738
377.02	0.734
377.22	0.733
377.43	0.733
377.64	0.733
377.84	0.724
378.05	0.729
378.26	0.735
378.47	0.736
378.67	0.732
378.88	0.729
379.09	0.729
379.30	0.730
379.50	0.727
379.71	0.729
379.92	0.732
380.12	0.731
380.33	0.721
380.54	0.718
380.75	0.724
380.95	0.725
381.16	0.723
381.37	0.723
381.57	0.726
381.78	0.727
381.99	0.727
382.20	0.726
382.40	0.729
382.61	0.730
382.82	0.725
383.02	0.718
383.23	0.722
383.44	0.722
383.64	0.720
383.85	0.722
384.06	0.725
384.27	0.723
384.47	0.720
384.68	0.721
384.89	0.727
385.09	0.726
385.30	0.725
385.51	0.724
385.71	0.727
385.92	0.727
386.13	0.726
386.33	0.728
386.54	0.729
386.75	0.728
386.95	0.724
387.16	0.720
387.37	0.723
387.58	0.723
387.78	0.721
387.99	0.719
388.20	0.721
388.40	0.718
388.61	0.713
388.82	0.716
389.02	0.718
389.23	0.718
389.44	0.716
389.64	0.716
389.85	0.728
390.06	0.728
390.26	0.727
390.47	0.726
390.68	0.729
390.88	0.727
391.09	0.722
391.30	0.722
391.50	0.721
391.71	0.721
391.92	0.718
392.12	0.710
392.33	0.711
392.53	0.711
392.74	0.711
392.95	0.711
393.15	0.714
393.36	0.716
393.57	0.713
393.77	0.717
393.98	0.719
394.19	0.718
394.39	0.717
394.60	0.718
394.81	0.719
395.01	0.717
395.22	0.715
395.43	0.716
395.63	0.721
395.84	0.722
396.04	0.718
396.25	0.720
396.46	0.723
396.66	0.721
396.87	0.719
397.08	0.716
397.28	0.719
397.49	0.720
397.69	0.717
397.90	0.712
398.11	0.713
398.31	0.713
398.52	0.709
398.73	0.710
398.93	0.709
399.14	0.708
399.34	0.707
399.55	0.708
399.76	0.707
399.96	0.708
400.17	0.706
400.37	0.705
400.58	0.712
400.79	0.714
400.99	0.711
401.20	0.717
401.41	0.719
401.61	0.719
401.82	0.724
402.02	0.724
402.23	0.725
402.44	0.725
402.64	0.724
402.85	0.718
403.05	0.718
403.26	0.717
403.47	0.711
403.67	0.710
403.88	0.711
404.08	0.706
404.29	0.704
404.50	0.703
404.70	0.704
404.91	0.703
405.11	0.700
405.32	0.701
405.52	0.701
405.73	0.700
405.94	0.698
406.14	0.700
406.35	0.702
406.55	0.702
406.76	0.699
406.97	0.701
407.17	0.703
407.38	0.702
407.58	0.700
407.79	0.703
407.99	0.706
408.20	0.707
408.41	0.702
408.61	0.700
408.82	0.702
409.02	0.701
409.23	0.699
409.43	0.697
409.64	0.699
409.84	0.698
410.05	0.695
410.26	0.693
410.46	0.692
410.67	0.692
410.87	0.693
411.08	0.695
411.28	0.697
411.49	0.698
411.69	0.696
411.90	0.697
412.11	0.699
412.31	0.699
412.52	0.698
412.72	0.699
412.93	0.700
413.13	0.700
413.34	0.696
413.54	0.697
413.75	0.699
413.95	0.698
414.16	0.695
414.37	0.698
414.57	0.698
414.78	0.701
414.98	0.699
415.19	0.700
415.39	0.697
415.60	0.700
415.80	0.699
416.01	0.697
416.21	0.700
416.42	0.700
416.62	0.695
416.83	0.696
417.03	0.695
417.24	0.695
417.44	0.692
417.65	0.692
417.86	0.693
418.06	0.691
418.27	0.688
418.47	0.690
418.68	0.691
418.88	0.692
419.09	0.689
419.29	0.690
419.50	0.690
419.70	0.690
419.91	0.689
420.11	0.686
420.32	0.689
420.52	0.689
420.73	0.687
420.93	0.687
421.14	0.689
421.34	0.688
421.55	0.684
421.75	0.684
421.96	0.685
422.16	0.685
422.37	0.684
422.57	0.681
422.78	0.682
422.98	0.679
423.19	0.677
423.39	0.675
423.60	0.679
423.80	0.680
424.01	0.679
424.21	0.682
424.42	0.683
424.62	0.683
424.83	0.682
425.03	0.683
425.23	0.685
425.44	0.685
425.64	0.686
425.85	0.684
426.05	0.686
426.26	0.686
426.46	0.682
426.67	0.682
426.87	0.687
427.08	0.688
427.28	0.686
427.49	0.686
427.69	0.687
427.90	0.686
428.10	0.683
428.31	0.682
428.51	0.684
428.71	0.683
428.92	0.684
429.12	0.681
429.33	0.682
429.53	0.685
429.74	0.689
429.94	0.690
430.15	0.690
430.35	0.690
430.56	0.687
430.76	0.686
430.96	0.687
431.17	0.684
431.37	0.681
431.58	0.679
431.78	0.676
431.99	0.669
432.19	0.670
432.40	0.672
432.60	0.673
432.80	0.675
433.01	0.674
433.21	0.674
433.42	0.676
433.62	0.677
433.83	0.676
434.03	0.679
434.23	0.683
434.44	0.682
434.64	0.679
434.85	0.684
435.05	0.685
435.26	0.685
435.46	0.683
435.66	0.683
435.87	0.683
436.07	0.684
436.28	0.678
436.48	0.675
436.69	0.674
436.89	0.675
437.09	0.669
437.30	0.668
437.50	0.668
437.71	0.680
437.91	0.679
438.11	0.680
438.32	0.684
438.52	0.685
438.73	0.685
438.93	0.683
439.13	0.683
439.34	0.687
439.54	0.684
439.75	0.685
439.95	0.674
440.15	0.679
440.36	0.677
440.56	0.675
440.77	0.676
440.97	0.676
441.17	0.675
441.38	0.676
441.58	0.674
441.79	0.674
441.99	0.671
442.19	0.670
442.40	0.668
442.60	0.668
442.81	0.665
443.01	0.665
443.21	0.666
443.42	0.665
443.62	0.664
443.82	0.664
444.03	0.666
444.23	0.666
444.44	0.666
444.64	0.665
444.84	0.667
445.05	0.667
445.25	0.665
445.45	0.665
445.66	0.668
445.86	0.666
446.06	0.668
446.27	0.666
446.47	0.670
446.68	0.668
446.88	0.666
447.08	0.666
447.29	0.668
447.49	0.667
447.69	0.667
447.90	0.665
448.10	0.669
448.30	0.666
448.51	0.668
448.71	0.665
448.91	0.668
449.12	0.667
449.32	0.668
449.52	0.667
449.73	0.671
449.93	0.670
450.14	0.671
450.34	0.670
450.54	0.672
450.75	0.669
450.95	0.668
451.15	0.668
451.36	0.670
451.56	0.667
451.76	0.666
451.97	0.662
452.17	0.663
452.37	0.661
452.58	0.658
452.78	0.658
452.98	0.660
453.19	0.660
453.39	0.661
453.59	0.659
453.79	0.660
454.00	0.661
454.20	0.660
454.40	0.660
454.61	0.663
454.81	0.663
455.01	0.662
455.22	0.663
455.42	0.665
455.62	0.663
455.83	0.663
456.03	0.666
456.23	0.667
456.44	0.668
456.64	0.667
456.84	0.667
457.04	0.668
457.25	0.667
457.45	0.663
457.65	0.662
457.86	0.663
458.06	0.662
458.26	0.657
458.47	0.657
458.67	0.658
458.87	0.658
459.07	0.655
459.28	0.657
459.48	0.660
459.68	0.661
459.89	0.659
460.09	0.658
460.29	0.660
460.49	0.661
460.70	0.660
460.90	0.660
461.10	0.660
461.31	0.660
461.51	0.657
461.71	0.658
461.91	0.659
462.12	0.660
462.32	0.659
462.52	0.659
462.72	0.662
462.93	0.662
463.13	0.660
463.33	0.661
463.53	0.663
463.74	0.662
463.94	0.658
464.14	0.657
464.35	0.659
464.55	0.659
464.75	0.657
464.95	0.655
465.16	0.657
465.36	0.656
465.56	0.654
465.76	0.654
465.97	0.654
466.17	0.655
466.37	0.653
466.57	0.654
466.78	0.655
466.98	0.655
467.18	0.653
467.38	0.652
467.59	0.654
467.79	0.656
467.99	0.654
468.19	0.656
468.39	0.659
468.60	0.660
468.80	0.658
469.00	0.658
469.20	0.660
469.41	0.660
469.61	0.659
469.81	0.659
470.01	0.659
470.22	0.660
470.42	0.657
470.62	0.656
470.82	0.657
471.02	0.656
471.23	0.654
471.43	0.654
471.63	0.657
471.83	0.657
472.04	0.654
472.24	0.654
472.44	0.659
472.64	0.659
472.84	0.657
473.05	0.657
473.25	0.660
473.45	0.660
473.65	0.658
473.85	0.658
474.06	0.659
474.26	0.659
474.46	0.660
474.66	0.656
474.86	0.657
475.07	0.657
475.27	0.655
475.47	0.652
475.67	0.652
475.87	0.654
476.08	0.650
476.28	0.652
476.48	0.654
476.68	0.652
476.88	0.649
477.09	0.650
477.29	0.652
477.49	0.652
477.69	0.651
477.89	0.651
478.09	0.651
478.30	0.653
478.50	0.650
478.70	0.650
478.90	0.650
479.10	0.653
479.31	0.654
479.51	0.652
479.71	0.653
479.91	0.653
480.11	0.652
480.31	0.652
480.52	0.651
480.72	0.651
480.92	0.649
481.12	0.648
481.32	0.646
481.52	0.644
481.72	0.644
481.93	0.648
482.13	0.649
482.33	0.648
482.53	0.646
482.73	0.646
482.93	0.648
483.14	0.647
483.34	0.646
483.54	0.647
483.74	0.647
483.94	0.646
484.14	0.641
484.34	0.641
484.55	0.642
484.75	0.642
484.95	0.640
485.15	0.639
485.35	0.640
485.55	0.639
485.75	0.637
485.96	0.637
486.16	0.639
486.36	0.639
486.56	0.637
486.76	0.637
486.96	0.637
487.16	0.637
487.36	0.634
487.57	0.634
487.77	0.635
487.97	0.635
488.17	0.633
488.37	0.632
488.57	0.633
488.77	0.633
488.97	0.631
489.18	0.630
489.38	0.633
489.58	0.634
489.78	0.633
489.98	0.633
490.18	0.634
490.38	0.635
490.58	0.634
490.78	0.634
490.98	0.636
491.19	0.637
491.39	0.636
491.59	0.635
491.79	0.638
491.99	0.638
492.19	0.638
492.39	0.641
492.59	0.640
492.79	0.642
492.99	0.642
493.20	0.643
493.40	0.642
493.60	0.644
493.80	0.642
494.00	0.640
494.20	0.641
494.40	0.641
494.60	0.638
494.80	0.643
495.00	0.642
495.20	0.640
495.40	0.638
495.61	0.640
495.81	0.640
496.01	0.643
496.21	0.644
496.41	0.643
496.61	0.644
496.81	0.643
497.01	0.637
497.21	0.636
497.41	0.637
497.61	0.637
497.81	0.634
498.01	0.635
498.21	0.633
498.41	0.631
498.61	0.631
498.82	0.633
499.02	0.635
499.22	0.636
499.42	0.635
499.62	0.636
499.82	0.638
500.02	0.639
500.22	0.638
500.42	0.640
500.62	0.641
500.82	0.641
501.02	0.639
501.22	0.639
501.42	0.639
501.62	0.641
501.82	0.640
502.02	0.640
502.22	0.639
502.42	0.641
502.62	0.638
502.82	0.638
503.02	0.639
503.22	0.638
503.42	0.636
503.63	0.636
503.83	0.635
504.03	0.633
504.23	0.632
504.43	0.632
504.63	0.633
504.83	0.633
505.03	0.632
505.23	0.634
505.43	0.636
505.63	0.636
505.83	0.636
506.03	0.638
506.23	0.640
506.43	0.641
506.63	0.640
506.83	0.639
507.03	0.641
507.23	0.641
507.43	0.638
507.63	0.638
507.83	0.639
508.03	0.639
508.23	0.638
508.43	0.636
508.63	0.638
508.83	0.638
509.03	0.639
509.23	0.638
509.43	0.639
509.63	0.641
509.83	0.640
510.03	0.642
510.23	0.643
510.43	0.645
510.63	0.645
510.83	0.645
511.03	0.647
511.23	0.644
511.43	0.644
511.63	0.645
511.83	0.647
512.03	0.647
512.22	0.644
512.42	0.643
512.62	0.644
512.82	0.643
513.02	0.642
513.22	0.642
513.42	0.645
513.62	0.647
513.82	0.645
514.02	0.645
514.22	0.646
514.42	0.647
514.62	0.646
514.82	0.647
515.02	0.649
515.22	0.652
515.42	0.651
515.62	0.653
515.82	0.652
516.02	0.653
516.22	0.653
516.42	0.655
516.62	0.657
516.82	0.658
517.01	0.656
517.21	0.655
517.41	0.659
517.61	0.658
517.81	0.654
518.01	0.654
518.21	0.654
518.41	0.653
518.61	0.651
518.81	0.651
519.01	0.651
519.21	0.651
519.41	0.650
519.61	0.645
519.81	0.648
520.00	0.649
520.20	0.649
520.40	0.652
520.60	0.653
520.80	0.652
521.00	0.653
521.20	0.654
521.40	0.659
521.60	0.660
521.80	0.658
522.00	0.659
522.20	0.661
522.39	0.661
522.59	0.658
522.79	0.660
522.99	0.663
523.19	0.661
523.39	0.658
523.59	0.657
523.79	0.659
523.99	0.662
524.19	0.661
524.38	0.659
524.58	0.661
524.78	0.661
524.98	0.659
525.18	0.660
525.38	0.661
525.58	0.662
525.78	0.660
525.98	0.659
526.18	0.658
526.37	0.658
526.57	0.660
526.77	0.659
526.97	0.660
527.17	0.660
527.37	0.656
527.57	0.659
527.77	0.660
527.96	0.660
528.16	0.659
528.36	0.660
528.56	0.662
528.76	0.660
528.96	0.659
529.16	0.660
529.36	0.663
529.55	0.663
529.75	0.660
529.95	0.660
530.15	0.662
530.35	0.665
530.55	0.662
530.75	0.663
530.94	0.664
531.14	0.665
531.34	0.664
531.54	0.662
531.74	0.665
531.94	0.668
532.13	0.666
532.33	0.667
532.53	0.667
532.73	0.666
532.93	0.664
533.13	0.665
533.33	0.665
533.52	0.665
533.72	0.668
533.92	0.666
534.12	0.664
534.32	0.664
534.52	0.662
534.71	0.664
534.91	0.667
535.11	0.668
535.31	0.667
535.51	0.669
535.71	0.671
535.90	0.668
536.10	0.670
536.30	0.672
536.50	0.672
536.70	0.673
536.89	0.670
537.09	0.670
537.29	0.671
537.49	0.672
537.69	0.669
537.89	0.670
538.08	0.669
538.28	0.668
538.48	0.668
538.68	0.670
538.88	0.672
539.07	0.672
539.27	0.670
539.47	0.669
539.67	0.669
539.87	0.670
540.06	0.668
540.26	0.669
540.46	0.671
540.66	0.669
540.86	0.667
541.05	0.667
541.25	0.669
541.45	0.669
541.65	0.667
541.84	0.670
542.04	0.670
542.24	0.671
542.44	0.670
542.64	0.671
542.83	0.673
543.03	0.674
543.23	0.671
543.43	0.671
543.62	0.673
543.82	0.673
544.02	0.672
544.22	0.672
544.42	0.676
544.61	0.676
544.81	0.672
545.01	0.672
545.21	0.673
545.40	0.674
545.60	0.672
545.80	0.675
546.00	0.675
546.19	0.674
546.39	0.673
546.59	0.670
546.79	0.672
546.98	0.672
547.18	0.671
547.38	0.672
547.58	0.676
547.77	0.676
547.97	0.672
548.17	0.674
548.37	0.674
548.56	0.675
548.76	0.674
548.96	0.676
549.16	0.679
549.35	0.678
549.55	0.675
549.75	0.676
549.95	0.679
550.14	0.680
550.34	0.678
550.54	0.682
550.73	0.686
550.93	0.686
551.13	0.683
551.33	0.682
551.52	0.683
551.72	0.683
551.92	0.681
552.12	0.681
552.31	0.682
552.51	0.682
552.71	0.678
552.90	0.678
553.10	0.679
553.30	0.680
553.50	0.679
553.69	0.680
553.89	0.682
554.09	0.682
554.28	0.679
554.48	0.680
554.68	0.682
554.87	0.682
555.07	0.678
555.27	0.678
555.47	0.680
555.66	0.680
555.86	0.678
556.06	0.681
556.25	0.682
556.45	0.690
556.65	0.688
556.84	0.692
557.04	0.695
557.24	0.697
557.43	0.697
557.63	0.699
557.83	0.701
558.02	0.702
558.22	0.705
558.42	0.706
558.61	0.699
558.81	0.699
559.01	0.695
559.21	0.694
559.40	0.696
559.60	0.695
559.80	0.692
559.99	0.693
560.19	0.695
560.39	0.689
560.58	0.686
560.78	0.686
560.97	0.690
561.17	0.689
561.37	0.685
561.56	0.686
561.76	0.687
561.96	0.687
562.15	0.684
562.35	0.687
562.55	0.688
562.74	0.688
562.94	0.687
563.14	0.685
563.33	0.685
563.53	0.686
563.73	0.684
563.92	0.686
564.12	0.689
564.31	0.690
564.51	0.688
564.71	0.690
564.90	0.693
565.10	0.694
565.30	0.697
565.49	0.698
565.69	0.700
565.89	0.700
566.08	0.697
566.28	0.698
566.47	0.700
566.67	0.699
566.87	0.695
567.06	0.697
567.26	0.704
567.46	0.699
567.65	0.698
567.85	0.700
568.04	0.703
568.24	0.702
568.44	0.700
568.63	0.698
568.83	0.700
569.02	0.698
569.22	0.693
569.42	0.689
569.61	0.691
569.81	0.689
570.00	0.687
570.20	0.689
570.40	0.690
570.59	0.689
570.79	0.687
570.98	0.685
571.18	0.687
571.38	0.686
571.57	0.683
571.77	0.681
571.96	0.685
572.16	0.682
572.35	0.677
572.55	0.677
572.75	0.676
572.94	0.676
573.14	0.674
573.33	0.674
573.53	0.675
573.73	0.674
573.92	0.672
574.12	0.670
574.31	0.673
574.51	0.673
574.70	0.670
574.90	0.672
575.09	0.673
575.29	0.673
575.49	0.671
575.68	0.672
575.88	0.673
576.07	0.674
576.27	0.672
576.46	0.670
576.66	0.670
576.86	0.669
577.05	0.667
577.25	0.666
577.44	0.667
577.64	0.667
577.83	0.665
578.03	0.666
578.22	0.666
578.42	0.666
578.61	0.664
578.81	0.665
579.00	0.665
579.20	0.665
579.40	0.664
579.59	0.663
579.79	0.663
579.98	0.662
580.18	0.661
580.37	0.662
580.57	0.664
580.76	0.669
580.96	0.667
581.15	0.667
581.35	0.669
581.54	0.669
581.74	0.668
581.93	0.669
582.13	0.671
582.32	0.668
582.52	0.666
582.71	0.666
582.91	0.661
583.10	0.661
583.30	0.660
583.49	0.659
583.69	0.663
583.88	0.665
584.08	0.664
584.27	0.666
584.47	0.669
584.66	0.670
584.86	0.668
585.05	0.671
585.25	0.674
585.44	0.673
585.64	0.672
585.83	0.669
586.03	0.669
586.22	0.668
586.42	0.664
586.61	0.666
586.81	0.668
587.00	0.668
587.20	0.666
587.39	0.667
587.59	0.669
587.78	0.670
587.98	0.670
588.17	0.672
588.37	0.674
588.56	0.676
588.76	0.671
588.95	0.672
589.15	0.676
589.34	0.678
589.54	0.677
589.73	0.677
589.92	0.681
590.12	0.680
590.31	0.678
590.51	0.683
590.70	0.684
590.90	0.685
591.09	0.683
591.29	0.682
591.48	0.682
591.68	0.682
591.87	0.680
592.06	0.680
592.26	0.683
592.45	0.682
592.65	0.676
592.84	0.676
593.04	0.678
593.23	0.680
593.43	0.677
593.62	0.676
593.81	0.677
594.01	0.676
594.20	0.674
594.40	0.673
594.59	0.676
594.79	0.677
594.98	0.675
595.17	0.674
595.37	0.675
595.56	0.677
595.76	0.677
595.95	0.679
596.14	0.681
596.34	0.683
596.53	0.680
596.73	0.682
596.92	0.683
597.12	0.686
597.31	0.686
597.50	0.685
597.70	0.687
597.89	0.686
598.09	0.682
598.28	0.684
598.47	0.686
598.67	0.685
598.86	0.681
599.06	0.683
599.25	0.683
599.44	0.682
599.64	0.679
599.83	0.676
600.03	0.679
600.22	0.680
600.41	0.680
600.61	0.678
600.80	0.681
601.00	0.681
601.19	0.676
601.38	0.675
601.58	0.678
601.77	0.679
601.96	0.681
602.16	0.681
602.35	0.690
602.55	0.688
602.74	0.688
602.93	0.689
603.13	0.694
603.32	0.696
603.51	0.696
603.71	0.699
603.90	0.700
604.09	0.700
604.29	0.698
604.48	0.692
604.68	0.694
604.87	0.693
605.06	0.689
605.26	0.686
605.45	0.687
605.64	0.686
605.84	0.681
606.03	0.681
606.22	0.680
606.42	0.679
606.61	0.675
606.80	0.675
607.00	0.677
607.19	0.677
607.38	0.676
607.58	0.677
607.77	0.680
607.96	0.680
608.16	0.678
608.35	0.682
608.54	0.685
608.74	0.689
608.93	0.693
609.12	0.697
609.32	0.699
609.51	0.702
609.70	0.701
609.90	0.703
610.09	0.708
610.28	0.713
610.48	0.707
610.67	0.709
610.86	0.709
611.06	0.704
611.25	0.701
611.44	0.702
611.64	0.702
611.83	0.705
612.02	0.701
612.21	0.699
612.41	0.698
612.60	0.697
612.79	0.693
612.99	0.693
613.18	0.695
613.37	0.693
613.57	0.690
613.76	0.692
613.95	0.690
614.14	0.690
614.34	0.687
614.53	0.688
614.72	0.691
614.92	0.692
615.11	0.689
615.30	0.685
615.49	0.687
615.69	0.689
615.88	0.685
616.07	0.687
616.26	0.689
616.46	0.690
616.65	0.687
616.84	0.687
617.04	0.688
617.23	0.692
617.42	0.692
617.61	0.696
617.81	0.698
618.00	0.699
618.19	0.698
618.38	0.701
618.58	0.706
618.77	0.706
618.96	0.704
619.15	0.707
619.35	0.708
619.54	0.709
619.73	0.704
619.92	0.706
620.12	0.710
620.31	0.710
620.50	0.704
620.69	0.705
620.89	0.709
621.08	0.709
621.27	0.708
621.46	0.706
621.66	0.711
621.85	0.711
622.04	0.708
622.23	0.709
622.43	0.710
622.62	0.710
622.81	0.709
623.00	0.708
623.19	0.712
623.39	0.712
623.58	0.710
623.77	0.708
623.96	0.710
624.16	0.710
624.35	0.704
624.54	0.707
624.73	0.711
624.92	0.707
625.12	0.705
625.31	0.706
625.50	0.708
625.69	0.709
625.88	0.705
626.08	0.705
626.27	0.707
626.46	0.707
626.65	0.704
626.84	0.705
627.04	0.711
627.23	0.712
627.42	0.707
627.61	0.709
627.80	0.712
628.00	0.713
628.19	0.711
628.38	0.714
628.57	0.718
628.76	0.716
628.96	0.712
629.15	0.713
629.34	0.715
629.53	0.716
629.72	0.709
629.91	0.710
630.11	0.714
630.30	0.714
630.49	0.716
630.68	0.716
630.87	0.721
631.06	0.724
631.26	0.719
631.45	0.720
631.64	0.730
631.83	0.732
632.02	0.729
632.21	0.729
632.41	0.736
632.60	0.731
632.79	0.729
632.98	0.729
633.17	0.730
633.36	0.733
633.55	0.729
633.75	0.723
633.94	0.725
634.13	0.726
634.32	0.723
634.51	0.718
634.70	0.720
634.89	0.720
635.09	0.716
635.28	0.717
635.47	0.719
635.66	0.721
635.85	0.718
636.04	0.720
636.23	0.725
636.43	0.726
636.62	0.725
636.81	0.724
637.00	0.726
637.19	0.729
637.38	0.725
637.57	0.725
637.76	0.726
637.95	0.727
638.15	0.723
638.34	0.719
638.53	0.722
638.72	0.723
638.91	0.720
639.10	0.718
639.29	0.719
639.48	0.720
639.67	0.720
639.87	0.719
640.06	0.725
640.25	0.725
640.44	0.726
640.63	0.727
640.82	0.729
641.01	0.730
641.20	0.729
641.39	0.730
641.58	0.732
641.78	0.731
641.97	0.726
642.16	0.741
642.35	0.742
642.54	0.741
642.73	0.735
642.92	0.734
643.11	0.738
643.30	0.738
643.49	0.732
643.68	0.735
643.87	0.737
644.06	0.737
644.25	0.715
644.45	0.717
644.64	0.718
644.83	0.718
645.02	0.714
645.21	0.713
645.40	0.714
645.59	0.715
645.78	0.708
645.97	0.711
646.16	0.712
646.35	0.712
646.54	0.709
646.73	0.712
646.92	0.715
647.11	0.714
647.30	0.710
647.49	0.713
647.68	0.712
647.88	0.711
648.07	0.704
648.26	0.707
648.45	0.709
648.64	0.705
648.83	0.702
649.02	0.703
649.21	0.713
649.40	0.713
649.59	0.708
649.78	0.710
649.97	0.724
650.16	0.724
650.35	0.718
650.54	0.720
650.73	0.729
650.92	0.725
651.11	0.718
651.30	0.716
651.49	0.720
651.68	0.722
651.87	0.717
652.06	0.706
652.25	0.710
652.44	0.713
652.63	0.711
652.82	0.710
653.01	0.710
653.20	0.709
653.39	0.696
653.58	0.694
653.77	0.693
653.96	0.687
654.15	0.679
654.34	0.676
654.53	0.671
654.72	0.665
654.91	0.656
655.10	0.652
655.29	0.650
655.48	0.648
655.67	0.642
655.86	0.640
656.05	0.638
656.24	0.638
656.43	0.633
656.62	0.632
656.81	0.632
657.00	0.630
657.19	0.627
657.38	0.626
657.57	0.626
657.76	0.628
657.95	0.626
658.14	0.629
658.33	0.632
658.51	0.638
658.70	0.638
658.89	0.640
659.08	0.649
659.27	0.657
659.46	0.657
659.65	0.664
659.84	0.668
660.03	0.672
660.22	0.673
660.41	0.676
660.60	0.676
660.79	0.678
660.98	0.683
661.17	0.683
661.36	0.682
661.55	0.683
661.74	0.680
661.92	0.683
662.11	0.685
662.30	0.684
662.49	0.677
662.68	0.676
662.87	0.680
663.06	0.674
663.25	0.675
663.44	0.675
663.63	0.676
663.82	0.675
664.01	0.669
664.20	0.668
664.38	0.669
664.57	0.670
664.76	0.669
664.95	0.669
665.14	0.674
665.33	0.667
665.52	0.675
665.71	0.679
665.90	0.679
666.09	0.681
666.28	0.677
666.46	0.676
666.65	0.677
666.84	0.675
667.03	0.670
667.22	0.668
667.41	0.672
667.60	0.661
667.79	0.654
667.98	0.656
668.16	0.656
668.35	0.656
668.54	0.652
668.73	0.654
668.92	0.656
669.11	0.654
669.30	0.648
669.49	0.644
669.67	0.646
669.86	0.649
670.05	0.645
670.24	0.644
670.43	0.642
670.62	0.641
670.81	0.635
671.00	0.636
671.18	0.636
671.37	0.636
671.56	0.634
671.75	0.633
671.94	0.630
672.13	0.628
672.32	0.622
672.50	0.622
672.69	0.622
672.88	0.623
673.07	0.617
673.26	0.620
673.45	0.621
673.63	0.620
673.82	0.617
674.01	0.619
674.20	0.619
674.39	0.619
674.58	0.618
674.76	0.618
674.95	0.617
675.14	0.617
675.33	0.612
675.52	0.611
675.71	0.611
675.89	0.610
676.08	0.605
676.27	0.605
676.46	0.606
676.65	0.606
676.84	0.605
677.02	0.606
677.21	0.608
677.40	0.607
677.59	0.605
677.78	0.606
677.96	0.609
678.15	0.608
678.34	0.607
678.53	0.607
678.72	0.607
678.90	0.604
679.09	0.600
679.28	0.596
679.47	0.597
679.66	0.596
679.84	0.593
680.03	0.590
680.22	0.589
680.41	0.590
680.60	0.586
680.78	0.586
680.97	0.589
681.16	0.589
681.35	0.588
681.53	0.587
681.72	0.589
681.91	0.591
682.10	0.589
682.29	0.591
682.47	0.589
682.66	0.589
682.85	0.587
683.04	0.584
683.22	0.584
683.41	0.586
683.60	0.584
683.79	0.584
683.97	0.584
684.16	0.583
684.35	0.579
684.54	0.580
684.72	0.580
684.91	0.581
685.10	0.579
685.29	0.580
685.47	0.578
685.66	0.577
685.85	0.574
686.04	0.573
686.22	0.575
686.41	0.578
686.60	0.574
686.79	0.577
686.97	0.579
687.16	0.580
687.35	0.577
687.54	0.582
687.72	0.585
687.91	0.585
688.10	0.586
688.29	0.587
688.47	0.585
688.66	0.585
688.85	0.581
689.03	0.578
689.22	0.582
689.41	0.584
689.60	0.578
689.78	0.576
689.97	0.577
690.16	0.574
690.34	0.570
690.53	0.570
690.72	0.570
690.91	0.568
691.09	0.567
691.28	0.561
691.47	0.559
691.65	0.558
691.84	0.554
692.03	0.553
692.21	0.550
692.40	0.550
692.59	0.547
692.77	0.546
692.96	0.547
693.15	0.548
693.34	0.546
693.52	0.546
693.71	0.546
693.90	0.548
694.08	0.548
694.27	0.550
694.46	0.560
694.64	0.561
694.83	0.561
695.02	0.559
695.20	0.559
695.39	0.559
695.58	0.559
695.76	0.560
695.95	0.560
696.14	0.558
696.32	0.556
696.51	0.546
696.70	0.546
696.88	0.546
697.07	0.545
697.26	0.546
697.44	0.548
697.63	0.546
697.81	0.544
698.00	0.544
698.19	0.544
698.37	0.544
698.56	0.543
698.75	0.543
698.93	0.543
699.12	0.543
699.31	0.541
699.49	0.541
699.68	0.542
699.87	0.544
700.05	0.543
700.24	0.542
700.42	0.544
700.61	0.543
700.80	0.541
700.98	0.541
701.17	0.543
701.36	0.542
701.54	0.541
701.73	0.542
701.91	0.540
702.10	0.540
702.29	0.538
702.47	0.537
702.66	0.539
702.84	0.540
703.03	0.539
703.22	0.540
703.40	0.541
703.59	0.542
703.77	0.541
703.96	0.541
704.15	0.542
704.33	0.542
704.52	0.541
704.70	0.540
704.89	0.540
705.08	0.538
705.26	0.533
705.45	0.533
705.63	0.533
705.82	0.530
706.00	0.529
706.19	0.529
706.38	0.529
706.56	0.528
706.75	0.526
706.93	0.525
707.12	0.527
707.30	0.527
707.49	0.524
707.68	0.522
707.86	0.522
708.05	0.522
708.23	0.518
708.42	0.519
708.60	0.522
708.79	0.521
708.98	0.520
709.16	0.519
709.35	0.522
709.53	0.526
709.72	0.525
709.90	0.527
710.09	0.529
710.27	0.531
710.46	0.535
710.64	0.532
710.83	0.535
711.02	0.537
711.20	0.535
711.39	0.534
711.57	0.531
711.76	0.532
711.94	0.530
712.13	0.531
712.31	0.531
712.50	0.526
712.68	0.524
712.87	0.525
713.05	0.525
713.24	0.526
713.42	0.525
713.61	0.526
713.79	0.527
713.98	0.528
714.16	0.528
714.35	0.528
714.54	0.530
714.72	0.530
714.91	0.528
715.09	0.534
715.28	0.537
715.46	0.537
715.65	0.534
715.83	0.534
716.02	0.536
716.20	0.533
716.39	0.531
716.57	0.533
716.76	0.535
716.94	0.535
717.12	0.527
717.31	0.529
717.49	0.532
717.68	0.534
717.86	0.534
718.05	0.535
718.23	0.537
718.42	0.540
718.60	0.541
718.79	0.548
718.97	0.551
719.16	0.551
719.34	0.548
719.53	0.548
719.71	0.548
719.90	0.550
720.08	0.547
720.27	0.548
720.45	0.549
720.63	0.547
720.82	0.540
721.00	0.543
721.19	0.546
721.37	0.546
721.56	0.547
721.74	0.549
721.93	0.558
722.11	0.564
722.30	0.564
722.48	0.567
722.66	0.569
722.85	0.570
723.03	0.570
723.22	0.568
723.40	0.571
723.59	0.571
723.77	0.575
723.95	0.569
724.14	0.570
724.32	0.572
724.51	0.572
724.69	0.573
724.88	0.572
725.06	0.571
725.24	0.572
725.43	0.574
725.61	0.577
725.80	0.571
725.98	0.569
726.16	0.566
726.35	0.571
726.53	0.570
726.72	0.569
726.90	0.580
727.09	0.581
727.27	0.587
727.45	0.582
727.64	0.592
727.82	0.600
728.01	0.605
728.19	0.603
728.37	0.608
728.56	0.613
728.74	0.619
728.92	0.607
729.11	0.610
729.29	0.609
729.48	0.612
729.66	0.600
729.84	0.601
730.03	0.605
730.21	0.606
730.40	0.596
730.58	0.597
730.76	0.598
730.95	0.601
731.13	0.601
731.31	0.615
731.50	0.625
731.68	0.629
731.86	0.625
732.05	0.640
732.23	0.644
732.42	0.649
732.60	0.654
732.78	0.659
732.97	0.680
733.15	0.688
733.33	0.676
733.52	0.686
733.70	0.698
733.88	0.707
734.07	0.691
734.25	0.719
734.43	0.727
734.62	0.729
734.80	0.724
734.98	0.711
735.17	0.718
735.35	0.726
735.53	0.711
735.72	0.715
735.90	0.742
736.08	0.765
736.27	0.740
736.45	0.753
736.63	0.768
736.82	0.780
737.00	0.782
737.18	0.793
737.37	0.826
737.55	0.853
737.73	0.847
737.92	0.848
738.10	0.844
738.28	0.866
738.46	0.853
738.65	0.867
738.83	0.890
739.01	0.951
739.20	0.942
739.38	0.925
739.56	0.917
739.75	0.922
739.93	0.881
740.11	0.909
740.29	0.911
740.48	0.918
740.66	0.894
740.84	0.889
741.03	0.851
741.21	0.861
741.39	0.840
741.57	0.856
741.76	0.874
741.94	0.884
742.12	0.845
742.31	0.850
742.49	0.873
742.67	0.899
742.85	0.913
743.04	0.917
743.22	0.936
743.40	1.002
743.58	0.976
743.77	0.999
743.95	1.038
744.13	1.101
744.31	1.083
744.50	1.066
744.68	1.067
744.86	1.036
745.04	1.048
745.23	1.134
745.41	1.106
745.59	1.115
745.77	1.074
745.96	1.058
746.14	1.071
746.32	1.063
746.50	1.061
746.69	1.043
746.87	1.066
747.05	1.046
747.23	0.950
747.42	0.940
747.60	0.979
747.78	0.985
747.96	1.023
748.14	0.970
748.33	1.005
748.51	1.000
748.69	0.985
748.87	1.017
749.06	1.018
749.24	1.015
749.42	0.990
749.60	0.964
749.78	0.977
749.97	0.923
750.15	0.912
750.33	0.922
750.51	0.947
750.69	0.955
750.88	0.958
751.06	0.970
751.24	1.003
751.42	0.992
751.60	0.979
751.79	1.061
751.97	1.131
752.15	1.130
752.33	1.076
752.51	1.164
752.69	1.200
752.88	1.149
753.06	1.205
753.24	1.179
753.42	1.241
753.60	1.535
753.78	1.280
753.97	1.299
754.15	1.332
754.33	1.383
754.51	1.182
754.69	1.149
754.87	1.191
755.06	1.093
755.24	1.084
755.42	1.093
755.60	0.973
755.78	0.984
755.96	0.918
756.15	0.915
756.33	0.922
756.51	0.943
756.69	0.928
756.87	0.887
757.05	0.911
757.23	0.892
757.42	0.850
757.60	0.846
757.78	0.837
757.96	0.835
758.14	0.815
758.32	0.797
758.50	0.812
758.69	0.811
758.87	0.804
759.05	0.807
759.23	0.820
759.41	0.822
759.59	0.814
759.77	0.834
759.95	0.865
760.13	0.923
760.32	0.923
760.50	0.916
760.68	0.945
760.86	0.945
761.04	0.913
761.22	0.921
761.40	0.972
761.58	0.970
761.76	0.943
761.95	0.923
762.13	0.871
762.31	0.869
762.49	0.836
762.67	0.855
762.85	0.871
763.03	0.865
763.21	0.840
763.39	0.820
763.57	0.827
763.75	0.817
763.94	0.800
764.12	0.803
764.30	0.830
764.48	0.833
764.66	0.793
764.84	0.790
765.02	0.835
765.20	0.840
765.38	0.818
765.56	0.821
765.74	0.865
765.92	0.867
766.10	0.872
766.28	0.864
766.46	0.898
766.65	0.899
766.83	0.886
767.01	0.867
767.19	0.879
767.37	0.882
767.55	0.866
767.73	0.844
767.91	0.847
768.09	0.836
768.27	0.825
768.45	0.812
768.63	0.818
768.81	0.819
768.99	0.790
769.17	0.817
769.35	0.833
769.53	0.830
769.71	0.807
769.89	0.817
770.07	0.824
770.25	0.803
770.43	0.781
770.61	0.806
770.79	0.811
770.97	0.822
771.15	0.786
771.33	0.786
771.51	0.795
771.69	0.810
771.87	0.818
772.05	0.825
772.24	0.834
772.42	0.840
772.60	0.814
772.78	0.882
772.96	0.912
773.14	0.903
773.32	0.879
773.49	0.884
773.67	0.881
773.85	0.855
774.03	0.841
774.21	0.876
774.39	0.891
774.57	0.917
774.75	0.837
774.93	0.835
775.11	0.866
775.29	0.875
775.47	0.876
775.65	0.885
775.83	0.909
776.01	0.937
776.19	0.883
776.37	0.885
776.55	0.888
776.73	0.883
776.91	0.878
777.09	0.855
777.27	0.852
777.45	0.842
777.63	0.815
777.81	0.808
777.99	0.795
778.17	0.794
778.35	0.770
778.53	0.756
778.71	0.765
778.89	0.750
779.07	0.739
779.24	0.746
779.42	0.747
779.60	0.768
779.78	0.764
779.96	0.766
780.14	0.774
780.32	0.795
780.50	0.776
780.68	0.775
780.86	0.766
781.04	0.784
781.22	0.789
781.40	0.799
781.58	0.790
781.75	0.782
781.93	0.765
782.11	0.765
782.29	0.750
782.47	0.748
782.65	0.731
782.83	0.763
783.01	0.757
783.19	0.750
783.37	0.735
783.55	0.739
783.72	0.759
783.90	0.771
784.08	0.759
784.26	0.775
784.44	0.798
784.62	0.802
784.80	0.764
784.98	0.771
785.16	0.777
785.33	0.791
785.51	0.773
785.69	0.756
785.87	0.754
786.05	0.772
786.23	0.764
786.41	0.763
786.59	0.772
786.77	0.769
786.94	0.756
787.12	0.759
787.30	0.762
787.48	0.759
787.66	0.746
787.84	0.748
788.02	0.733
788.19	0.731
788.37	0.715
788.55	0.717
788.73	0.718
788.91	0.709
789.09	0.690
789.27	0.677
789.44	0.689
789.62	0.698
789.80	0.707
789.98	0.734
790.16	0.718
790.34	0.713
790.51	0.699
790.69	0.721
790.87	0.729
791.05	0.727
791.23	0.719
791.41	0.721
791.58	0.729
791.76	0.706
791.94	0.675
792.12	0.686
792.30	0.690
792.48	0.686
792.65	0.678
792.83	0.686
793.01	0.695
793.19	0.694
793.37	0.677
793.54	0.672
793.72	0.684
793.90	0.683
794.08	0.671
794.26	0.671
794.43	0.681
794.61	0.664
794.79	0.649
794.97	0.647
795.15	0.654
795.32	0.657
795.50	0.646
795.68	0.641
795.86	0.646
796.04	0.647
796.21	0.641
796.39	0.639
796.57	0.655
796.75	0.664
796.92	0.665
797.10	0.669
797.28	0.673
797.46	0.677
797.64	0.678
797.81	0.685
797.99	0.692
798.17	0.697
798.35	0.691
798.52	0.695
798.70	0.692
798.88	0.702
799.06	0.700
799.23	0.701
799.41	0.710
799.59	0.702
799.77	0.691
799.94	0.698
800.12	0.708
800.30	0.724
800.48	0.723
800.65	0.723
800.83	0.712
801.01	0.704
801.19	0.706
801.36	0.702
801.54	0.707
801.72	0.716
801.90	0.701
802.07	0.695
802.25	0.680
802.43	0.663
802.60	0.659
802.78	0.667
802.96	0.673
803.14	0.666
803.31	0.663
803.49	0.662
803.67	0.659
803.84	0.663
804.02	0.655
804.20	0.659
804.38	0.665
804.55	0.663
804.73	0.647
804.91	0.646
805.08	0.659
805.26	0.656
805.44	0.726
805.61	0.730
805.79	0.729
805.97	0.729
806.15	0.720
806.32	0.714
806.50	0.721
806.68	0.720
806.85	0.710
807.03	0.700
807.21	0.719
807.38	0.646
807.56	0.634
807.74	0.646
807.91	0.653
808.09	0.654
808.27	0.673
808.44	0.701
808.62	0.711
808.80	0.715
808.97	0.709
809.15	0.701
809.33	0.719
809.50	0.727
809.68	0.712
809.86	0.719
810.03	0.756
810.21	0.737
810.39	0.719
810.56	0.725
810.74	0.751
810.91	0.829
811.09	0.817
811.27	0.841
811.44	0.851
811.62	0.852
811.80	0.831
811.97	0.797
812.15	0.795
812.33	0.790
812.50	0.774
812.68	0.760
812.85	0.703
813.03	0.706
813.21	0.671
813.38	0.664
813.56	0.668
813.74	0.678
813.91	0.684
814.09	0.717
814.26	0.709
814.44	0.713
814.62	0.704
814.79	0.706
814.97	0.710
815.14	0.718
815.32	0.721
815.50	0.738
815.67	0.742
815.85	0.734
816.02	0.721
816.20	0.729
816.38	0.747
816.55	0.753
816.73	0.751
816.90	0.765
817.08	0.797
817.26	0.805
817.43	0.784
817.61	0.812
817.78	0.836
817.96	0.814
818.13	0.800
818.31	0.798
818.49	0.813
818.66	0.803
818.84	0.786
819.01	0.764
819.19	0.772
819.36	0.772
819.54	0.738
819.71	0.787
819.89	0.803
820.07	0.822
820.24	0.814
820.42	0.814
820.59	0.836
820.77	0.861
820.94	0.846
821.12	0.866
821.29	0.887
821.47	0.892
821.64	0.817
821.82	0.834
822.00	0.831
822.17	0.831
822.35	0.823
822.52	0.825
822.70	0.815
822.87	0.832
823.05	0.813
823.22	0.827
823.40	0.858
823.57	0.884
823.75	0.862
823.92	0.894
824.10	0.920
824.27	0.971
824.45	0.961
824.62	1.040
824.80	1.059
824.97	1.073
825.15	1.060
825.32	1.084
825.50	1.087
825.67	1.097
825.85	1.069
826.02	1.089
826.20	1.131
826.37	1.332
826.55	1.207
826.72	1.594
826.90	1.893
827.07	2.346
827.25	1.961
827.42	-0.000
827.60	-0.000
827.77	-0.000
827.95	-0.000
828.12	-0.000
828.30	-0.000
828.47	-0.000
828.65	2.180
828.82	-0.000
829.00	-0.000
829.17	-0.000
829.34	-0.000
829.52	-0.000
829.69	-0.000
829.87	-0.000
830.04	-0.000
830.22	-0.000
830.39	-0.000
830.57	-0.000
830.74	-0.000
830.92	-0.000
831.09	-0.000
831.26	-0.000
831.44	-0.000
831.61	-0.000
831.79	-0.000
831.96	-0.000
832.14	-0.000
832.31	-0.000
832.49	-0.000
832.66	-0.000
832.83	-0.000
833.01	-0.000
833.18	-0.000
833.36	-0.000
833.53	-0.000
833.70	-0.000
833.88	-0.000
834.05	-0.000
834.23	-0.000
834.40	-0.000
834.58	-0.000
834.75	-0.000
834.92	-0.000
835.10	-0.000
835.27	-0.000
835.45	-0.000
835.62	-0.000
835.79	-0.000
835.97	-0.000
836.14	-0.000
836.32	-0.000
836.49	-0.000
836.66	-0.000
836.84	-0.000
837.01	-0.000
837.18	-0.000
837.36	-0.000
837.53	-0.000
837.71	-0.000
837.88	-0.000
838.05	-0.000
838.23	-0.000
838.40	-0.000
838.58	-0.000
838.75	-0.000
838.92	-0.000
839.10	-0.000
839.27	-0.000
839.44	-0.000
839.62	-0.000
839.79	-0.000
839.96	-0.000
840.14	-0.000
840.31	-0.000
840.48	-0.000
840.66	-0.000
840.83	-0.000
841.01	-0.000
841.18	-0.000
841.35	-0.000
841.53	-0.000
841.70	-0.000
841.87	-0.000
842.05	-0.000
842.22	-0.000
842.39	-0.000
842.57	-0.000
842.74	-0.000
842.91	-0.000
843.09	-0.000
843.26	-0.000
843.43	-0.000
843.60	-0.000
843.78	-0.000
843.95	-0.000
844.12	-0.000
844.30	-0.000
844.47	-0.000
844.64	-0.000
844.82	-0.000
844.99	-0.000
845.16	-0.000
845.34	-0.000
845.51	-0.000
845.68	-0.000
845.85	-0.000
846.03	-0.000
846.20	-0.000
846.37	-0.000
846.55	-0.000
846.72	-0.000
846.89	-0.000
847.06	-0.000
847.24	-0.000
847.41	-0.000
847.58	-0.000
847.76	-0.000
847.93	-0.000
848.10	-0.000
848.27	-0.000
848.45	-0.000
848.62	-0.000
848.79	-0.000
848.97	-0.000
849.14	-0.000
849.31	-0.000
849.48	-0.000
849.66	-0.000
849.83	-0.000
850.00	-0.000
850.17	-0.000
850.35	-0.000
850.52	-0.000
850.69	-0.000
850.86	-0.000
851.04	-0.000
851.21	-0.000
851.38	-0.000
851.55	-0.000
851.72	-0.000
851.90	-0.000
852.07	-0.000
852.24	-0.000
852.41	-0.000
852.59	-0.000
852.76	-0.000
852.93	-0.000
853.10	-0.000
853.28	-0.000
853.45	-0.000
853.62	-0.000
853.79	-0.000
853.96	-0.000
854.14	-0.000
854.31	-0.000
854.48	-0.000
854.65	-0.000
854.82	-0.000
855.00	-0.000
855.17	-0.000
855.34	-0.000
855.51	-0.000
855.68	-0.000
855.86	-0.000
856.03	-0.000
856.20	-0.000
856.37	-0.000
856.54	-0.000
856.72	-0.000
856.89	-0.000
857.06	-0.000
857.23	-0.000
857.40	-0.000
857.57	-0.000
857.75	-0.000
857.92	-0.000
858.09	-0.000
858.26	-0.000
858.43	-0.000
858.60	-0.000
858.78	-0.000
858.95	-0.000
859.12	-0.000
859.29	-0.000
859.46	-0.000
859.63	-0.000
859.81	-0.000
859.98	-0.000
860.15	-0.000
860.32	-0.000
860.49	-0.000
860.66	-0.000
860.83	-0.000
861.01	-0.000
861.18	-0.000
861.35	-0.000
861.52	-0.000
861.69	-0.000
861.86	-0.000
862.03	-0.000
862.21	-0.000
862.38	-0.000
862.55	-0.000
862.72	-0.000
862.89	-0.000
863.06	-0.000
863.23	-0.000
863.40	-0.000
863.58	-0.000
863.75	-0.000
863.92	-0.000
864.09	-0.000
864.26	-0.000
864.43	-0.000
864.60	-0.000
864.77	-0.000
864.94	-0.000
865.11	-0.000
865.29	-0.000
865.46	-0.000
865.63	-0.000
865.80	-0.000
865.97	-0.000
866.14	-0.000
866.31	-0.000
866.48	-0.000
866.65	-0.000
866.82	-0.000
866.99	-0.000
867.16	-0.000
867.34	-0.000
867.51	-0.000
867.68	-0.000
867.85	-0.000
868.02	-0.000
868.19	-0.000
868.36	-0.000
868.53	-0.000
868.70	-0.000
868.87	-0.000
869.04	-0.000
869.21	-0.000
869.38	-0.000
869.55	-0.000
869.72	-0.000
869.89	-0.000
870.06	-0.000
870.24	-0.000
870.41	-0.000
870.58	-0.000
870.75	-0.000
870.92	-0.000
871.09	-0.000
871.26	-0.000
871.43	-0.000
871.60	-0.000
871.77	-0.000
871.94	-0.000
872.11	-0.000
872.28	-0.000
872.45	-0.000
872.62	-0.000
872.79	-0.000
872.96	-0.000
873.13	-0.000
873.30	-0.000
873.47	-0.000
873.64	-0.000
873.81	-0.000
873.98	-0.000
874.15	-0.000
874.32	-0.000
874.49	-0.000
874.66	-0.000
874.83	-0.000
875.00	-0.000
875.17	-0.000
875.34	-0.000
875.51	-0.000
875.68	-0.000
875.85	-0.000
876.02	-0.000
876.19	-0.000
876.36	-0.000
876.53	-0.000
876.70	-0.000
876.87	-0.000
877.04	-0.000
877.21	-0.000
877.38	-0.000
877.55	-0.000
877.72	-0.000
877.89	-0.000
878.06	-0.000
878.23	-0.000
878.39	-0.000
878.56	-0.000
878.73	-0.000
878.90	-0.000
879.07	-0.000
879.24	-0.000
879.41	-0.000
879.58	-0.000
879.75	-0.000
879.92	-0.000
880.09	-0.000
880.26	-0.000
880.43	-0.000
880.60	-0.000
880.77	-0.000
880.94	-0.000
881.11	-0.000
881.27	-0.000
881.44	-0.000
881.61	-0.000
881.78	-0.000
881.95	-0.000
882.12	-0.000
882.29	-0.000
882.46	-0.000
882.63	-0.000
882.80	-0.000
882.97	-0.000
883.14	-0.000
883.30	-0.000
883.47	-0.000
883.64	-0.000
883.81	-0.000
883.98	-0.000
884.15	-0.000
884.32	-0.000
884.49	-0.000
884.66	-0.000
884.82	-0.000
884.99	-0.000
885.16	-0.000
885.33	-0.000
885.50	-0.000
885.67	-0.000
885.84	-0.000
886.01	-0.000
886.17	-0.000
886.34	-0.000
886.51	-0.000
886.68	-0.000
886.85	-0.000
887.02	-0.000
887.19	-0.000
887.36	-0.000
887.52	-0.000
887.69	-0.000
887.86	-0.000
888.03	-0.000
888.20	-0.000
888.37	-0.000
888.54	-0.000
888.70	-0.000
888.87	-0.000
889.04	-0.000
889.21	-0.000
889.38	-0.000
889.55	-0.000
889.71	-0.000
889.88	-0.000
890.05	-0.000
890.22	-0.000
890.39	-0.000
>>>>>End Processed Spectral Data<<<<<
