SpectraSuite Data File
++++++++++++++++++++++++++++++++++++
Date: Fri Jun 19 14:18:40 CEST 2015
User: introlabs
Dark Spectrum Present: Yes
Reference Spectrum Present: Yes
Number of Sampled Component Spectra: 1
Spectrometers: USB4H08886
Integration Time (usec): 745692 (USB4H08886)
Spectra Averaged: 5 (USB4H08886)
Boxcar Smoothing: 5 (USB4H08886)
Correct for Electrical Dark: Yes (USB4H08886)
Strobe/Lamp Enabled: No (USB4H08886)
Correct for Detector Non-linearity: Yes (USB4H08886)
Correct for Stray Light: Yes (USB4H08886)
Number of Pixels in Processed Spectrum: 3648
>>>>>Begin Processed Spectral Data<<<<<
178.14	-0.000
178.36	-0.000
178.57	-0.000
178.79	-0.000
179.01	-0.000
179.22	-0.000
179.44	-0.000
179.65	-0.000
179.87	-0.000
180.08	-0.000
180.30	-0.000
180.52	-0.000
180.73	-0.000
180.95	-0.000
181.16	-0.000
181.38	-0.000
181.59	-0.000
181.81	-0.000
182.03	-0.000
182.24	-0.000
182.46	-0.000
182.67	-0.000
182.89	-0.000
183.10	-0.000
183.32	-0.000
183.54	-0.000
183.75	-0.000
183.97	-0.000
184.18	-0.000
184.40	-0.000
184.61	-0.000
184.83	-0.000
185.04	-0.000
185.26	-0.000
185.48	-0.000
185.69	-0.000
185.91	-0.000
186.12	-0.000
186.34	-0.000
186.55	-0.000
186.77	-0.000
186.98	-0.000
187.20	-0.000
187.42	-0.000
187.63	-0.000
187.85	-0.000
188.06	-0.000
188.28	-0.000
188.49	-0.000
188.71	-0.000
188.92	-0.000
189.14	-0.000
189.36	-0.000
189.57	-0.000
189.79	-0.000
190.00	-0.000
190.22	-0.000
190.43	-0.000
190.65	-0.000
190.86	-0.000
191.08	-0.000
191.29	-0.000
191.51	-0.000
191.72	-0.000
191.94	-0.000
192.16	-0.000
192.37	-0.000
192.59	-0.000
192.80	-0.000
193.02	-0.000
193.23	-0.000
193.45	-0.000
193.66	-0.000
193.88	-0.000
194.09	-0.000
194.31	-0.000
194.52	-0.000
194.74	-0.000
194.95	-0.000
195.17	-0.000
195.38	-0.000
195.60	-0.000
195.81	-0.000
196.03	-0.000
196.25	-0.000
196.46	-0.000
196.68	-0.000
196.89	-0.000
197.11	-0.000
197.32	-0.000
197.54	-0.000
197.75	-0.000
197.97	-0.000
198.18	-0.000
198.40	-0.000
198.61	-0.000
198.83	-0.000
199.04	-0.000
199.26	-0.000
199.47	-0.000
199.69	-0.000
199.90	-0.000
200.12	-0.000
200.33	-0.000
200.55	-0.000
200.76	-0.000
200.98	-0.000
201.19	-0.000
201.41	-0.000
201.62	-0.000
201.84	-0.000
202.05	-0.000
202.27	-0.000
202.48	-0.000
202.70	-0.000
202.91	-0.000
203.13	-0.000
203.34	-0.000
203.56	-0.000
203.77	-0.000
203.99	-0.000
204.20	-0.000
204.42	-0.000
204.63	-0.000
204.85	-0.000
205.06	-0.000
205.28	-0.000
205.49	-0.000
205.71	-0.000
205.92	-0.000
206.14	-0.000
206.35	-0.000
206.56	-0.000
206.78	-0.000
206.99	-0.000
207.21	-0.000
207.42	-0.000
207.64	-0.000
207.85	-0.000
208.07	-0.000
208.28	-0.000
208.50	-0.000
208.71	-0.000
208.93	-0.000
209.14	-0.000
209.36	-0.000
209.57	-0.000
209.79	-0.000
210.00	-0.000
210.22	-0.000
210.43	-0.000
210.64	-0.000
210.86	-0.000
211.07	-0.000
211.29	-0.000
211.50	-0.000
211.72	-0.000
211.93	-0.000
212.15	-0.000
212.36	-0.000
212.58	-0.000
212.79	-0.000
213.01	-0.000
213.22	-0.000
213.43	-0.000
213.65	-0.000
213.86	-0.000
214.08	-0.000
214.29	-0.000
214.51	-0.000
214.72	-0.000
214.94	-0.000
215.15	-0.000
215.36	-0.000
215.58	-0.000
215.79	-0.000
216.01	-0.000
216.22	-0.000
216.44	-0.000
216.65	-0.000
216.87	-0.000
217.08	-0.000
217.29	-0.000
217.51	-0.000
217.72	-0.000
217.94	-0.000
218.15	-0.000
218.37	-0.000
218.58	-0.000
218.80	-0.000
219.01	-0.000
219.22	-0.000
219.44	-0.000
219.65	-0.000
219.87	-0.000
220.08	-0.000
220.30	-0.000
220.51	-0.000
220.72	-0.000
220.94	-0.000
221.15	-0.000
221.37	-0.000
221.58	-0.000
221.79	-0.000
222.01	-0.000
222.22	-0.000
222.44	-0.000
222.65	-0.000
222.87	-0.000
223.08	-0.000
223.29	-0.000
223.51	-0.000
223.72	-0.000
223.94	-0.000
224.15	-0.000
224.36	-0.000
224.58	-0.000
224.79	-0.000
225.01	-0.000
225.22	-0.000
225.44	-0.000
225.65	-0.000
225.86	-0.000
226.08	-0.000
226.29	-0.000
226.51	-0.000
226.72	-0.000
226.93	-0.000
227.15	-0.000
227.36	-0.000
227.58	-0.000
227.79	-0.000
228.00	-0.000
228.22	-0.000
228.43	-0.000
228.65	-0.000
228.86	-0.000
229.07	-0.000
229.29	-0.000
229.50	-0.000
229.72	-0.000
229.93	-0.000
230.14	-0.000
230.36	-0.000
230.57	-0.000
230.78	-0.000
231.00	-0.000
231.21	-0.000
231.43	-0.000
231.64	-0.000
231.85	-0.000
232.07	-0.000
232.28	-0.000
232.50	-0.000
232.71	-0.000
232.92	-0.000
233.14	-0.000
233.35	-0.000
233.56	-0.000
233.78	-0.000
233.99	-0.000
234.21	-0.000
234.42	-0.000
234.63	-0.000
234.85	-0.000
235.06	-0.000
235.27	-0.000
235.49	-0.000
235.70	-0.000
235.91	-0.000
236.13	-0.000
236.34	-0.000
236.56	-0.000
236.77	-0.000
236.98	-0.000
237.20	-0.000
237.41	-0.000
237.62	-0.000
237.84	-0.000
238.05	-0.000
238.26	-0.000
238.48	-0.000
238.69	-0.000
238.91	-0.000
239.12	-0.000
239.33	-0.000
239.55	-0.000
239.76	-0.000
239.97	-0.000
240.19	-0.000
240.40	-0.000
240.61	-0.000
240.83	-0.000
241.04	-0.000
241.25	-0.000
241.47	-0.000
241.68	-0.000
241.89	-0.000
242.11	-0.000
242.32	-0.000
242.53	-0.000
242.75	-0.000
242.96	-0.000
243.17	-0.000
243.39	-0.000
243.60	-0.000
243.81	-0.000
244.03	-0.000
244.24	-0.000
244.45	-0.000
244.67	-0.000
244.88	-0.000
245.09	-0.000
245.31	-0.000
245.52	-0.000
245.73	-0.000
245.95	-0.000
246.16	-0.000
246.37	-0.000
246.59	-0.000
246.80	-0.000
247.01	-0.000
247.23	-0.000
247.44	-0.000
247.65	-0.000
247.87	-0.000
248.08	-0.000
248.29	-0.000
248.51	-0.000
248.72	-0.000
248.93	-0.000
249.15	-0.000
249.36	-0.000
249.57	-0.000
249.78	-0.000
250.00	-0.000
250.21	-0.000
250.42	-0.000
250.64	-0.000
250.85	-0.000
251.06	-0.000
251.28	-0.000
251.49	-0.000
251.70	-0.000
251.92	-0.000
252.13	-0.000
252.34	-0.000
252.55	-0.000
252.77	-0.000
252.98	-0.000
253.19	-0.000
253.41	-0.000
253.62	-0.000
253.83	-0.000
254.05	-0.000
254.26	-0.000
254.47	-0.000
254.68	-0.000
254.90	-0.000
255.11	-0.000
255.32	-0.000
255.54	-0.000
255.75	-0.000
255.96	-0.000
256.17	-0.000
256.39	-0.000
256.60	-0.000
256.81	-0.000
257.03	-0.000
257.24	-0.000
257.45	-0.000
257.66	-0.000
257.88	-0.000
258.09	-0.000
258.30	-0.000
258.51	-0.000
258.73	-0.000
258.94	-0.000
259.15	-0.000
259.37	-0.000
259.58	-0.000
259.79	-0.000
260.00	-0.000
260.22	-0.000
260.43	-0.000
260.64	-0.000
260.85	-0.000
261.07	-0.000
261.28	-0.000
261.49	-0.000
261.71	-0.000
261.92	-0.000
262.13	-0.000
262.34	-0.000
262.56	-0.000
262.77	-0.000
262.98	-0.000
263.19	-0.000
263.41	-0.000
263.62	-0.000
263.83	-0.000
264.04	-0.000
264.26	-0.000
264.47	-0.000
264.68	-0.000
264.89	-0.000
265.11	-0.000
265.32	-0.000
265.53	-0.000
265.74	-0.000
265.96	-0.000
266.17	-0.000
266.38	-0.000
266.59	-0.000
266.81	-0.000
267.02	-0.000
267.23	-0.000
267.44	-0.000
267.65	-0.000
267.87	-0.000
268.08	-0.000
268.29	-0.000
268.50	-0.000
268.72	-0.000
268.93	-0.000
269.14	-0.000
269.35	-0.000
269.57	-0.000
269.78	-0.000
269.99	-0.000
270.20	-0.000
270.41	-0.000
270.63	-0.000
270.84	-0.000
271.05	-0.000
271.26	-0.000
271.48	-0.000
271.69	-0.000
271.90	-0.000
272.11	-0.000
272.32	-0.000
272.54	-0.000
272.75	-0.000
272.96	-0.000
273.17	-0.000
273.39	-0.000
273.60	-0.000
273.81	-0.000
274.02	-0.000
274.23	-0.000
274.45	-0.000
274.66	-0.000
274.87	-0.000
275.08	-0.000
275.29	-0.000
275.51	-0.000
275.72	-0.000
275.93	-0.000
276.14	-0.000
276.35	-0.000
276.57	-0.000
276.78	-0.000
276.99	-0.000
277.20	-0.000
277.41	-0.000
277.63	-0.000
277.84	-0.000
278.05	-0.000
278.26	-0.000
278.47	-0.000
278.69	-0.000
278.90	-0.000
279.11	-0.000
279.32	-0.000
279.53	-0.000
279.74	-0.000
279.96	-0.000
280.17	-0.000
280.38	-0.000
280.59	-0.000
280.80	-0.000
281.02	-0.000
281.23	-0.000
281.44	-0.000
281.65	-0.000
281.86	-0.000
282.07	-0.000
282.29	-0.000
282.50	-0.000
282.71	-0.000
282.92	-0.000
283.13	-0.000
283.35	-0.000
283.56	-0.000
283.77	-0.000
283.98	-0.000
284.19	-0.000
284.40	-0.000
284.62	-0.000
284.83	-0.000
285.04	-0.000
285.25	-0.000
285.46	-0.000
285.67	-0.000
285.88	-0.000
286.10	-0.000
286.31	-0.000
286.52	-0.000
286.73	-0.000
286.94	-0.000
287.15	-0.000
287.37	-0.000
287.58	-0.000
287.79	-0.000
288.00	-0.000
288.21	-0.000
288.42	-0.000
288.63	-0.000
288.85	-0.000
289.06	-0.000
289.27	-0.000
289.48	-0.000
289.69	-0.000
289.90	-0.000
290.11	-0.000
290.33	-0.000
290.54	-0.000
290.75	-0.000
290.96	-0.000
291.17	-0.000
291.38	-0.000
291.59	-0.000
291.81	-0.000
292.02	-0.000
292.23	-0.000
292.44	-0.000
292.65	-0.000
292.86	-0.000
293.07	-0.000
293.28	3.760
293.50	-0.000
293.71	-0.000
293.92	-0.000
294.13	-0.000
294.34	-0.000
294.55	-0.000
294.76	-0.000
294.97	-0.000
295.19	-0.000
295.40	-0.000
295.61	-0.000
295.82	-0.000
296.03	2.444
296.24	2.871
296.45	1.920
296.66	1.662
296.87	1.670
297.09	1.745
297.30	1.890
297.51	1.611
297.72	1.579
297.93	1.658
298.14	1.633
298.35	1.593
298.56	1.573
298.77	1.690
298.99	1.655
299.20	1.635
299.41	1.616
299.62	1.584
299.83	1.578
300.04	1.524
300.25	1.521
300.46	1.554
300.67	1.533
300.88	1.484
301.10	1.478
301.31	1.551
301.52	1.496
301.73	1.439
301.94	1.442
302.15	1.459
302.36	1.418
302.57	1.358
302.78	1.370
302.99	1.408
303.20	1.421
303.41	1.342
303.63	1.329
303.84	1.335
304.05	1.334
304.26	1.275
304.47	1.279
304.68	1.283
304.89	1.273
305.10	1.234
305.31	1.220
305.52	1.258
305.73	1.253
305.94	1.214
306.15	1.209
306.37	1.230
306.58	1.240
306.79	1.210
307.00	1.229
307.21	1.265
307.42	1.258
307.63	1.228
307.84	1.198
308.05	1.231
308.26	1.234
308.47	1.209
308.68	1.201
308.89	1.204
309.10	1.204
309.31	1.170
309.52	1.164
309.73	1.178
309.95	1.172
310.16	1.145
310.37	1.136
310.58	1.150
310.79	1.149
311.00	1.147
311.21	1.147
311.42	1.148
311.63	1.142
311.84	1.123
312.05	1.121
312.26	1.141
312.47	1.151
312.68	1.128
312.89	1.115
313.10	1.124
313.31	1.100
313.52	1.099
313.73	1.100
313.94	1.103
314.15	1.085
314.36	1.066
314.57	1.060
314.78	1.047
314.99	1.044
315.21	1.032
315.42	1.034
315.63	1.046
315.84	1.026
316.05	1.014
316.26	1.021
316.47	1.040
316.68	1.036
316.89	1.018
317.10	1.038
317.31	1.044
317.52	1.044
317.73	1.023
317.94	1.024
318.15	1.065
318.36	1.063
318.57	1.044
318.78	1.032
318.99	1.064
319.20	1.062
319.41	1.032
319.62	1.032
319.83	1.046
320.04	1.043
320.25	1.031
320.46	0.999
320.67	1.002
320.88	1.000
321.09	0.988
321.30	0.976
321.51	0.991
321.72	0.989
321.93	0.974
322.14	0.966
322.35	0.991
322.56	0.992
322.77	0.980
322.98	0.991
323.19	1.000
323.40	1.004
323.61	0.984
323.82	0.978
324.03	0.982
324.24	0.978
324.45	0.967
324.66	0.948
324.87	0.946
325.08	0.946
325.29	0.927
325.50	0.920
325.71	0.925
325.92	0.932
326.13	0.919
326.34	0.920
326.55	0.927
326.76	0.927
326.97	0.917
327.18	0.912
327.39	0.935
327.60	0.936
327.80	0.936
328.01	0.935
328.22	0.935
328.43	0.937
328.64	0.926
328.85	0.930
329.06	0.932
329.27	0.930
329.48	0.925
329.69	0.908
329.90	0.919
330.11	0.912
330.32	0.906
330.53	0.900
330.74	0.901
330.95	0.899
331.16	0.886
331.37	0.893
331.58	0.895
331.79	0.895
332.00	0.886
332.21	0.879
332.42	0.883
332.63	0.875
332.83	0.869
333.04	0.873
333.25	0.885
333.46	0.882
333.67	0.869
333.88	0.872
334.09	0.881
334.30	0.879
334.51	0.870
334.72	0.866
334.93	0.870
335.14	0.871
335.35	0.863
335.56	0.858
335.77	0.867
335.98	0.865
336.18	0.858
336.39	0.852
336.60	0.854
336.81	0.853
337.02	0.852
337.23	0.856
337.44	0.858
337.65	0.860
337.86	0.850
338.07	0.846
338.28	0.850
338.49	0.849
338.70	0.842
338.91	0.849
339.11	0.856
339.32	0.853
339.53	0.841
339.74	0.838
339.95	0.835
340.16	0.833
340.37	0.826
340.58	0.825
340.79	0.828
341.00	0.828
341.21	0.817
341.41	0.817
341.62	0.819
341.83	0.821
342.04	0.815
342.25	0.827
342.46	0.831
342.67	0.830
342.88	0.823
343.09	0.823
343.30	0.830
343.50	0.833
343.71	0.823
343.92	0.820
344.13	0.823
344.34	0.822
344.55	0.805
344.76	0.804
344.97	0.808
345.18	0.806
345.38	0.803
345.59	0.797
345.80	0.798
346.01	0.796
346.22	0.793
346.43	0.789
346.64	0.798
346.85	0.797
347.06	0.791
347.26	0.792
347.47	0.797
347.68	0.792
347.89	0.788
348.10	0.783
348.31	0.790
348.52	0.789
348.73	0.786
348.93	0.782
349.14	0.784
349.35	0.784
349.56	0.776
349.77	0.772
349.98	0.778
350.19	0.776
350.39	0.771
350.60	0.766
350.81	0.781
351.02	0.780
351.23	0.775
351.44	0.777
351.65	0.780
351.86	0.778
352.06	0.777
352.27	0.776
352.48	0.777
352.69	0.777
352.90	0.773
353.11	0.760
353.31	0.767
353.52	0.764
353.73	0.757
353.94	0.758
354.15	0.764
354.36	0.764
354.57	0.755
354.77	0.758
354.98	0.758
355.19	0.756
355.40	0.756
355.61	0.762
355.82	0.765
356.02	0.765
356.23	0.758
356.44	0.760
356.65	0.764
356.86	0.764
357.07	0.757
357.27	0.761
357.48	0.764
357.69	0.760
357.90	0.745
358.11	0.741
358.32	0.745
358.52	0.748
358.73	0.739
358.94	0.741
359.15	0.746
359.36	0.747
359.56	0.741
359.77	0.739
359.98	0.747
360.19	0.747
360.40	0.745
360.61	0.745
360.81	0.744
361.02	0.743
361.23	0.735
361.44	0.733
361.65	0.734
361.85	0.734
362.06	0.731
362.27	0.733
362.48	0.733
362.69	0.735
362.89	0.729
363.10	0.731
363.31	0.735
363.52	0.738
363.73	0.733
363.93	0.734
364.14	0.736
364.35	0.738
364.56	0.728
364.77	0.730
364.97	0.732
365.18	0.732
365.39	0.727
365.60	0.724
365.81	0.726
366.01	0.726
366.22	0.722
366.43	0.721
366.64	0.724
366.84	0.728
367.05	0.725
367.26	0.725
367.47	0.726
367.68	0.726
367.88	0.722
368.09	0.720
368.30	0.722
368.51	0.722
368.71	0.722
368.92	0.726
369.13	0.724
369.34	0.723
369.55	0.722
369.75	0.722
369.96	0.729
370.17	0.729
370.38	0.726
370.58	0.726
370.79	0.731
371.00	0.729
371.21	0.720
371.41	0.725
371.62	0.730
371.83	0.726
372.04	0.724
372.24	0.717
372.45	0.719
372.66	0.719
372.87	0.716
373.07	0.713
373.28	0.713
373.49	0.717
373.70	0.708
373.90	0.707
374.11	0.716
374.32	0.715
374.53	0.714
374.73	0.714
374.94	0.717
375.15	0.717
375.36	0.715
375.56	0.724
375.77	0.724
375.98	0.724
376.19	0.721
376.39	0.715
376.60	0.719
376.81	0.719
377.02	0.717
377.22	0.716
377.43	0.715
377.64	0.715
377.84	0.706
378.05	0.710
378.26	0.716
378.47	0.715
378.67	0.713
378.88	0.710
379.09	0.711
379.30	0.710
379.50	0.708
379.71	0.710
379.92	0.713
380.12	0.712
380.33	0.704
380.54	0.701
380.75	0.707
380.95	0.707
381.16	0.705
381.37	0.705
381.57	0.707
381.78	0.708
381.99	0.708
382.20	0.707
382.40	0.710
382.61	0.710
382.82	0.707
383.02	0.701
383.23	0.704
383.44	0.704
383.64	0.702
383.85	0.705
384.06	0.708
384.27	0.707
384.47	0.705
384.68	0.705
384.89	0.711
385.09	0.711
385.30	0.710
385.51	0.709
385.71	0.713
385.92	0.713
386.13	0.711
386.33	0.713
386.54	0.714
386.75	0.713
386.95	0.709
387.16	0.705
387.37	0.708
387.58	0.707
387.78	0.705
387.99	0.703
388.20	0.705
388.40	0.702
388.61	0.698
388.82	0.701
389.02	0.704
389.23	0.704
389.44	0.702
389.64	0.702
389.85	0.714
390.06	0.713
390.26	0.714
390.47	0.712
390.68	0.716
390.88	0.714
391.09	0.709
391.30	0.709
391.50	0.709
391.71	0.708
391.92	0.706
392.12	0.698
392.33	0.700
392.53	0.699
392.74	0.700
392.95	0.699
393.15	0.703
393.36	0.704
393.57	0.702
393.77	0.706
393.98	0.707
394.19	0.706
394.39	0.706
394.60	0.707
394.81	0.708
395.01	0.705
395.22	0.703
395.43	0.703
395.63	0.708
395.84	0.709
396.04	0.704
396.25	0.706
396.46	0.709
396.66	0.707
396.87	0.705
397.08	0.703
397.28	0.705
397.49	0.706
397.69	0.703
397.90	0.698
398.11	0.699
398.31	0.700
398.52	0.697
398.73	0.697
398.93	0.696
399.14	0.695
399.34	0.694
399.55	0.695
399.76	0.695
399.96	0.697
400.17	0.696
400.37	0.694
400.58	0.700
400.79	0.702
400.99	0.700
401.20	0.705
401.41	0.708
401.61	0.708
401.82	0.714
402.02	0.713
402.23	0.714
402.44	0.713
402.64	0.713
402.85	0.708
403.05	0.707
403.26	0.706
403.47	0.700
403.67	0.699
403.88	0.700
404.08	0.694
404.29	0.692
404.50	0.691
404.70	0.692
404.91	0.691
405.11	0.688
405.32	0.688
405.52	0.689
405.73	0.689
405.94	0.687
406.14	0.690
406.35	0.692
406.55	0.692
406.76	0.689
406.97	0.690
407.17	0.693
407.38	0.693
407.58	0.691
407.79	0.693
407.99	0.696
408.20	0.697
408.41	0.693
408.61	0.690
408.82	0.692
409.02	0.692
409.23	0.690
409.43	0.689
409.64	0.690
409.84	0.690
410.05	0.686
410.26	0.685
410.46	0.684
410.67	0.684
410.87	0.685
411.08	0.687
411.28	0.688
411.49	0.690
411.69	0.687
411.90	0.689
412.11	0.690
412.31	0.691
412.52	0.689
412.72	0.691
412.93	0.692
413.13	0.691
413.34	0.687
413.54	0.689
413.75	0.690
413.95	0.690
414.16	0.686
414.37	0.689
414.57	0.690
414.78	0.692
414.98	0.689
415.19	0.690
415.39	0.687
415.60	0.689
415.80	0.688
416.01	0.686
416.21	0.688
416.42	0.688
416.62	0.683
416.83	0.684
417.03	0.684
417.24	0.684
417.44	0.682
417.65	0.682
417.86	0.682
418.06	0.681
418.27	0.680
418.47	0.682
418.68	0.682
418.88	0.683
419.09	0.680
419.29	0.681
419.50	0.681
419.70	0.681
419.91	0.679
420.11	0.677
420.32	0.679
420.52	0.679
420.73	0.677
420.93	0.678
421.14	0.680
421.34	0.678
421.55	0.675
421.75	0.675
421.96	0.676
422.16	0.676
422.37	0.675
422.57	0.672
422.78	0.673
422.98	0.670
423.19	0.667
423.39	0.666
423.60	0.670
423.80	0.671
424.01	0.670
424.21	0.672
424.42	0.673
424.62	0.673
424.83	0.672
425.03	0.673
425.23	0.676
425.44	0.676
425.64	0.676
425.85	0.675
426.05	0.676
426.26	0.676
426.46	0.672
426.67	0.672
426.87	0.677
427.08	0.677
427.28	0.675
427.49	0.676
427.69	0.677
427.90	0.676
428.10	0.673
428.31	0.673
428.51	0.674
428.71	0.674
428.92	0.675
429.12	0.672
429.33	0.673
429.53	0.677
429.74	0.680
429.94	0.681
430.15	0.680
430.35	0.680
430.56	0.677
430.76	0.676
430.96	0.677
431.17	0.674
431.37	0.672
431.58	0.671
431.78	0.668
431.99	0.661
432.19	0.663
432.40	0.665
432.60	0.666
432.80	0.669
433.01	0.667
433.21	0.667
433.42	0.669
433.62	0.669
433.83	0.668
434.03	0.671
434.23	0.674
434.44	0.672
434.64	0.670
434.85	0.674
435.05	0.675
435.26	0.676
435.46	0.674
435.66	0.674
435.87	0.674
436.07	0.674
436.28	0.670
436.48	0.667
436.69	0.666
436.89	0.666
437.09	0.660
437.30	0.659
437.50	0.659
437.71	0.671
437.91	0.669
438.11	0.670
438.32	0.674
438.52	0.674
438.73	0.672
438.93	0.671
439.13	0.672
439.34	0.675
439.54	0.672
439.75	0.673
439.95	0.663
440.15	0.668
440.36	0.667
440.56	0.664
440.77	0.665
440.97	0.665
441.17	0.664
441.38	0.665
441.58	0.663
441.79	0.663
441.99	0.661
442.19	0.660
442.40	0.657
442.60	0.657
442.81	0.655
443.01	0.656
443.21	0.657
443.42	0.656
443.62	0.654
443.82	0.654
444.03	0.656
444.23	0.655
444.44	0.656
444.64	0.655
444.84	0.656
445.05	0.656
445.25	0.654
445.45	0.654
445.66	0.656
445.86	0.655
446.06	0.656
446.27	0.656
446.47	0.659
446.68	0.657
446.88	0.656
447.08	0.655
447.29	0.657
447.49	0.658
447.69	0.657
447.90	0.656
448.10	0.660
448.30	0.657
448.51	0.658
448.71	0.656
448.91	0.659
449.12	0.658
449.32	0.659
449.52	0.658
449.73	0.661
449.93	0.660
450.14	0.660
450.34	0.659
450.54	0.662
450.75	0.659
450.95	0.658
451.15	0.657
451.36	0.660
451.56	0.657
451.76	0.655
451.97	0.653
452.17	0.653
452.37	0.652
452.58	0.648
452.78	0.648
452.98	0.651
453.19	0.650
453.39	0.650
453.59	0.649
453.79	0.650
454.00	0.651
454.20	0.650
454.40	0.651
454.61	0.653
454.81	0.653
455.01	0.652
455.22	0.652
455.42	0.654
455.62	0.652
455.83	0.652
456.03	0.655
456.23	0.657
456.44	0.658
456.64	0.656
456.84	0.656
457.04	0.657
457.25	0.656
457.45	0.653
457.65	0.652
457.86	0.653
458.06	0.651
458.26	0.646
458.47	0.645
458.67	0.647
458.87	0.647
459.07	0.644
459.28	0.646
459.48	0.649
459.68	0.649
459.89	0.648
460.09	0.646
460.29	0.648
460.49	0.649
460.70	0.647
460.90	0.647
461.10	0.648
461.31	0.648
461.51	0.645
461.71	0.646
461.91	0.648
462.12	0.648
462.32	0.647
462.52	0.647
462.72	0.650
462.93	0.651
463.13	0.649
463.33	0.650
463.53	0.651
463.74	0.651
463.94	0.647
464.14	0.648
464.35	0.649
464.55	0.649
464.75	0.648
464.95	0.645
465.16	0.647
465.36	0.646
465.56	0.644
465.76	0.644
465.97	0.644
466.17	0.644
466.37	0.642
466.57	0.644
466.78	0.645
466.98	0.644
467.18	0.643
467.38	0.642
467.59	0.643
467.79	0.644
467.99	0.643
468.19	0.645
468.39	0.648
468.60	0.648
468.80	0.645
469.00	0.646
469.20	0.648
469.41	0.648
469.61	0.647
469.81	0.647
470.01	0.647
470.22	0.648
470.42	0.645
470.62	0.643
470.82	0.644
471.02	0.644
471.23	0.641
471.43	0.641
471.63	0.644
471.83	0.643
472.04	0.642
472.24	0.641
472.44	0.646
472.64	0.647
472.84	0.645
473.05	0.644
473.25	0.648
473.45	0.647
473.65	0.645
473.85	0.646
474.06	0.647
474.26	0.647
474.46	0.648
474.66	0.644
474.86	0.645
475.07	0.645
475.27	0.643
475.47	0.641
475.67	0.642
475.87	0.644
476.08	0.641
476.28	0.642
476.48	0.643
476.68	0.642
476.88	0.640
477.09	0.641
477.29	0.643
477.49	0.643
477.69	0.642
477.89	0.642
478.09	0.642
478.30	0.644
478.50	0.640
478.70	0.640
478.90	0.640
479.10	0.643
479.31	0.644
479.51	0.642
479.71	0.643
479.91	0.642
480.11	0.641
480.31	0.641
480.52	0.640
480.72	0.640
480.92	0.639
481.12	0.638
481.32	0.636
481.52	0.634
481.72	0.634
481.93	0.638
482.13	0.638
482.33	0.638
482.53	0.636
482.73	0.637
482.93	0.638
483.14	0.638
483.34	0.637
483.54	0.638
483.74	0.637
483.94	0.636
484.14	0.632
484.34	0.632
484.55	0.632
484.75	0.632
484.95	0.630
485.15	0.630
485.35	0.630
485.55	0.630
485.75	0.628
485.96	0.629
486.16	0.631
486.36	0.630
486.56	0.628
486.76	0.628
486.96	0.629
487.16	0.628
487.36	0.626
487.57	0.626
487.77	0.626
487.97	0.627
488.17	0.624
488.37	0.623
488.57	0.624
488.77	0.625
488.97	0.623
489.18	0.622
489.38	0.625
489.58	0.626
489.78	0.625
489.98	0.624
490.18	0.624
490.38	0.625
490.58	0.624
490.78	0.625
490.98	0.627
491.19	0.627
491.39	0.627
491.59	0.625
491.79	0.628
491.99	0.628
492.19	0.628
492.39	0.631
492.59	0.631
492.79	0.633
492.99	0.633
493.20	0.633
493.40	0.633
493.60	0.635
493.80	0.633
494.00	0.631
494.20	0.631
494.40	0.631
494.60	0.628
494.80	0.632
495.00	0.631
495.20	0.630
495.40	0.629
495.61	0.631
495.81	0.630
496.01	0.634
496.21	0.634
496.41	0.634
496.61	0.635
496.81	0.634
497.01	0.629
497.21	0.628
497.41	0.629
497.61	0.629
497.81	0.626
498.01	0.626
498.21	0.624
498.41	0.622
498.61	0.622
498.82	0.623
499.02	0.625
499.22	0.625
499.42	0.625
499.62	0.625
499.82	0.627
500.02	0.628
500.22	0.626
500.42	0.629
500.62	0.630
500.82	0.630
501.02	0.628
501.22	0.628
501.42	0.628
501.62	0.631
501.82	0.630
502.02	0.630
502.22	0.630
502.42	0.632
502.62	0.629
502.82	0.630
503.02	0.630
503.22	0.630
503.42	0.628
503.63	0.628
503.83	0.626
504.03	0.624
504.23	0.623
504.43	0.623
504.63	0.624
504.83	0.623
505.03	0.622
505.23	0.624
505.43	0.625
505.63	0.626
505.83	0.626
506.03	0.627
506.23	0.630
506.43	0.630
506.63	0.629
506.83	0.628
507.03	0.630
507.23	0.631
507.43	0.628
507.63	0.628
507.83	0.629
508.03	0.629
508.23	0.628
508.43	0.627
508.63	0.628
508.83	0.629
509.03	0.630
509.23	0.629
509.43	0.630
509.63	0.631
509.83	0.630
510.03	0.632
510.23	0.633
510.43	0.634
510.63	0.634
510.83	0.634
511.03	0.635
511.23	0.633
511.43	0.633
511.63	0.634
511.83	0.637
512.03	0.636
512.22	0.634
512.42	0.633
512.62	0.634
512.82	0.634
513.02	0.633
513.22	0.633
513.42	0.635
513.62	0.638
513.82	0.636
514.02	0.635
514.22	0.637
514.42	0.637
514.62	0.636
514.82	0.636
515.02	0.639
515.22	0.642
515.42	0.641
515.62	0.643
515.82	0.642
516.02	0.643
516.22	0.643
516.42	0.644
516.62	0.646
516.82	0.647
517.01	0.646
517.21	0.645
517.41	0.649
517.61	0.649
517.81	0.644
518.01	0.643
518.21	0.643
518.41	0.642
518.61	0.641
518.81	0.641
519.01	0.642
519.21	0.642
519.41	0.641
519.61	0.636
519.81	0.639
520.00	0.639
520.20	0.640
520.40	0.643
520.60	0.644
520.80	0.643
521.00	0.643
521.20	0.644
521.40	0.648
521.60	0.649
521.80	0.647
522.00	0.647
522.20	0.650
522.39	0.649
522.59	0.646
522.79	0.647
522.99	0.650
523.19	0.648
523.39	0.646
523.59	0.645
523.79	0.647
523.99	0.650
524.19	0.650
524.38	0.648
524.58	0.649
524.78	0.650
524.98	0.647
525.18	0.650
525.38	0.651
525.58	0.651
525.78	0.649
525.98	0.647
526.18	0.648
526.37	0.647
526.57	0.649
526.77	0.649
526.97	0.650
527.17	0.650
527.37	0.646
527.57	0.649
527.77	0.651
527.96	0.651
528.16	0.649
528.36	0.650
528.56	0.652
528.76	0.650
528.96	0.648
529.16	0.650
529.36	0.653
529.55	0.653
529.75	0.649
529.95	0.649
530.15	0.651
530.35	0.653
530.55	0.651
530.75	0.652
530.94	0.653
531.14	0.654
531.34	0.652
531.54	0.650
531.74	0.653
531.94	0.657
532.13	0.655
532.33	0.656
532.53	0.656
532.73	0.656
532.93	0.654
533.13	0.655
533.33	0.655
533.52	0.656
533.72	0.658
533.92	0.656
534.12	0.655
534.32	0.655
534.52	0.653
534.71	0.654
534.91	0.656
535.11	0.658
535.31	0.656
535.51	0.657
535.71	0.659
535.90	0.656
536.10	0.657
536.30	0.659
536.50	0.660
536.70	0.660
536.89	0.658
537.09	0.658
537.29	0.659
537.49	0.660
537.69	0.658
537.89	0.659
538.08	0.659
538.28	0.657
538.48	0.657
538.68	0.659
538.88	0.661
539.07	0.661
539.27	0.659
539.47	0.658
539.67	0.659
539.87	0.661
540.06	0.658
540.26	0.659
540.46	0.661
540.66	0.659
540.86	0.656
541.05	0.656
541.25	0.658
541.45	0.658
541.65	0.657
541.84	0.659
542.04	0.659
542.24	0.660
542.44	0.659
542.64	0.660
542.83	0.663
543.03	0.663
543.23	0.660
543.43	0.661
543.62	0.661
543.82	0.662
544.02	0.660
544.22	0.659
544.42	0.662
544.61	0.663
544.81	0.660
545.01	0.659
545.21	0.661
545.40	0.662
545.60	0.660
545.80	0.663
546.00	0.663
546.19	0.663
546.39	0.662
546.59	0.659
546.79	0.661
546.98	0.661
547.18	0.661
547.38	0.661
547.58	0.664
547.77	0.664
547.97	0.660
548.17	0.662
548.37	0.664
548.56	0.664
548.76	0.663
548.96	0.665
549.16	0.668
549.35	0.667
549.55	0.665
549.75	0.665
549.95	0.668
550.14	0.669
550.34	0.667
550.54	0.671
550.73	0.675
550.93	0.675
551.13	0.671
551.33	0.669
551.52	0.671
551.72	0.670
551.92	0.668
552.12	0.668
552.31	0.669
552.51	0.669
552.71	0.665
552.90	0.664
553.10	0.665
553.30	0.665
553.50	0.665
553.69	0.666
553.89	0.667
554.09	0.667
554.28	0.664
554.48	0.666
554.68	0.668
554.87	0.668
555.07	0.665
555.27	0.665
555.47	0.667
555.66	0.668
555.86	0.666
556.06	0.668
556.25	0.670
556.45	0.678
556.65	0.676
556.84	0.678
557.04	0.682
557.24	0.683
557.43	0.683
557.63	0.685
557.83	0.687
558.02	0.687
558.22	0.690
558.42	0.691
558.61	0.684
558.81	0.685
559.01	0.681
559.21	0.681
559.40	0.682
559.60	0.682
559.80	0.679
559.99	0.680
560.19	0.683
560.39	0.678
560.58	0.675
560.78	0.675
560.97	0.679
561.17	0.678
561.37	0.676
561.56	0.677
561.76	0.679
561.96	0.678
562.15	0.676
562.35	0.678
562.55	0.679
562.74	0.679
562.94	0.678
563.14	0.674
563.33	0.675
563.53	0.675
563.73	0.672
563.92	0.674
564.12	0.675
564.31	0.677
564.51	0.674
564.71	0.676
564.90	0.679
565.10	0.680
565.30	0.683
565.49	0.684
565.69	0.686
565.89	0.686
566.08	0.684
566.28	0.686
566.47	0.689
566.67	0.687
566.87	0.684
567.06	0.685
567.26	0.692
567.46	0.688
567.65	0.687
567.85	0.689
568.04	0.692
568.24	0.691
568.44	0.688
568.63	0.686
568.83	0.688
569.02	0.686
569.22	0.682
569.42	0.678
569.61	0.681
569.81	0.679
570.00	0.677
570.20	0.679
570.40	0.680
570.59	0.680
570.79	0.678
570.98	0.676
571.18	0.678
571.38	0.677
571.57	0.674
571.77	0.672
571.96	0.676
572.16	0.673
572.35	0.668
572.55	0.669
572.75	0.667
572.94	0.667
573.14	0.665
573.33	0.666
573.53	0.667
573.73	0.666
573.92	0.664
574.12	0.662
574.31	0.664
574.51	0.666
574.70	0.663
574.90	0.664
575.09	0.667
575.29	0.667
575.49	0.664
575.68	0.665
575.88	0.666
576.07	0.667
576.27	0.665
576.46	0.664
576.66	0.663
576.86	0.662
577.05	0.660
577.25	0.658
577.44	0.660
577.64	0.660
577.83	0.657
578.03	0.658
578.22	0.658
578.42	0.657
578.61	0.655
578.81	0.656
579.00	0.657
579.20	0.657
579.40	0.656
579.59	0.655
579.79	0.655
579.98	0.655
580.18	0.655
580.37	0.654
580.57	0.657
580.76	0.662
580.96	0.660
581.15	0.661
581.35	0.663
581.54	0.663
581.74	0.662
581.93	0.664
582.13	0.665
582.32	0.662
582.52	0.661
582.71	0.660
582.91	0.656
583.10	0.655
583.30	0.654
583.49	0.653
583.69	0.656
583.88	0.657
584.08	0.656
584.27	0.658
584.47	0.661
584.66	0.661
584.86	0.660
585.05	0.662
585.25	0.665
585.44	0.665
585.64	0.664
585.83	0.660
586.03	0.661
586.22	0.660
586.42	0.656
586.61	0.658
586.81	0.660
587.00	0.660
587.20	0.658
587.39	0.658
587.59	0.660
587.78	0.661
587.98	0.662
588.17	0.663
588.37	0.666
588.56	0.668
588.76	0.663
588.95	0.664
589.15	0.667
589.34	0.670
589.54	0.668
589.73	0.668
589.92	0.672
590.12	0.671
590.31	0.669
590.51	0.673
590.70	0.675
590.90	0.676
591.09	0.673
591.29	0.672
591.48	0.672
591.68	0.673
591.87	0.671
592.06	0.671
592.26	0.673
592.45	0.673
592.65	0.667
592.84	0.667
593.04	0.670
593.23	0.672
593.43	0.669
593.62	0.669
593.81	0.669
594.01	0.669
594.20	0.667
594.40	0.666
594.59	0.668
594.79	0.669
594.98	0.667
595.17	0.667
595.37	0.667
595.56	0.669
595.76	0.668
595.95	0.669
596.14	0.672
596.34	0.673
596.53	0.671
596.73	0.673
596.92	0.674
597.12	0.677
597.31	0.676
597.50	0.675
597.70	0.677
597.89	0.677
598.09	0.673
598.28	0.674
598.47	0.677
598.67	0.676
598.86	0.672
599.06	0.674
599.25	0.674
599.44	0.673
599.64	0.670
599.83	0.667
600.03	0.670
600.22	0.671
600.41	0.671
600.61	0.669
600.80	0.672
601.00	0.672
601.19	0.668
601.38	0.666
601.58	0.668
601.77	0.670
601.96	0.672
602.16	0.672
602.35	0.681
602.55	0.678
602.74	0.678
602.93	0.678
603.13	0.683
603.32	0.685
603.51	0.685
603.71	0.688
603.90	0.690
604.09	0.691
604.29	0.688
604.48	0.682
604.68	0.684
604.87	0.683
605.06	0.680
605.26	0.676
605.45	0.677
605.64	0.676
605.84	0.671
606.03	0.670
606.22	0.669
606.42	0.669
606.61	0.664
606.80	0.664
607.00	0.666
607.19	0.666
607.38	0.665
607.58	0.667
607.77	0.669
607.96	0.669
608.16	0.668
608.35	0.672
608.54	0.675
608.74	0.679
608.93	0.684
609.12	0.687
609.32	0.689
609.51	0.692
609.70	0.691
609.90	0.693
610.09	0.698
610.28	0.703
610.48	0.696
610.67	0.698
610.86	0.698
611.06	0.693
611.25	0.691
611.44	0.692
611.64	0.691
611.83	0.694
612.02	0.690
612.21	0.688
612.41	0.687
612.60	0.687
612.79	0.682
612.99	0.683
613.18	0.685
613.37	0.683
613.57	0.680
613.76	0.682
613.95	0.680
614.14	0.680
614.34	0.678
614.53	0.678
614.72	0.682
614.92	0.682
615.11	0.678
615.30	0.675
615.49	0.676
615.69	0.679
615.88	0.675
616.07	0.676
616.26	0.678
616.46	0.679
616.65	0.675
616.84	0.674
617.04	0.676
617.23	0.679
617.42	0.680
617.61	0.684
617.81	0.686
618.00	0.687
618.19	0.685
618.38	0.689
618.58	0.692
618.77	0.693
618.96	0.692
619.15	0.694
619.35	0.697
619.54	0.697
619.73	0.692
619.92	0.694
620.12	0.698
620.31	0.699
620.50	0.694
620.69	0.695
620.89	0.698
621.08	0.698
621.27	0.697
621.46	0.696
621.66	0.700
621.85	0.701
622.04	0.696
622.23	0.696
622.43	0.697
622.62	0.696
622.81	0.695
623.00	0.695
623.19	0.700
623.39	0.699
623.58	0.696
623.77	0.695
623.96	0.697
624.16	0.698
624.35	0.692
624.54	0.696
624.73	0.699
624.92	0.697
625.12	0.694
625.31	0.694
625.50	0.697
625.69	0.697
625.88	0.693
626.08	0.693
626.27	0.694
626.46	0.695
626.65	0.691
626.84	0.691
627.04	0.697
627.23	0.698
627.42	0.694
627.61	0.696
627.80	0.699
628.00	0.700
628.19	0.698
628.38	0.701
628.57	0.704
628.76	0.704
628.96	0.700
629.15	0.700
629.34	0.704
629.53	0.704
629.72	0.698
629.91	0.699
630.11	0.704
630.30	0.705
630.49	0.707
630.68	0.708
630.87	0.712
631.06	0.715
631.26	0.709
631.45	0.711
631.64	0.719
631.83	0.722
632.02	0.718
632.21	0.717
632.41	0.724
632.60	0.718
632.79	0.715
632.98	0.716
633.17	0.717
633.36	0.718
633.55	0.714
633.75	0.710
633.94	0.711
634.13	0.711
634.32	0.707
634.51	0.702
634.70	0.705
634.89	0.705
635.09	0.700
635.28	0.702
635.47	0.704
635.66	0.706
635.85	0.702
636.04	0.703
636.23	0.708
636.43	0.710
636.62	0.709
636.81	0.707
637.00	0.711
637.19	0.714
637.38	0.710
637.57	0.710
637.76	0.711
637.95	0.713
638.15	0.708
638.34	0.705
638.53	0.709
638.72	0.711
638.91	0.709
639.10	0.706
639.29	0.707
639.48	0.707
639.67	0.707
639.87	0.706
640.06	0.711
640.25	0.711
640.44	0.712
640.63	0.711
640.82	0.713
641.01	0.713
641.20	0.712
641.39	0.714
641.58	0.717
641.78	0.716
641.97	0.712
642.16	0.725
642.35	0.727
642.54	0.726
642.73	0.720
642.92	0.719
643.11	0.722
643.30	0.721
643.49	0.716
643.68	0.718
643.87	0.720
644.06	0.721
644.25	0.701
644.45	0.703
644.64	0.704
644.83	0.705
645.02	0.702
645.21	0.701
645.40	0.703
645.59	0.703
645.78	0.695
645.97	0.698
646.16	0.699
646.35	0.698
646.54	0.696
646.73	0.696
646.92	0.698
647.11	0.697
647.30	0.693
647.49	0.696
647.68	0.696
647.88	0.696
648.07	0.688
648.26	0.691
648.45	0.693
648.64	0.690
648.83	0.687
649.02	0.690
649.21	0.700
649.40	0.699
649.59	0.694
649.78	0.694
649.97	0.709
650.16	0.709
650.35	0.703
650.54	0.705
650.73	0.713
650.92	0.711
651.11	0.703
651.30	0.702
651.49	0.705
651.68	0.705
651.87	0.702
652.06	0.691
652.25	0.694
652.44	0.697
652.63	0.693
652.82	0.694
653.01	0.694
653.20	0.692
653.39	0.681
653.58	0.678
653.77	0.678
653.96	0.674
654.15	0.666
654.34	0.665
654.53	0.661
654.72	0.655
654.91	0.646
655.10	0.642
655.29	0.640
655.48	0.638
655.67	0.633
655.86	0.631
656.05	0.630
656.24	0.629
656.43	0.624
656.62	0.623
656.81	0.624
657.00	0.622
657.19	0.619
657.38	0.619
657.57	0.619
657.76	0.622
657.95	0.619
658.14	0.622
658.33	0.625
658.51	0.630
658.70	0.630
658.89	0.631
659.08	0.640
659.27	0.647
659.46	0.646
659.65	0.653
659.84	0.656
660.03	0.660
660.22	0.660
660.41	0.664
660.60	0.664
660.79	0.665
660.98	0.671
661.17	0.670
661.36	0.669
661.55	0.670
661.74	0.667
661.92	0.670
662.11	0.671
662.30	0.671
662.49	0.664
662.68	0.664
662.87	0.668
663.06	0.661
663.25	0.663
663.44	0.663
663.63	0.665
663.82	0.663
664.01	0.658
664.20	0.657
664.38	0.659
664.57	0.659
664.76	0.658
664.95	0.658
665.14	0.663
665.33	0.658
665.52	0.665
665.71	0.668
665.90	0.668
666.09	0.669
666.28	0.666
666.46	0.664
666.65	0.666
666.84	0.664
667.03	0.658
667.22	0.657
667.41	0.659
667.60	0.648
667.79	0.642
667.98	0.643
668.16	0.645
668.35	0.646
668.54	0.642
668.73	0.642
668.92	0.643
669.11	0.642
669.30	0.636
669.49	0.632
669.67	0.635
669.86	0.637
670.05	0.634
670.24	0.631
670.43	0.628
670.62	0.628
670.81	0.623
671.00	0.625
671.18	0.625
671.37	0.624
671.56	0.622
671.75	0.620
671.94	0.618
672.13	0.616
672.32	0.611
672.50	0.612
672.69	0.612
672.88	0.612
673.07	0.607
673.26	0.610
673.45	0.612
673.63	0.612
673.82	0.608
674.01	0.609
674.20	0.609
674.39	0.608
674.58	0.606
674.76	0.605
674.95	0.605
675.14	0.604
675.33	0.599
675.52	0.598
675.71	0.599
675.89	0.599
676.08	0.595
676.27	0.594
676.46	0.596
676.65	0.595
676.84	0.594
677.02	0.596
677.21	0.598
677.40	0.597
677.59	0.595
677.78	0.595
677.96	0.597
678.15	0.597
678.34	0.594
678.53	0.595
678.72	0.596
678.90	0.592
679.09	0.588
679.28	0.585
679.47	0.585
679.66	0.584
679.84	0.581
680.03	0.578
680.22	0.577
680.41	0.579
680.60	0.575
680.78	0.574
680.97	0.577
681.16	0.577
681.35	0.575
681.53	0.574
681.72	0.576
681.91	0.577
682.10	0.575
682.29	0.578
682.47	0.576
682.66	0.576
682.85	0.574
683.04	0.573
683.22	0.573
683.41	0.575
683.60	0.574
683.79	0.575
683.97	0.575
684.16	0.574
684.35	0.569
684.54	0.571
684.72	0.571
684.91	0.571
685.10	0.568
685.29	0.570
685.47	0.567
685.66	0.567
685.85	0.563
686.04	0.563
686.22	0.566
686.41	0.568
686.60	0.564
686.79	0.567
686.97	0.569
687.16	0.570
687.35	0.567
687.54	0.571
687.72	0.575
687.91	0.574
688.10	0.576
688.29	0.575
688.47	0.574
688.66	0.574
688.85	0.570
689.03	0.568
689.22	0.572
689.41	0.572
689.60	0.567
689.78	0.564
689.97	0.566
690.16	0.563
690.34	0.559
690.53	0.559
690.72	0.559
690.91	0.557
691.09	0.555
691.28	0.550
691.47	0.548
691.65	0.548
691.84	0.545
692.03	0.543
692.21	0.541
692.40	0.540
692.59	0.538
692.77	0.537
692.96	0.539
693.15	0.539
693.34	0.536
693.52	0.536
693.71	0.536
693.90	0.537
694.08	0.539
694.27	0.540
694.46	0.549
694.64	0.550
694.83	0.549
695.02	0.548
695.20	0.548
695.39	0.548
695.58	0.548
695.76	0.549
695.95	0.547
696.14	0.546
696.32	0.544
696.51	0.534
696.70	0.534
696.88	0.535
697.07	0.534
697.26	0.535
697.44	0.537
697.63	0.535
697.81	0.533
698.00	0.533
698.19	0.533
698.37	0.532
698.56	0.532
698.75	0.532
698.93	0.532
699.12	0.532
699.31	0.530
699.49	0.529
699.68	0.530
699.87	0.532
700.05	0.532
700.24	0.531
700.42	0.533
700.61	0.532
700.80	0.530
700.98	0.530
701.17	0.532
701.36	0.531
701.54	0.530
701.73	0.531
701.91	0.529
702.10	0.529
702.29	0.527
702.47	0.526
702.66	0.528
702.84	0.530
703.03	0.528
703.22	0.529
703.40	0.529
703.59	0.531
703.77	0.530
703.96	0.530
704.15	0.530
704.33	0.530
704.52	0.529
704.70	0.528
704.89	0.528
705.08	0.527
705.26	0.522
705.45	0.523
705.63	0.522
705.82	0.519
706.00	0.518
706.19	0.518
706.38	0.518
706.56	0.517
706.75	0.515
706.93	0.514
707.12	0.516
707.30	0.517
707.49	0.514
707.68	0.512
707.86	0.512
708.05	0.512
708.23	0.509
708.42	0.509
708.60	0.512
708.79	0.512
708.98	0.510
709.16	0.509
709.35	0.511
709.53	0.515
709.72	0.513
709.90	0.515
710.09	0.517
710.27	0.519
710.46	0.522
710.64	0.521
710.83	0.523
711.02	0.525
711.20	0.523
711.39	0.521
711.57	0.519
711.76	0.520
711.94	0.518
712.13	0.519
712.31	0.518
712.50	0.514
712.68	0.512
712.87	0.512
713.05	0.513
713.24	0.514
713.42	0.513
713.61	0.514
713.79	0.515
713.98	0.515
714.16	0.516
714.35	0.515
714.54	0.516
714.72	0.516
714.91	0.514
715.09	0.520
715.28	0.524
715.46	0.524
715.65	0.521
715.83	0.520
716.02	0.523
716.20	0.519
716.39	0.518
716.57	0.520
716.76	0.522
716.94	0.522
717.12	0.513
717.31	0.515
717.49	0.517
717.68	0.519
717.86	0.518
718.05	0.520
718.23	0.522
718.42	0.525
718.60	0.526
718.79	0.534
718.97	0.536
719.16	0.536
719.34	0.533
719.53	0.533
719.71	0.533
719.90	0.535
720.08	0.532
720.27	0.531
720.45	0.531
720.63	0.530
720.82	0.524
721.00	0.527
721.19	0.530
721.37	0.529
721.56	0.529
721.74	0.532
721.93	0.541
722.11	0.548
722.30	0.548
722.48	0.553
722.66	0.554
722.85	0.554
723.03	0.554
723.22	0.552
723.40	0.556
723.59	0.555
723.77	0.558
723.95	0.552
724.14	0.553
724.32	0.555
724.51	0.554
724.69	0.556
724.88	0.556
725.06	0.554
725.24	0.555
725.43	0.557
725.61	0.560
725.80	0.555
725.98	0.552
726.16	0.549
726.35	0.555
726.53	0.554
726.72	0.552
726.90	0.562
727.09	0.563
727.27	0.568
727.45	0.565
727.64	0.573
727.82	0.582
728.01	0.586
728.19	0.582
728.37	0.587
728.56	0.591
728.74	0.596
728.92	0.583
729.11	0.585
729.29	0.584
729.48	0.587
729.66	0.576
729.84	0.576
730.03	0.580
730.21	0.582
730.40	0.573
730.58	0.575
730.76	0.576
730.95	0.580
731.13	0.580
731.31	0.593
731.50	0.601
731.68	0.605
731.86	0.600
732.05	0.614
732.23	0.618
732.42	0.622
732.60	0.624
732.78	0.628
732.97	0.645
733.15	0.652
733.33	0.640
733.52	0.647
733.70	0.659
733.88	0.668
734.07	0.654
734.25	0.678
734.43	0.685
734.62	0.686
734.80	0.681
734.98	0.672
735.17	0.679
735.35	0.686
735.53	0.672
735.72	0.674
735.90	0.694
736.08	0.712
736.27	0.690
736.45	0.698
736.63	0.709
736.82	0.720
737.00	0.720
737.18	0.732
737.37	0.759
737.55	0.785
737.73	0.777
737.92	0.781
738.10	0.777
738.28	0.796
738.46	0.784
738.65	0.799
738.83	0.821
739.01	0.870
739.20	0.857
739.38	0.844
739.56	0.834
739.75	0.841
739.93	0.806
740.11	0.832
740.29	0.831
740.48	0.836
740.66	0.813
740.84	0.804
741.03	0.771
741.21	0.784
741.39	0.763
741.57	0.772
741.76	0.789
741.94	0.795
742.12	0.759
742.31	0.768
742.49	0.787
742.67	0.808
742.85	0.822
743.04	0.826
743.22	0.834
743.40	0.885
743.58	0.869
743.77	0.885
743.95	0.915
744.13	0.966
744.31	0.942
744.50	0.941
744.68	0.942
744.86	0.919
745.04	0.931
745.23	0.990
745.41	0.976
745.59	0.978
745.77	0.943
745.96	0.934
746.14	0.945
746.32	0.942
746.50	0.930
746.69	0.912
746.87	0.921
747.05	0.906
747.23	0.834
747.42	0.821
747.60	0.849
747.78	0.851
747.96	0.876
748.14	0.833
748.33	0.859
748.51	0.853
748.69	0.846
748.87	0.872
749.06	0.869
749.24	0.872
749.42	0.854
749.60	0.836
749.78	0.846
749.97	0.805
750.15	0.797
750.33	0.801
750.51	0.824
750.69	0.831
750.88	0.831
751.06	0.840
751.24	0.866
751.42	0.864
751.60	0.856
751.79	0.922
751.97	0.966
752.15	0.967
752.33	0.935
752.51	0.998
752.69	1.015
752.88	0.986
753.06	1.031
753.24	1.003
753.42	1.029
753.60	1.178
753.78	1.045
753.97	1.062
754.15	1.080
754.33	1.109
754.51	0.990
754.69	0.975
754.87	1.003
755.06	0.937
755.24	0.937
755.42	0.947
755.60	0.857
755.78	0.869
755.96	0.816
756.15	0.815
756.33	0.819
756.51	0.836
756.69	0.824
756.87	0.794
757.05	0.814
757.23	0.799
757.42	0.767
757.60	0.766
757.78	0.756
757.96	0.758
758.14	0.745
758.32	0.730
758.50	0.744
758.69	0.741
758.87	0.732
759.05	0.733
759.23	0.744
759.41	0.744
759.59	0.740
759.77	0.758
759.95	0.783
760.13	0.829
760.32	0.829
760.50	0.824
760.68	0.850
760.86	0.851
761.04	0.826
761.22	0.827
761.40	0.875
761.58	0.877
761.76	0.852
761.95	0.834
762.13	0.790
762.31	0.790
762.49	0.760
762.67	0.773
762.85	0.788
763.03	0.784
763.21	0.768
763.39	0.749
763.57	0.751
763.75	0.745
763.94	0.732
764.12	0.733
764.30	0.757
764.48	0.762
764.66	0.728
764.84	0.726
765.02	0.763
765.20	0.771
765.38	0.750
765.56	0.754
765.74	0.795
765.92	0.794
766.10	0.800
766.28	0.793
766.46	0.820
766.65	0.822
766.83	0.807
767.01	0.792
767.19	0.799
767.37	0.801
767.55	0.788
767.73	0.769
767.91	0.771
768.09	0.757
768.27	0.745
768.45	0.736
768.63	0.741
768.81	0.746
768.99	0.719
769.17	0.740
769.35	0.756
769.53	0.756
769.71	0.734
769.89	0.744
770.07	0.751
770.25	0.737
770.43	0.716
770.61	0.739
770.79	0.743
770.97	0.752
771.15	0.723
771.33	0.723
771.51	0.725
771.69	0.737
771.87	0.745
772.05	0.751
772.24	0.757
772.42	0.766
772.60	0.745
772.78	0.800
772.96	0.827
773.14	0.821
773.32	0.801
773.49	0.808
773.67	0.808
773.85	0.786
774.03	0.774
774.21	0.803
774.39	0.814
774.57	0.834
774.75	0.769
774.93	0.761
775.11	0.785
775.29	0.790
775.47	0.790
775.65	0.797
775.83	0.813
776.01	0.833
776.19	0.786
776.37	0.787
776.55	0.787
776.73	0.779
776.91	0.776
777.09	0.760
777.27	0.759
777.45	0.749
777.63	0.727
777.81	0.724
777.99	0.712
778.17	0.716
778.35	0.696
778.53	0.684
778.71	0.692
778.89	0.682
779.07	0.672
779.24	0.678
779.42	0.678
779.60	0.697
779.78	0.694
779.96	0.698
780.14	0.708
780.32	0.728
780.50	0.712
780.68	0.712
780.86	0.704
781.04	0.720
781.22	0.722
781.40	0.734
781.58	0.724
781.75	0.718
781.93	0.703
782.11	0.702
782.29	0.690
782.47	0.691
782.65	0.679
782.83	0.706
783.01	0.701
783.19	0.696
783.37	0.681
783.55	0.684
783.72	0.700
783.90	0.709
784.08	0.698
784.26	0.710
784.44	0.728
784.62	0.731
784.80	0.700
784.98	0.703
785.16	0.708
785.33	0.722
785.51	0.707
785.69	0.694
785.87	0.692
786.05	0.704
786.23	0.700
786.41	0.697
786.59	0.701
786.77	0.702
786.94	0.689
787.12	0.691
787.30	0.694
787.48	0.695
787.66	0.684
787.84	0.688
788.02	0.678
788.19	0.676
788.37	0.662
788.55	0.666
788.73	0.667
788.91	0.662
789.09	0.647
789.27	0.636
789.44	0.646
789.62	0.651
789.80	0.661
789.98	0.683
790.16	0.669
790.34	0.665
790.51	0.652
790.69	0.668
790.87	0.674
791.05	0.673
791.23	0.666
791.41	0.668
791.58	0.676
791.76	0.654
791.94	0.628
792.12	0.637
792.30	0.640
792.48	0.638
792.65	0.633
792.83	0.642
793.01	0.649
793.19	0.647
793.37	0.632
793.54	0.628
793.72	0.638
793.90	0.635
794.08	0.625
794.26	0.626
794.43	0.636
794.61	0.620
794.79	0.608
794.97	0.606
795.15	0.612
795.32	0.615
795.50	0.604
795.68	0.598
795.86	0.603
796.04	0.606
796.21	0.599
796.39	0.596
796.57	0.610
796.75	0.618
796.92	0.618
797.10	0.622
797.28	0.624
797.46	0.628
797.64	0.631
797.81	0.638
797.99	0.642
798.17	0.645
798.35	0.639
798.52	0.643
798.70	0.637
798.88	0.645
799.06	0.645
799.23	0.648
799.41	0.656
799.59	0.648
799.77	0.637
799.94	0.647
800.12	0.657
800.30	0.674
800.48	0.673
800.65	0.674
800.83	0.666
801.01	0.658
801.19	0.658
801.36	0.655
801.54	0.661
801.72	0.671
801.90	0.656
802.07	0.652
802.25	0.638
802.43	0.622
802.60	0.619
802.78	0.625
802.96	0.632
803.14	0.624
803.31	0.621
803.49	0.619
803.67	0.614
803.84	0.617
804.02	0.609
804.20	0.613
804.38	0.619
804.55	0.618
804.73	0.604
804.91	0.603
805.08	0.616
805.26	0.613
805.44	0.675
805.61	0.679
805.79	0.682
805.97	0.681
806.15	0.671
806.32	0.665
806.50	0.671
806.68	0.672
806.85	0.663
807.03	0.654
807.21	0.669
807.38	0.604
807.56	0.594
807.74	0.603
807.91	0.609
808.09	0.612
808.27	0.630
808.44	0.655
808.62	0.667
808.80	0.668
808.97	0.664
809.15	0.659
809.33	0.678
809.50	0.684
809.68	0.669
809.86	0.677
810.03	0.708
810.21	0.687
810.39	0.668
810.56	0.671
810.74	0.696
810.91	0.765
811.09	0.755
811.27	0.774
811.44	0.781
811.62	0.783
811.80	0.766
811.97	0.736
812.15	0.737
812.33	0.731
812.50	0.717
812.68	0.706
812.85	0.652
813.03	0.654
813.21	0.622
813.38	0.616
813.56	0.620
813.74	0.630
813.91	0.637
814.09	0.667
814.26	0.662
814.44	0.664
814.62	0.654
814.79	0.655
814.97	0.661
815.14	0.665
815.32	0.670
815.50	0.687
815.67	0.691
815.85	0.682
816.02	0.671
816.20	0.679
816.38	0.695
816.55	0.700
816.73	0.699
816.90	0.710
817.08	0.740
817.26	0.746
817.43	0.721
817.61	0.743
817.78	0.763
817.96	0.745
818.13	0.734
818.31	0.733
818.49	0.748
818.66	0.739
818.84	0.725
819.01	0.704
819.19	0.708
819.36	0.712
819.54	0.685
819.71	0.726
819.89	0.738
820.07	0.750
820.24	0.743
820.42	0.741
820.59	0.763
820.77	0.782
820.94	0.773
821.12	0.793
821.29	0.809
821.47	0.808
821.64	0.743
821.82	0.756
822.00	0.754
822.17	0.751
822.35	0.743
822.52	0.744
822.70	0.735
822.87	0.742
823.05	0.721
823.22	0.729
823.40	0.754
823.57	0.775
823.75	0.754
823.92	0.777
824.10	0.794
824.27	0.833
824.45	0.822
824.62	0.881
824.80	0.899
824.97	0.912
825.15	0.900
825.32	0.918
825.50	0.920
825.67	0.931
825.85	0.911
826.02	0.930
826.20	0.946
826.37	1.059
826.55	0.974
826.72	1.152
826.90	1.216
827.07	1.268
827.25	1.197
827.42	1.341
827.60	1.495
827.77	1.646
827.95	1.587
828.12	1.728
828.30	1.403
828.47	1.545
828.65	1.173
828.82	1.221
829.00	1.271
829.17	1.341
829.34	1.323
829.52	1.324
829.69	-0.000
829.87	-0.000
830.04	-0.000
830.22	-0.000
830.39	-0.000
830.57	-0.000
830.74	-0.000
830.92	-0.000
831.09	-0.000
831.26	-0.000
831.44	-0.000
831.61	-0.000
831.79	-0.000
831.96	-0.000
832.14	-0.000
832.31	-0.000
832.49	-0.000
832.66	-0.000
832.83	-0.000
833.01	-0.000
833.18	-0.000
833.36	-0.000
833.53	-0.000
833.70	-0.000
833.88	-0.000
834.05	-0.000
834.23	-0.000
834.40	-0.000
834.58	-0.000
834.75	-0.000
834.92	-0.000
835.10	-0.000
835.27	-0.000
835.45	-0.000
835.62	-0.000
835.79	-0.000
835.97	-0.000
836.14	-0.000
836.32	-0.000
836.49	-0.000
836.66	-0.000
836.84	-0.000
837.01	-0.000
837.18	-0.000
837.36	-0.000
837.53	-0.000
837.71	-0.000
837.88	-0.000
838.05	-0.000
838.23	-0.000
838.40	-0.000
838.58	-0.000
838.75	-0.000
838.92	-0.000
839.10	-0.000
839.27	-0.000
839.44	-0.000
839.62	-0.000
839.79	-0.000
839.96	-0.000
840.14	-0.000
840.31	-0.000
840.48	-0.000
840.66	-0.000
840.83	-0.000
841.01	-0.000
841.18	-0.000
841.35	-0.000
841.53	-0.000
841.70	-0.000
841.87	-0.000
842.05	-0.000
842.22	-0.000
842.39	-0.000
842.57	-0.000
842.74	-0.000
842.91	-0.000
843.09	-0.000
843.26	-0.000
843.43	-0.000
843.60	-0.000
843.78	-0.000
843.95	-0.000
844.12	-0.000
844.30	-0.000
844.47	-0.000
844.64	-0.000
844.82	-0.000
844.99	-0.000
845.16	-0.000
845.34	-0.000
845.51	-0.000
845.68	-0.000
845.85	-0.000
846.03	-0.000
846.20	-0.000
846.37	-0.000
846.55	-0.000
846.72	-0.000
846.89	-0.000
847.06	-0.000
847.24	-0.000
847.41	-0.000
847.58	-0.000
847.76	-0.000
847.93	-0.000
848.10	-0.000
848.27	-0.000
848.45	-0.000
848.62	-0.000
848.79	-0.000
848.97	-0.000
849.14	-0.000
849.31	-0.000
849.48	-0.000
849.66	-0.000
849.83	-0.000
850.00	-0.000
850.17	-0.000
850.35	-0.000
850.52	-0.000
850.69	-0.000
850.86	-0.000
851.04	-0.000
851.21	-0.000
851.38	-0.000
851.55	-0.000
851.72	-0.000
851.90	-0.000
852.07	-0.000
852.24	-0.000
852.41	-0.000
852.59	-0.000
852.76	-0.000
852.93	-0.000
853.10	-0.000
853.28	-0.000
853.45	-0.000
853.62	-0.000
853.79	-0.000
853.96	-0.000
854.14	-0.000
854.31	-0.000
854.48	-0.000
854.65	-0.000
854.82	-0.000
855.00	-0.000
855.17	-0.000
855.34	-0.000
855.51	-0.000
855.68	-0.000
855.86	-0.000
856.03	-0.000
856.20	-0.000
856.37	-0.000
856.54	-0.000
856.72	-0.000
856.89	-0.000
857.06	-0.000
857.23	-0.000
857.40	-0.000
857.57	-0.000
857.75	-0.000
857.92	-0.000
858.09	-0.000
858.26	-0.000
858.43	-0.000
858.60	-0.000
858.78	-0.000
858.95	-0.000
859.12	-0.000
859.29	-0.000
859.46	-0.000
859.63	-0.000
859.81	-0.000
859.98	-0.000
860.15	-0.000
860.32	-0.000
860.49	-0.000
860.66	-0.000
860.83	-0.000
861.01	-0.000
861.18	-0.000
861.35	-0.000
861.52	-0.000
861.69	-0.000
861.86	-0.000
862.03	-0.000
862.21	-0.000
862.38	-0.000
862.55	-0.000
862.72	-0.000
862.89	-0.000
863.06	-0.000
863.23	-0.000
863.40	-0.000
863.58	-0.000
863.75	-0.000
863.92	-0.000
864.09	-0.000
864.26	-0.000
864.43	-0.000
864.60	-0.000
864.77	-0.000
864.94	-0.000
865.11	-0.000
865.29	-0.000
865.46	-0.000
865.63	-0.000
865.80	-0.000
865.97	-0.000
866.14	-0.000
866.31	-0.000
866.48	-0.000
866.65	-0.000
866.82	-0.000
866.99	-0.000
867.16	-0.000
867.34	-0.000
867.51	-0.000
867.68	-0.000
867.85	-0.000
868.02	-0.000
868.19	-0.000
868.36	-0.000
868.53	-0.000
868.70	-0.000
868.87	-0.000
869.04	-0.000
869.21	-0.000
869.38	-0.000
869.55	-0.000
869.72	-0.000
869.89	-0.000
870.06	-0.000
870.24	-0.000
870.41	-0.000
870.58	-0.000
870.75	-0.000
870.92	-0.000
871.09	-0.000
871.26	-0.000
871.43	-0.000
871.60	-0.000
871.77	-0.000
871.94	-0.000
872.11	-0.000
872.28	-0.000
872.45	-0.000
872.62	-0.000
872.79	-0.000
872.96	-0.000
873.13	-0.000
873.30	-0.000
873.47	-0.000
873.64	-0.000
873.81	-0.000
873.98	-0.000
874.15	-0.000
874.32	-0.000
874.49	-0.000
874.66	-0.000
874.83	-0.000
875.00	-0.000
875.17	-0.000
875.34	-0.000
875.51	-0.000
875.68	-0.000
875.85	-0.000
876.02	-0.000
876.19	-0.000
876.36	-0.000
876.53	-0.000
876.70	-0.000
876.87	-0.000
877.04	-0.000
877.21	-0.000
877.38	-0.000
877.55	-0.000
877.72	-0.000
877.89	-0.000
878.06	-0.000
878.23	-0.000
878.39	-0.000
878.56	-0.000
878.73	-0.000
878.90	-0.000
879.07	-0.000
879.24	-0.000
879.41	-0.000
879.58	-0.000
879.75	-0.000
879.92	-0.000
880.09	-0.000
880.26	-0.000
880.43	-0.000
880.60	-0.000
880.77	-0.000
880.94	-0.000
881.11	-0.000
881.27	-0.000
881.44	-0.000
881.61	-0.000
881.78	-0.000
881.95	-0.000
882.12	-0.000
882.29	-0.000
882.46	-0.000
882.63	-0.000
882.80	-0.000
882.97	-0.000
883.14	-0.000
883.30	-0.000
883.47	-0.000
883.64	-0.000
883.81	-0.000
883.98	-0.000
884.15	-0.000
884.32	-0.000
884.49	-0.000
884.66	-0.000
884.82	-0.000
884.99	-0.000
885.16	-0.000
885.33	-0.000
885.50	-0.000
885.67	-0.000
885.84	-0.000
886.01	-0.000
886.17	-0.000
886.34	-0.000
886.51	-0.000
886.68	-0.000
886.85	-0.000
887.02	-0.000
887.19	-0.000
887.36	-0.000
887.52	-0.000
887.69	-0.000
887.86	-0.000
888.03	-0.000
888.20	-0.000
888.37	-0.000
888.54	-0.000
888.70	-0.000
888.87	-0.000
889.04	-0.000
889.21	-0.000
889.38	-0.000
889.55	-0.000
889.71	-0.000
889.88	-0.000
890.05	-0.000
890.22	-0.000
890.39	-0.000
>>>>>End Processed Spectral Data<<<<<
