SpectraSuite Data File
++++++++++++++++++++++++++++++++++++
Date: Fri Jun 19 15:30:37 CEST 2015
User: introlabs
Dark Spectrum Present: Yes
Reference Spectrum Present: Yes
Number of Sampled Component Spectra: 1
Spectrometers: USB4H08886
Integration Time (usec): 745692 (USB4H08886)
Spectra Averaged: 5 (USB4H08886)
Boxcar Smoothing: 5 (USB4H08886)
Correct for Electrical Dark: Yes (USB4H08886)
Strobe/Lamp Enabled: No (USB4H08886)
Correct for Detector Non-linearity: Yes (USB4H08886)
Correct for Stray Light: Yes (USB4H08886)
Number of Pixels in Processed Spectrum: 3648
>>>>>Begin Processed Spectral Data<<<<<
178.14	-0.000
178.36	-0.000
178.57	-0.000
178.79	-0.000
179.01	-0.000
179.22	-0.000
179.44	-0.000
179.65	-0.000
179.87	-0.000
180.08	-0.000
180.30	-0.000
180.52	-0.000
180.73	-0.000
180.95	-0.000
181.16	-0.000
181.38	-0.000
181.59	-0.000
181.81	-0.000
182.03	-0.000
182.24	-0.000
182.46	-0.000
182.67	-0.000
182.89	-0.000
183.10	-0.000
183.32	-0.000
183.54	-0.000
183.75	-0.000
183.97	-0.000
184.18	-0.000
184.40	-0.000
184.61	-0.000
184.83	-0.000
185.04	-0.000
185.26	-0.000
185.48	-0.000
185.69	-0.000
185.91	-0.000
186.12	-0.000
186.34	-0.000
186.55	-0.000
186.77	-0.000
186.98	-0.000
187.20	-0.000
187.42	-0.000
187.63	-0.000
187.85	-0.000
188.06	-0.000
188.28	-0.000
188.49	-0.000
188.71	-0.000
188.92	-0.000
189.14	-0.000
189.36	-0.000
189.57	-0.000
189.79	-0.000
190.00	-0.000
190.22	-0.000
190.43	-0.000
190.65	-0.000
190.86	-0.000
191.08	-0.000
191.29	-0.000
191.51	-0.000
191.72	-0.000
191.94	-0.000
192.16	-0.000
192.37	-0.000
192.59	-0.000
192.80	-0.000
193.02	-0.000
193.23	-0.000
193.45	-0.000
193.66	-0.000
193.88	-0.000
194.09	-0.000
194.31	-0.000
194.52	-0.000
194.74	-0.000
194.95	-0.000
195.17	-0.000
195.38	-0.000
195.60	-0.000
195.81	-0.000
196.03	-0.000
196.25	-0.000
196.46	-0.000
196.68	-0.000
196.89	-0.000
197.11	-0.000
197.32	-0.000
197.54	-0.000
197.75	-0.000
197.97	-0.000
198.18	-0.000
198.40	-0.000
198.61	-0.000
198.83	-0.000
199.04	-0.000
199.26	-0.000
199.47	-0.000
199.69	-0.000
199.90	-0.000
200.12	-0.000
200.33	-0.000
200.55	-0.000
200.76	-0.000
200.98	-0.000
201.19	-0.000
201.41	-0.000
201.62	-0.000
201.84	-0.000
202.05	-0.000
202.27	-0.000
202.48	-0.000
202.70	-0.000
202.91	-0.000
203.13	-0.000
203.34	-0.000
203.56	-0.000
203.77	-0.000
203.99	-0.000
204.20	-0.000
204.42	-0.000
204.63	-0.000
204.85	-0.000
205.06	-0.000
205.28	-0.000
205.49	-0.000
205.71	-0.000
205.92	-0.000
206.14	-0.000
206.35	-0.000
206.56	-0.000
206.78	-0.000
206.99	-0.000
207.21	-0.000
207.42	-0.000
207.64	-0.000
207.85	-0.000
208.07	-0.000
208.28	-0.000
208.50	-0.000
208.71	-0.000
208.93	-0.000
209.14	-0.000
209.36	-0.000
209.57	-0.000
209.79	-0.000
210.00	-0.000
210.22	-0.000
210.43	-0.000
210.64	-0.000
210.86	-0.000
211.07	-0.000
211.29	-0.000
211.50	-0.000
211.72	-0.000
211.93	-0.000
212.15	-0.000
212.36	-0.000
212.58	-0.000
212.79	-0.000
213.01	-0.000
213.22	-0.000
213.43	-0.000
213.65	-0.000
213.86	-0.000
214.08	-0.000
214.29	-0.000
214.51	-0.000
214.72	-0.000
214.94	-0.000
215.15	-0.000
215.36	-0.000
215.58	-0.000
215.79	-0.000
216.01	-0.000
216.22	-0.000
216.44	-0.000
216.65	-0.000
216.87	-0.000
217.08	-0.000
217.29	-0.000
217.51	-0.000
217.72	-0.000
217.94	-0.000
218.15	-0.000
218.37	-0.000
218.58	-0.000
218.80	-0.000
219.01	-0.000
219.22	-0.000
219.44	-0.000
219.65	-0.000
219.87	-0.000
220.08	-0.000
220.30	-0.000
220.51	-0.000
220.72	-0.000
220.94	-0.000
221.15	-0.000
221.37	-0.000
221.58	-0.000
221.79	-0.000
222.01	-0.000
222.22	-0.000
222.44	-0.000
222.65	-0.000
222.87	-0.000
223.08	-0.000
223.29	-0.000
223.51	-0.000
223.72	-0.000
223.94	-0.000
224.15	-0.000
224.36	-0.000
224.58	-0.000
224.79	-0.000
225.01	-0.000
225.22	-0.000
225.44	-0.000
225.65	-0.000
225.86	-0.000
226.08	-0.000
226.29	-0.000
226.51	-0.000
226.72	-0.000
226.93	-0.000
227.15	-0.000
227.36	-0.000
227.58	-0.000
227.79	-0.000
228.00	-0.000
228.22	-0.000
228.43	-0.000
228.65	-0.000
228.86	-0.000
229.07	-0.000
229.29	-0.000
229.50	-0.000
229.72	-0.000
229.93	-0.000
230.14	-0.000
230.36	-0.000
230.57	-0.000
230.78	-0.000
231.00	-0.000
231.21	-0.000
231.43	-0.000
231.64	-0.000
231.85	-0.000
232.07	-0.000
232.28	-0.000
232.50	-0.000
232.71	-0.000
232.92	-0.000
233.14	-0.000
233.35	-0.000
233.56	-0.000
233.78	-0.000
233.99	-0.000
234.21	-0.000
234.42	-0.000
234.63	-0.000
234.85	-0.000
235.06	-0.000
235.27	-0.000
235.49	-0.000
235.70	-0.000
235.91	-0.000
236.13	-0.000
236.34	-0.000
236.56	-0.000
236.77	-0.000
236.98	-0.000
237.20	-0.000
237.41	-0.000
237.62	-0.000
237.84	-0.000
238.05	-0.000
238.26	-0.000
238.48	-0.000
238.69	-0.000
238.91	-0.000
239.12	-0.000
239.33	-0.000
239.55	-0.000
239.76	-0.000
239.97	-0.000
240.19	-0.000
240.40	-0.000
240.61	-0.000
240.83	-0.000
241.04	-0.000
241.25	-0.000
241.47	-0.000
241.68	-0.000
241.89	-0.000
242.11	-0.000
242.32	-0.000
242.53	-0.000
242.75	-0.000
242.96	-0.000
243.17	-0.000
243.39	-0.000
243.60	-0.000
243.81	-0.000
244.03	-0.000
244.24	-0.000
244.45	-0.000
244.67	-0.000
244.88	-0.000
245.09	-0.000
245.31	-0.000
245.52	-0.000
245.73	-0.000
245.95	-0.000
246.16	-0.000
246.37	-0.000
246.59	-0.000
246.80	-0.000
247.01	-0.000
247.23	-0.000
247.44	-0.000
247.65	-0.000
247.87	-0.000
248.08	-0.000
248.29	-0.000
248.51	-0.000
248.72	-0.000
248.93	-0.000
249.15	-0.000
249.36	-0.000
249.57	-0.000
249.78	-0.000
250.00	-0.000
250.21	-0.000
250.42	-0.000
250.64	-0.000
250.85	-0.000
251.06	-0.000
251.28	-0.000
251.49	-0.000
251.70	-0.000
251.92	-0.000
252.13	-0.000
252.34	-0.000
252.55	-0.000
252.77	-0.000
252.98	-0.000
253.19	-0.000
253.41	-0.000
253.62	-0.000
253.83	-0.000
254.05	-0.000
254.26	-0.000
254.47	-0.000
254.68	-0.000
254.90	-0.000
255.11	-0.000
255.32	-0.000
255.54	-0.000
255.75	-0.000
255.96	-0.000
256.17	-0.000
256.39	-0.000
256.60	-0.000
256.81	-0.000
257.03	-0.000
257.24	-0.000
257.45	-0.000
257.66	-0.000
257.88	-0.000
258.09	-0.000
258.30	-0.000
258.51	-0.000
258.73	-0.000
258.94	-0.000
259.15	-0.000
259.37	-0.000
259.58	-0.000
259.79	-0.000
260.00	-0.000
260.22	-0.000
260.43	-0.000
260.64	-0.000
260.85	-0.000
261.07	-0.000
261.28	-0.000
261.49	-0.000
261.71	-0.000
261.92	-0.000
262.13	-0.000
262.34	-0.000
262.56	-0.000
262.77	-0.000
262.98	-0.000
263.19	-0.000
263.41	-0.000
263.62	-0.000
263.83	-0.000
264.04	-0.000
264.26	-0.000
264.47	-0.000
264.68	-0.000
264.89	-0.000
265.11	-0.000
265.32	-0.000
265.53	-0.000
265.74	-0.000
265.96	-0.000
266.17	-0.000
266.38	-0.000
266.59	-0.000
266.81	-0.000
267.02	-0.000
267.23	-0.000
267.44	-0.000
267.65	-0.000
267.87	-0.000
268.08	-0.000
268.29	-0.000
268.50	-0.000
268.72	-0.000
268.93	-0.000
269.14	-0.000
269.35	-0.000
269.57	-0.000
269.78	-0.000
269.99	-0.000
270.20	-0.000
270.41	-0.000
270.63	-0.000
270.84	-0.000
271.05	-0.000
271.26	-0.000
271.48	-0.000
271.69	-0.000
271.90	-0.000
272.11	-0.000
272.32	-0.000
272.54	-0.000
272.75	-0.000
272.96	-0.000
273.17	-0.000
273.39	-0.000
273.60	-0.000
273.81	-0.000
274.02	-0.000
274.23	-0.000
274.45	-0.000
274.66	-0.000
274.87	-0.000
275.08	-0.000
275.29	-0.000
275.51	-0.000
275.72	-0.000
275.93	-0.000
276.14	-0.000
276.35	-0.000
276.57	-0.000
276.78	-0.000
276.99	-0.000
277.20	-0.000
277.41	-0.000
277.63	-0.000
277.84	-0.000
278.05	-0.000
278.26	-0.000
278.47	-0.000
278.69	-0.000
278.90	-0.000
279.11	-0.000
279.32	-0.000
279.53	-0.000
279.74	-0.000
279.96	-0.000
280.17	-0.000
280.38	-0.000
280.59	-0.000
280.80	-0.000
281.02	-0.000
281.23	-0.000
281.44	-0.000
281.65	-0.000
281.86	-0.000
282.07	-0.000
282.29	-0.000
282.50	-0.000
282.71	-0.000
282.92	-0.000
283.13	-0.000
283.35	-0.000
283.56	-0.000
283.77	-0.000
283.98	-0.000
284.19	-0.000
284.40	-0.000
284.62	-0.000
284.83	-0.000
285.04	-0.000
285.25	-0.000
285.46	-0.000
285.67	-0.000
285.88	-0.000
286.10	-0.000
286.31	-0.000
286.52	-0.000
286.73	-0.000
286.94	-0.000
287.15	-0.000
287.37	-0.000
287.58	-0.000
287.79	-0.000
288.00	-0.000
288.21	-0.000
288.42	-0.000
288.63	-0.000
288.85	-0.000
289.06	-0.000
289.27	-0.000
289.48	-0.000
289.69	-0.000
289.90	-0.000
290.11	-0.000
290.33	-0.000
290.54	-0.000
290.75	-0.000
290.96	-0.000
291.17	-0.000
291.38	-0.000
291.59	-0.000
291.81	-0.000
292.02	-0.000
292.23	-0.000
292.44	-0.000
292.65	-0.000
292.86	-0.000
293.07	-0.000
293.28	-0.000
293.50	-0.000
293.71	-0.000
293.92	-0.000
294.13	-0.000
294.34	-0.000
294.55	-0.000
294.76	-0.000
294.97	-0.000
295.19	-0.000
295.40	-0.000
295.61	-0.000
295.82	-0.000
296.03	-0.000
296.24	-0.000
296.45	2.084
296.66	1.778
296.87	1.815
297.09	1.877
297.30	2.088
297.51	1.728
297.72	1.690
297.93	1.760
298.14	1.722
298.35	1.693
298.56	1.666
298.77	1.774
298.99	1.741
299.20	1.728
299.41	1.719
299.62	1.666
299.83	1.651
300.04	1.597
300.25	1.590
300.46	1.626
300.67	1.603
300.88	1.559
301.10	1.568
301.31	1.635
301.52	1.568
301.73	1.514
301.94	1.514
302.15	1.529
302.36	1.477
302.57	1.420
302.78	1.426
302.99	1.459
303.20	1.475
303.41	1.387
303.63	1.374
303.84	1.375
304.05	1.370
304.26	1.321
304.47	1.327
304.68	1.326
304.89	1.317
305.10	1.280
305.31	1.270
305.52	1.309
305.73	1.305
305.94	1.270
306.15	1.266
306.37	1.287
306.58	1.296
306.79	1.270
307.00	1.297
307.21	1.338
307.42	1.333
307.63	1.299
307.84	1.264
308.05	1.300
308.26	1.299
308.47	1.276
308.68	1.270
308.89	1.265
309.10	1.261
309.31	1.223
309.52	1.212
309.73	1.223
309.95	1.219
310.16	1.193
310.37	1.183
310.58	1.196
310.79	1.194
311.00	1.194
311.21	1.195
311.42	1.194
311.63	1.191
311.84	1.174
312.05	1.174
312.26	1.193
312.47	1.204
312.68	1.181
312.89	1.166
313.10	1.170
313.31	1.143
313.52	1.148
313.73	1.149
313.94	1.149
314.15	1.131
314.36	1.110
314.57	1.102
314.78	1.091
314.99	1.086
315.21	1.076
315.42	1.083
315.63	1.094
315.84	1.069
316.05	1.057
316.26	1.063
316.47	1.081
316.68	1.078
316.89	1.063
317.10	1.083
317.31	1.086
317.52	1.086
317.73	1.066
317.94	1.064
318.15	1.107
318.36	1.108
318.57	1.092
318.78	1.080
318.99	1.113
319.20	1.110
319.41	1.077
319.62	1.080
319.83	1.093
320.04	1.089
320.25	1.077
320.46	1.043
320.67	1.045
320.88	1.041
321.09	1.028
321.30	1.013
321.51	1.028
321.72	1.024
321.93	1.008
322.14	1.000
322.35	1.026
322.56	1.029
322.77	1.018
322.98	1.028
323.19	1.036
323.40	1.043
323.61	1.023
323.82	1.017
324.03	1.023
324.24	1.020
324.45	1.009
324.66	0.989
324.87	0.983
325.08	0.983
325.29	0.965
325.50	0.958
325.71	0.962
325.92	0.969
326.13	0.957
326.34	0.959
326.55	0.966
326.76	0.966
326.97	0.955
327.18	0.952
327.39	0.974
327.60	0.976
327.80	0.978
328.01	0.976
328.22	0.975
328.43	0.977
328.64	0.964
328.85	0.969
329.06	0.971
329.27	0.970
329.48	0.966
329.69	0.947
329.90	0.956
330.11	0.948
330.32	0.942
330.53	0.936
330.74	0.935
330.95	0.934
331.16	0.920
331.37	0.927
331.58	0.927
331.79	0.927
332.00	0.919
332.21	0.912
332.42	0.916
332.63	0.906
332.83	0.903
333.04	0.906
333.25	0.917
333.46	0.916
333.67	0.902
333.88	0.905
334.09	0.915
334.30	0.913
334.51	0.906
334.72	0.901
334.93	0.903
335.14	0.902
335.35	0.895
335.56	0.890
335.77	0.898
335.98	0.897
336.18	0.891
336.39	0.882
336.60	0.885
336.81	0.883
337.02	0.882
337.23	0.889
337.44	0.892
337.65	0.894
337.86	0.884
338.07	0.879
338.28	0.884
338.49	0.882
338.70	0.875
338.91	0.882
339.11	0.889
339.32	0.885
339.53	0.875
339.74	0.872
339.95	0.867
340.16	0.866
340.37	0.859
340.58	0.856
340.79	0.859
341.00	0.859
341.21	0.849
341.41	0.849
341.62	0.849
341.83	0.849
342.04	0.844
342.25	0.856
342.46	0.860
342.67	0.858
342.88	0.853
343.09	0.852
343.30	0.859
343.50	0.861
343.71	0.852
343.92	0.851
344.13	0.855
344.34	0.854
344.55	0.839
344.76	0.837
344.97	0.842
345.18	0.841
345.38	0.839
345.59	0.834
345.80	0.832
346.01	0.831
346.22	0.827
346.43	0.822
346.64	0.829
346.85	0.829
347.06	0.823
347.26	0.821
347.47	0.824
347.68	0.819
347.89	0.815
348.10	0.810
348.31	0.816
348.52	0.815
348.73	0.812
348.93	0.809
349.14	0.811
349.35	0.810
349.56	0.806
349.77	0.800
349.98	0.806
350.19	0.803
350.39	0.800
350.60	0.795
350.81	0.809
351.02	0.808
351.23	0.804
351.44	0.807
351.65	0.809
351.86	0.807
352.06	0.806
352.27	0.807
352.48	0.808
352.69	0.807
352.90	0.803
353.11	0.790
353.31	0.797
353.52	0.793
353.73	0.785
353.94	0.787
354.15	0.793
354.36	0.791
354.57	0.783
354.77	0.785
354.98	0.785
355.19	0.784
355.40	0.784
355.61	0.789
355.82	0.792
356.02	0.793
356.23	0.786
356.44	0.787
356.65	0.790
356.86	0.791
357.07	0.785
357.27	0.786
357.48	0.790
357.69	0.785
357.90	0.771
358.11	0.768
358.32	0.771
358.52	0.773
358.73	0.764
358.94	0.766
359.15	0.770
359.36	0.772
359.56	0.768
359.77	0.765
359.98	0.772
360.19	0.771
360.40	0.768
360.61	0.769
360.81	0.767
361.02	0.769
361.23	0.760
361.44	0.758
361.65	0.758
361.85	0.758
362.06	0.755
362.27	0.757
362.48	0.757
362.69	0.759
362.89	0.752
363.10	0.754
363.31	0.758
363.52	0.761
363.73	0.757
363.93	0.757
364.14	0.759
364.35	0.759
364.56	0.750
364.77	0.751
364.97	0.753
365.18	0.754
365.39	0.748
365.60	0.745
365.81	0.745
366.01	0.744
366.22	0.741
366.43	0.740
366.64	0.742
366.84	0.748
367.05	0.745
367.26	0.746
367.47	0.746
367.68	0.747
367.88	0.745
368.09	0.743
368.30	0.745
368.51	0.744
368.71	0.744
368.92	0.748
369.13	0.746
369.34	0.745
369.55	0.743
369.75	0.744
369.96	0.750
370.17	0.750
370.38	0.747
370.58	0.746
370.79	0.751
371.00	0.750
371.21	0.742
371.41	0.747
371.62	0.751
371.83	0.747
372.04	0.744
372.24	0.737
372.45	0.738
372.66	0.738
372.87	0.735
373.07	0.733
373.28	0.733
373.49	0.736
373.70	0.727
373.90	0.726
374.11	0.734
374.32	0.734
374.53	0.734
374.73	0.734
374.94	0.736
375.15	0.736
375.36	0.734
375.56	0.741
375.77	0.741
375.98	0.742
376.19	0.739
376.39	0.734
376.60	0.737
376.81	0.737
377.02	0.736
377.22	0.736
377.43	0.736
377.64	0.736
377.84	0.728
378.05	0.732
378.26	0.738
378.47	0.737
378.67	0.734
378.88	0.731
379.09	0.731
379.30	0.731
379.50	0.729
379.71	0.731
379.92	0.734
380.12	0.733
380.33	0.725
380.54	0.722
380.75	0.728
380.95	0.728
381.16	0.727
381.37	0.726
381.57	0.728
381.78	0.728
381.99	0.727
382.20	0.726
382.40	0.730
382.61	0.730
382.82	0.727
383.02	0.721
383.23	0.724
383.44	0.724
383.64	0.724
383.85	0.726
384.06	0.728
384.27	0.726
384.47	0.725
384.68	0.725
384.89	0.731
385.09	0.731
385.30	0.731
385.51	0.730
385.71	0.733
385.92	0.734
386.13	0.733
386.33	0.735
386.54	0.736
386.75	0.735
386.95	0.732
387.16	0.727
387.37	0.729
387.58	0.728
387.78	0.727
387.99	0.725
388.20	0.727
388.40	0.724
388.61	0.721
388.82	0.724
389.02	0.726
389.23	0.726
389.44	0.725
389.64	0.725
389.85	0.737
390.06	0.736
390.26	0.737
390.47	0.736
390.68	0.738
390.88	0.736
391.09	0.732
391.30	0.731
391.50	0.731
391.71	0.731
391.92	0.729
392.12	0.721
392.33	0.721
392.53	0.721
392.74	0.722
392.95	0.720
393.15	0.723
393.36	0.725
393.57	0.723
393.77	0.726
393.98	0.727
394.19	0.727
394.39	0.727
394.60	0.729
394.81	0.730
395.01	0.728
395.22	0.727
395.43	0.727
395.63	0.732
395.84	0.733
396.04	0.730
396.25	0.733
396.46	0.735
396.66	0.733
396.87	0.731
397.08	0.729
397.28	0.731
397.49	0.732
397.69	0.729
397.90	0.724
398.11	0.724
398.31	0.725
398.52	0.721
398.73	0.723
398.93	0.721
399.14	0.720
399.34	0.719
399.55	0.720
399.76	0.719
399.96	0.721
400.17	0.720
400.37	0.718
400.58	0.725
400.79	0.726
400.99	0.724
401.20	0.729
401.41	0.731
401.61	0.733
401.82	0.739
402.02	0.739
402.23	0.739
402.44	0.739
402.64	0.740
402.85	0.734
403.05	0.734
403.26	0.733
403.47	0.726
403.67	0.726
403.88	0.727
404.08	0.720
404.29	0.718
404.50	0.718
404.70	0.719
404.91	0.718
405.11	0.714
405.32	0.715
405.52	0.714
405.73	0.715
405.94	0.713
406.14	0.714
406.35	0.717
406.55	0.716
406.76	0.714
406.97	0.715
407.17	0.718
407.38	0.718
407.58	0.716
407.79	0.719
407.99	0.721
408.20	0.722
408.41	0.718
408.61	0.716
408.82	0.717
409.02	0.718
409.23	0.716
409.43	0.715
409.64	0.716
409.84	0.716
410.05	0.713
410.26	0.710
410.46	0.710
410.67	0.710
410.87	0.712
411.08	0.714
411.28	0.714
411.49	0.716
411.69	0.713
411.90	0.715
412.11	0.716
412.31	0.717
412.52	0.716
412.72	0.718
412.93	0.718
413.13	0.717
413.34	0.713
413.54	0.715
413.75	0.717
413.95	0.717
414.16	0.714
414.37	0.717
414.57	0.718
414.78	0.720
414.98	0.718
415.19	0.719
415.39	0.717
415.60	0.719
415.80	0.717
416.01	0.715
416.21	0.716
416.42	0.716
416.62	0.711
416.83	0.711
417.03	0.710
417.24	0.710
417.44	0.708
417.65	0.707
417.86	0.707
418.06	0.705
418.27	0.703
418.47	0.704
418.68	0.705
418.88	0.705
419.09	0.704
419.29	0.704
419.50	0.704
419.70	0.704
419.91	0.703
420.11	0.701
420.32	0.704
420.52	0.704
420.73	0.703
420.93	0.705
421.14	0.706
421.34	0.704
421.55	0.701
421.75	0.701
421.96	0.702
422.16	0.702
422.37	0.702
422.57	0.699
422.78	0.700
422.98	0.697
423.19	0.694
423.39	0.693
423.60	0.696
423.80	0.697
424.01	0.696
424.21	0.698
424.42	0.699
424.62	0.699
424.83	0.698
425.03	0.698
425.23	0.700
425.44	0.700
425.64	0.701
425.85	0.700
426.05	0.701
426.26	0.701
426.46	0.697
426.67	0.697
426.87	0.701
427.08	0.701
427.28	0.699
427.49	0.700
427.69	0.700
427.90	0.699
428.10	0.696
428.31	0.696
428.51	0.698
428.71	0.697
428.92	0.698
429.12	0.695
429.33	0.695
429.53	0.699
429.74	0.704
429.94	0.705
430.15	0.703
430.35	0.703
430.56	0.700
430.76	0.698
430.96	0.699
431.17	0.696
431.37	0.693
431.58	0.692
431.78	0.688
431.99	0.681
432.19	0.683
432.40	0.685
432.60	0.686
432.80	0.689
433.01	0.688
433.21	0.689
433.42	0.690
433.62	0.690
433.83	0.690
434.03	0.693
434.23	0.696
434.44	0.695
434.64	0.692
434.85	0.697
435.05	0.697
435.26	0.697
435.46	0.696
435.66	0.695
435.87	0.696
436.07	0.696
436.28	0.692
436.48	0.689
436.69	0.688
436.89	0.687
437.09	0.681
437.30	0.680
437.50	0.680
437.71	0.692
437.91	0.690
438.11	0.691
438.32	0.695
438.52	0.695
438.73	0.694
438.93	0.693
439.13	0.693
439.34	0.697
439.54	0.694
439.75	0.694
439.95	0.684
440.15	0.689
440.36	0.688
440.56	0.686
440.77	0.686
440.97	0.685
441.17	0.684
441.38	0.685
441.58	0.682
441.79	0.682
441.99	0.680
442.19	0.679
442.40	0.676
442.60	0.675
442.81	0.673
443.01	0.673
443.21	0.673
443.42	0.673
443.62	0.671
443.82	0.671
444.03	0.672
444.23	0.673
444.44	0.673
444.64	0.672
444.84	0.674
445.05	0.674
445.25	0.672
445.45	0.672
445.66	0.674
445.86	0.674
446.06	0.675
446.27	0.674
446.47	0.677
446.68	0.675
446.88	0.674
447.08	0.673
447.29	0.674
447.49	0.674
447.69	0.674
447.90	0.673
448.10	0.676
448.30	0.674
448.51	0.675
448.71	0.672
448.91	0.674
449.12	0.673
449.32	0.675
449.52	0.674
449.73	0.677
449.93	0.676
450.14	0.677
450.34	0.676
450.54	0.678
450.75	0.675
450.95	0.675
451.15	0.674
451.36	0.677
451.56	0.673
451.76	0.672
451.97	0.669
452.17	0.670
452.37	0.669
452.58	0.666
452.78	0.665
452.98	0.666
453.19	0.666
453.39	0.667
453.59	0.665
453.79	0.666
454.00	0.667
454.20	0.666
454.40	0.666
454.61	0.669
454.81	0.669
455.01	0.668
455.22	0.669
455.42	0.670
455.62	0.668
455.83	0.669
456.03	0.671
456.23	0.672
456.44	0.673
456.64	0.672
456.84	0.671
457.04	0.671
457.25	0.670
457.45	0.667
457.65	0.666
457.86	0.667
458.06	0.665
458.26	0.661
458.47	0.661
458.67	0.661
458.87	0.661
459.07	0.659
459.28	0.661
459.48	0.663
459.68	0.663
459.89	0.662
460.09	0.661
460.29	0.662
460.49	0.663
460.70	0.662
460.90	0.662
461.10	0.662
461.31	0.662
461.51	0.659
461.71	0.661
461.91	0.662
462.12	0.663
462.32	0.662
462.52	0.662
462.72	0.665
462.93	0.666
463.13	0.664
463.33	0.666
463.53	0.667
463.74	0.667
463.94	0.662
464.14	0.663
464.35	0.664
464.55	0.664
464.75	0.662
464.95	0.660
465.16	0.662
465.36	0.661
465.56	0.659
465.76	0.659
465.97	0.660
466.17	0.660
466.37	0.657
466.57	0.659
466.78	0.659
466.98	0.658
467.18	0.657
467.38	0.655
467.59	0.657
467.79	0.658
467.99	0.656
468.19	0.657
468.39	0.660
468.60	0.660
468.80	0.658
469.00	0.660
469.20	0.660
469.41	0.660
469.61	0.660
469.81	0.660
470.01	0.660
470.22	0.660
470.42	0.658
470.62	0.656
470.82	0.658
471.02	0.657
471.23	0.655
471.43	0.655
471.63	0.658
471.83	0.657
472.04	0.656
472.24	0.655
472.44	0.660
472.64	0.660
472.84	0.659
473.05	0.658
473.25	0.661
473.45	0.660
473.65	0.659
473.85	0.659
474.06	0.660
474.26	0.660
474.46	0.661
474.66	0.657
474.86	0.658
475.07	0.659
475.27	0.657
475.47	0.655
475.67	0.655
475.87	0.657
476.08	0.654
476.28	0.655
476.48	0.656
476.68	0.655
476.88	0.653
477.09	0.654
477.29	0.655
477.49	0.655
477.69	0.654
477.89	0.655
478.09	0.654
478.30	0.656
478.50	0.653
478.70	0.653
478.90	0.653
479.10	0.656
479.31	0.657
479.51	0.655
479.71	0.656
479.91	0.656
480.11	0.654
480.31	0.655
480.52	0.654
480.72	0.653
480.92	0.653
481.12	0.652
481.32	0.649
481.52	0.646
481.72	0.647
481.93	0.651
482.13	0.651
482.33	0.651
482.53	0.649
482.73	0.650
482.93	0.652
483.14	0.651
483.34	0.650
483.54	0.651
483.74	0.651
483.94	0.650
484.14	0.645
484.34	0.646
484.55	0.646
484.75	0.645
484.95	0.643
485.15	0.643
485.35	0.643
485.55	0.642
485.75	0.641
485.96	0.641
486.16	0.642
486.36	0.642
486.56	0.640
486.76	0.640
486.96	0.640
487.16	0.640
487.36	0.637
487.57	0.637
487.77	0.637
487.97	0.637
488.17	0.635
488.37	0.634
488.57	0.635
488.77	0.635
488.97	0.633
489.18	0.633
489.38	0.636
489.58	0.637
489.78	0.636
489.98	0.636
490.18	0.636
490.38	0.637
490.58	0.635
490.78	0.636
490.98	0.638
491.19	0.638
491.39	0.637
491.59	0.636
491.79	0.639
491.99	0.639
492.19	0.639
492.39	0.642
492.59	0.642
492.79	0.644
492.99	0.644
493.20	0.644
493.40	0.645
493.60	0.646
493.80	0.645
494.00	0.643
494.20	0.643
494.40	0.643
494.60	0.641
494.80	0.645
495.00	0.644
495.20	0.642
495.40	0.640
495.61	0.642
495.81	0.641
496.01	0.645
496.21	0.646
496.41	0.645
496.61	0.645
496.81	0.644
497.01	0.640
497.21	0.639
497.41	0.639
497.61	0.639
497.81	0.637
498.01	0.638
498.21	0.635
498.41	0.633
498.61	0.633
498.82	0.634
499.02	0.636
499.22	0.636
499.42	0.636
499.62	0.637
499.82	0.638
500.02	0.639
500.22	0.637
500.42	0.640
500.62	0.640
500.82	0.640
501.02	0.638
501.22	0.639
501.42	0.638
501.62	0.640
501.82	0.640
502.02	0.640
502.22	0.639
502.42	0.641
502.62	0.638
502.82	0.638
503.02	0.639
503.22	0.639
503.42	0.637
503.63	0.636
503.83	0.634
504.03	0.633
504.23	0.633
504.43	0.633
504.63	0.634
504.83	0.634
505.03	0.633
505.23	0.635
505.43	0.637
505.63	0.637
505.83	0.637
506.03	0.639
506.23	0.641
506.43	0.640
506.63	0.639
506.83	0.638
507.03	0.640
507.23	0.641
507.43	0.638
507.63	0.639
507.83	0.639
508.03	0.639
508.23	0.638
508.43	0.637
508.63	0.639
508.83	0.639
509.03	0.640
509.23	0.639
509.43	0.639
509.63	0.639
509.83	0.638
510.03	0.641
510.23	0.642
510.43	0.643
510.63	0.643
510.83	0.643
511.03	0.644
511.23	0.642
511.43	0.642
511.63	0.643
511.83	0.645
512.03	0.645
512.22	0.642
512.42	0.641
512.62	0.642
512.82	0.642
513.02	0.641
513.22	0.641
513.42	0.643
513.62	0.646
513.82	0.644
514.02	0.644
514.22	0.645
514.42	0.646
514.62	0.646
514.82	0.646
515.02	0.648
515.22	0.651
515.42	0.649
515.62	0.651
515.82	0.650
516.02	0.651
516.22	0.651
516.42	0.652
516.62	0.654
516.82	0.655
517.01	0.654
517.21	0.654
517.41	0.657
517.61	0.658
517.81	0.654
518.01	0.654
518.21	0.653
518.41	0.652
518.61	0.651
518.81	0.651
519.01	0.651
519.21	0.652
519.41	0.651
519.61	0.645
519.81	0.647
520.00	0.648
520.20	0.649
520.40	0.652
520.60	0.652
520.80	0.651
521.00	0.652
521.20	0.652
521.40	0.656
521.60	0.657
521.80	0.656
522.00	0.656
522.20	0.658
522.39	0.658
522.59	0.654
522.79	0.656
522.99	0.658
523.19	0.656
523.39	0.654
523.59	0.653
523.79	0.655
523.99	0.657
524.19	0.656
524.38	0.655
524.58	0.656
524.78	0.657
524.98	0.655
525.18	0.657
525.38	0.659
525.58	0.660
525.78	0.658
525.98	0.656
526.18	0.656
526.37	0.655
526.57	0.658
526.77	0.658
526.97	0.658
527.17	0.658
527.37	0.654
527.57	0.656
527.77	0.657
527.96	0.657
528.16	0.656
528.36	0.658
528.56	0.659
528.76	0.657
528.96	0.656
529.16	0.657
529.36	0.659
529.55	0.660
529.75	0.656
529.95	0.657
530.15	0.658
530.35	0.661
530.55	0.659
530.75	0.659
530.94	0.660
531.14	0.661
531.34	0.660
531.54	0.658
531.74	0.661
531.94	0.664
532.13	0.662
532.33	0.664
532.53	0.662
532.73	0.662
532.93	0.660
533.13	0.662
533.33	0.662
533.52	0.662
533.72	0.665
533.92	0.663
534.12	0.662
534.32	0.662
534.52	0.660
534.71	0.662
534.91	0.665
535.11	0.666
535.31	0.664
535.51	0.665
535.71	0.667
535.90	0.664
536.10	0.665
536.30	0.667
536.50	0.668
536.70	0.668
536.89	0.666
537.09	0.665
537.29	0.666
537.49	0.667
537.69	0.665
537.89	0.665
538.08	0.665
538.28	0.664
538.48	0.664
538.68	0.665
538.88	0.667
539.07	0.667
539.27	0.666
539.47	0.665
539.67	0.665
539.87	0.666
540.06	0.664
540.26	0.665
540.46	0.666
540.66	0.664
540.86	0.661
541.05	0.662
541.25	0.663
541.45	0.663
541.65	0.662
541.84	0.663
542.04	0.664
542.24	0.666
542.44	0.665
542.64	0.666
542.83	0.669
543.03	0.669
543.23	0.666
543.43	0.668
543.62	0.669
543.82	0.669
544.02	0.668
544.22	0.668
544.42	0.671
544.61	0.671
544.81	0.669
545.01	0.667
545.21	0.669
545.40	0.670
545.60	0.668
545.80	0.671
546.00	0.671
546.19	0.671
546.39	0.670
546.59	0.667
546.79	0.669
546.98	0.669
547.18	0.669
547.38	0.670
547.58	0.672
547.77	0.673
547.97	0.669
548.17	0.671
548.37	0.671
548.56	0.671
548.76	0.671
548.96	0.673
549.16	0.675
549.35	0.675
549.55	0.672
549.75	0.673
549.95	0.676
550.14	0.677
550.34	0.675
550.54	0.679
550.73	0.683
550.93	0.684
551.13	0.681
551.33	0.680
551.52	0.681
551.72	0.681
551.92	0.679
552.12	0.680
552.31	0.680
552.51	0.680
552.71	0.676
552.90	0.676
553.10	0.676
553.30	0.676
553.50	0.676
553.69	0.677
553.89	0.678
554.09	0.678
554.28	0.674
554.48	0.676
554.68	0.678
554.87	0.677
555.07	0.674
555.27	0.675
555.47	0.676
555.66	0.676
555.86	0.675
556.06	0.677
556.25	0.678
556.45	0.685
556.65	0.683
556.84	0.686
557.04	0.690
557.24	0.691
557.43	0.691
557.63	0.693
557.83	0.695
558.02	0.696
558.22	0.701
558.42	0.701
558.61	0.694
558.81	0.695
559.01	0.691
559.21	0.691
559.40	0.692
559.60	0.693
559.80	0.689
559.99	0.690
560.19	0.692
560.39	0.686
560.58	0.684
560.78	0.683
560.97	0.687
561.17	0.685
561.37	0.683
561.56	0.683
561.76	0.684
561.96	0.683
562.15	0.681
562.35	0.683
562.55	0.684
562.74	0.684
562.94	0.683
563.14	0.681
563.33	0.681
563.53	0.681
563.73	0.679
563.92	0.680
564.12	0.683
564.31	0.685
564.51	0.683
564.71	0.684
564.90	0.687
565.10	0.688
565.30	0.691
565.49	0.692
565.69	0.695
565.89	0.696
566.08	0.693
566.28	0.695
566.47	0.697
566.67	0.695
566.87	0.693
567.06	0.695
567.26	0.701
567.46	0.698
567.65	0.697
567.85	0.698
568.04	0.701
568.24	0.700
568.44	0.697
568.63	0.695
568.83	0.697
569.02	0.695
569.22	0.691
569.42	0.687
569.61	0.688
569.81	0.686
570.00	0.685
570.20	0.686
570.40	0.687
570.59	0.687
570.79	0.685
570.98	0.683
571.18	0.684
571.38	0.684
571.57	0.681
571.77	0.680
571.96	0.684
572.16	0.681
572.35	0.676
572.55	0.677
572.75	0.675
572.94	0.675
573.14	0.673
573.33	0.673
573.53	0.674
573.73	0.673
573.92	0.671
574.12	0.669
574.31	0.671
574.51	0.672
574.70	0.670
574.90	0.671
575.09	0.673
575.29	0.674
575.49	0.671
575.68	0.672
575.88	0.673
576.07	0.674
576.27	0.672
576.46	0.671
576.66	0.670
576.86	0.669
577.05	0.667
577.25	0.665
577.44	0.667
577.64	0.667
577.83	0.665
578.03	0.666
578.22	0.666
578.42	0.665
578.61	0.663
578.81	0.664
579.00	0.665
579.20	0.664
579.40	0.663
579.59	0.661
579.79	0.662
579.98	0.661
580.18	0.660
580.37	0.661
580.57	0.663
580.76	0.667
580.96	0.665
581.15	0.666
581.35	0.668
581.54	0.668
581.74	0.667
581.93	0.669
582.13	0.669
582.32	0.666
582.52	0.665
582.71	0.664
582.91	0.660
583.10	0.660
583.30	0.658
583.49	0.658
583.69	0.661
583.88	0.662
584.08	0.661
584.27	0.664
584.47	0.667
584.66	0.668
584.86	0.668
585.05	0.670
585.25	0.672
585.44	0.672
585.64	0.671
585.83	0.668
586.03	0.668
586.22	0.666
586.42	0.662
586.61	0.663
586.81	0.665
587.00	0.664
587.20	0.661
587.39	0.661
587.59	0.663
587.78	0.664
587.98	0.665
588.17	0.666
588.37	0.668
588.56	0.670
588.76	0.666
588.95	0.666
589.15	0.671
589.34	0.673
589.54	0.672
589.73	0.673
589.92	0.676
590.12	0.676
590.31	0.675
590.51	0.680
590.70	0.682
590.90	0.683
591.09	0.681
591.29	0.679
591.48	0.679
591.68	0.680
591.87	0.678
592.06	0.677
592.26	0.680
592.45	0.678
592.65	0.672
592.84	0.671
593.04	0.674
593.23	0.676
593.43	0.674
593.62	0.674
593.81	0.674
594.01	0.673
594.20	0.671
594.40	0.670
594.59	0.672
594.79	0.673
594.98	0.671
595.17	0.670
595.37	0.670
595.56	0.672
595.76	0.672
595.95	0.674
596.14	0.677
596.34	0.678
596.53	0.677
596.73	0.678
596.92	0.679
597.12	0.682
597.31	0.682
597.50	0.682
597.70	0.684
597.89	0.684
598.09	0.680
598.28	0.682
598.47	0.684
598.67	0.683
598.86	0.679
599.06	0.681
599.25	0.680
599.44	0.679
599.64	0.676
599.83	0.673
600.03	0.675
600.22	0.676
600.41	0.676
600.61	0.673
600.80	0.675
601.00	0.676
601.19	0.672
601.38	0.671
601.58	0.673
601.77	0.675
601.96	0.677
602.16	0.677
602.35	0.686
602.55	0.684
602.74	0.685
602.93	0.686
603.13	0.691
603.32	0.693
603.51	0.693
603.71	0.696
603.90	0.699
604.09	0.699
604.29	0.697
604.48	0.691
604.68	0.692
604.87	0.691
605.06	0.688
605.26	0.685
605.45	0.685
605.64	0.685
605.84	0.679
606.03	0.678
606.22	0.676
606.42	0.675
606.61	0.672
606.80	0.672
607.00	0.673
607.19	0.673
607.38	0.672
607.58	0.673
607.77	0.675
607.96	0.675
608.16	0.674
608.35	0.678
608.54	0.681
608.74	0.683
608.93	0.688
609.12	0.690
609.32	0.692
609.51	0.695
609.70	0.694
609.90	0.696
610.09	0.700
610.28	0.705
610.48	0.699
610.67	0.701
610.86	0.702
611.06	0.697
611.25	0.696
611.44	0.696
611.64	0.696
611.83	0.699
612.02	0.696
612.21	0.695
612.41	0.693
612.60	0.692
612.79	0.689
612.99	0.689
613.18	0.691
613.37	0.688
613.57	0.686
613.76	0.687
613.95	0.684
614.14	0.683
614.34	0.680
614.53	0.681
614.72	0.683
614.92	0.683
615.11	0.680
615.30	0.677
615.49	0.678
615.69	0.681
615.88	0.677
616.07	0.678
616.26	0.680
616.46	0.682
616.65	0.679
616.84	0.678
617.04	0.679
617.23	0.682
617.42	0.683
617.61	0.686
617.81	0.686
618.00	0.689
618.19	0.688
618.38	0.692
618.58	0.695
618.77	0.697
618.96	0.696
619.15	0.698
619.35	0.699
619.54	0.700
619.73	0.697
619.92	0.699
620.12	0.703
620.31	0.703
620.50	0.699
620.69	0.699
620.89	0.702
621.08	0.703
621.27	0.704
621.46	0.703
621.66	0.706
621.85	0.706
622.04	0.703
622.23	0.704
622.43	0.704
622.62	0.704
622.81	0.703
623.00	0.702
623.19	0.705
623.39	0.703
623.58	0.700
623.77	0.699
623.96	0.701
624.16	0.701
624.35	0.696
624.54	0.698
624.73	0.701
624.92	0.698
625.12	0.695
625.31	0.695
625.50	0.698
625.69	0.699
625.88	0.695
626.08	0.695
626.27	0.696
626.46	0.696
626.65	0.694
626.84	0.694
627.04	0.700
627.23	0.700
627.42	0.697
627.61	0.699
627.80	0.701
628.00	0.702
628.19	0.700
628.38	0.702
628.57	0.704
628.76	0.704
628.96	0.701
629.15	0.701
629.34	0.703
629.53	0.703
629.72	0.698
629.91	0.699
630.11	0.702
630.30	0.703
630.49	0.706
630.68	0.706
630.87	0.709
631.06	0.711
631.26	0.706
631.45	0.708
631.64	0.717
631.83	0.719
632.02	0.716
632.21	0.715
632.41	0.723
632.60	0.718
632.79	0.717
632.98	0.718
633.17	0.719
633.36	0.722
633.55	0.719
633.75	0.714
633.94	0.715
634.13	0.716
634.32	0.714
634.51	0.707
634.70	0.708
634.89	0.708
635.09	0.704
635.28	0.705
635.47	0.705
635.66	0.707
635.85	0.704
636.04	0.706
636.23	0.709
636.43	0.711
636.62	0.710
636.81	0.709
637.00	0.711
637.19	0.714
637.38	0.711
637.57	0.711
637.76	0.711
637.95	0.712
638.15	0.708
638.34	0.705
638.53	0.708
638.72	0.710
638.91	0.708
639.10	0.705
639.29	0.705
639.48	0.706
639.67	0.706
639.87	0.705
640.06	0.711
640.25	0.711
640.44	0.712
640.63	0.712
640.82	0.715
641.01	0.715
641.20	0.717
641.39	0.719
641.58	0.721
641.78	0.720
641.97	0.717
642.16	0.730
642.35	0.730
642.54	0.729
642.73	0.724
642.92	0.723
643.11	0.725
643.30	0.724
643.49	0.719
643.68	0.721
643.87	0.721
644.06	0.721
644.25	0.701
644.45	0.704
644.64	0.705
644.83	0.706
645.02	0.703
645.21	0.702
645.40	0.704
645.59	0.703
645.78	0.698
645.97	0.701
646.16	0.702
646.35	0.701
646.54	0.700
646.73	0.702
646.92	0.702
647.11	0.701
647.30	0.698
647.49	0.699
647.68	0.699
647.88	0.698
648.07	0.691
648.26	0.694
648.45	0.696
648.64	0.693
648.83	0.690
649.02	0.694
649.21	0.703
649.40	0.702
649.59	0.698
649.78	0.699
649.97	0.713
650.16	0.712
650.35	0.706
650.54	0.709
650.73	0.717
650.92	0.714
651.11	0.706
651.30	0.704
651.49	0.707
651.68	0.708
651.87	0.705
652.06	0.695
652.25	0.698
652.44	0.702
652.63	0.701
652.82	0.702
653.01	0.703
653.20	0.702
653.39	0.691
653.58	0.688
653.77	0.687
653.96	0.683
654.15	0.676
654.34	0.674
654.53	0.669
654.72	0.662
654.91	0.653
655.10	0.648
655.29	0.646
655.48	0.644
655.67	0.639
655.86	0.636
656.05	0.635
656.24	0.634
656.43	0.629
656.62	0.628
656.81	0.627
657.00	0.623
657.19	0.619
657.38	0.618
657.57	0.616
657.76	0.618
657.95	0.615
658.14	0.618
658.33	0.620
658.51	0.624
658.70	0.624
658.89	0.625
659.08	0.636
659.27	0.644
659.46	0.646
659.65	0.653
659.84	0.655
660.03	0.659
660.22	0.660
660.41	0.665
660.60	0.665
660.79	0.667
660.98	0.673
661.17	0.671
661.36	0.671
661.55	0.671
661.74	0.669
661.92	0.673
662.11	0.675
662.30	0.673
662.49	0.667
662.68	0.666
662.87	0.668
663.06	0.662
663.25	0.664
663.44	0.664
663.63	0.665
663.82	0.664
664.01	0.659
664.20	0.658
664.38	0.660
664.57	0.660
664.76	0.660
664.95	0.661
665.14	0.666
665.33	0.660
665.52	0.668
665.71	0.672
665.90	0.671
666.09	0.672
666.28	0.669
666.46	0.668
666.65	0.668
666.84	0.666
667.03	0.661
667.22	0.658
667.41	0.660
667.60	0.651
667.79	0.645
667.98	0.646
668.16	0.646
668.35	0.647
668.54	0.643
668.73	0.644
668.92	0.645
669.11	0.644
669.30	0.640
669.49	0.637
669.67	0.639
669.86	0.641
670.05	0.639
670.24	0.637
670.43	0.634
670.62	0.633
670.81	0.629
671.00	0.629
671.18	0.629
671.37	0.628
671.56	0.626
671.75	0.625
671.94	0.621
672.13	0.619
672.32	0.614
672.50	0.614
672.69	0.614
672.88	0.614
673.07	0.610
673.26	0.612
673.45	0.613
673.63	0.612
673.82	0.609
674.01	0.610
674.20	0.610
674.39	0.609
674.58	0.609
674.76	0.609
674.95	0.607
675.14	0.607
675.33	0.604
675.52	0.602
675.71	0.602
675.89	0.602
676.08	0.599
676.27	0.598
676.46	0.599
676.65	0.598
676.84	0.599
677.02	0.600
677.21	0.602
677.40	0.601
677.59	0.598
677.78	0.599
677.96	0.601
678.15	0.600
678.34	0.598
678.53	0.599
678.72	0.598
678.90	0.595
679.09	0.591
679.28	0.588
679.47	0.588
679.66	0.587
679.84	0.584
680.03	0.582
680.22	0.581
680.41	0.582
680.60	0.579
680.78	0.579
680.97	0.581
681.16	0.581
681.35	0.579
681.53	0.578
681.72	0.580
681.91	0.582
682.10	0.580
682.29	0.583
682.47	0.580
682.66	0.578
682.85	0.576
683.04	0.574
683.22	0.575
683.41	0.576
683.60	0.575
683.79	0.575
683.97	0.574
684.16	0.573
684.35	0.569
684.54	0.571
684.72	0.572
684.91	0.573
685.10	0.572
685.29	0.572
685.47	0.570
685.66	0.569
685.85	0.566
686.04	0.564
686.22	0.566
686.41	0.569
686.60	0.566
686.79	0.568
686.97	0.569
687.16	0.570
687.35	0.568
687.54	0.570
687.72	0.575
687.91	0.575
688.10	0.577
688.29	0.577
688.47	0.575
688.66	0.575
688.85	0.571
689.03	0.569
689.22	0.573
689.41	0.574
689.60	0.570
689.78	0.567
689.97	0.567
690.16	0.565
690.34	0.562
690.53	0.562
690.72	0.562
690.91	0.559
691.09	0.557
691.28	0.552
691.47	0.550
691.65	0.549
691.84	0.546
692.03	0.545
692.21	0.543
692.40	0.542
692.59	0.539
692.77	0.538
692.96	0.539
693.15	0.539
693.34	0.537
693.52	0.537
693.71	0.537
693.90	0.539
694.08	0.540
694.27	0.541
694.46	0.551
694.64	0.552
694.83	0.551
695.02	0.550
695.20	0.550
695.39	0.550
695.58	0.551
695.76	0.551
695.95	0.549
696.14	0.548
696.32	0.546
696.51	0.537
696.70	0.537
696.88	0.538
697.07	0.536
697.26	0.537
697.44	0.538
697.63	0.537
697.81	0.535
698.00	0.535
698.19	0.535
698.37	0.534
698.56	0.534
698.75	0.534
698.93	0.533
699.12	0.533
699.31	0.532
699.49	0.532
699.68	0.532
699.87	0.534
700.05	0.534
700.24	0.534
700.42	0.535
700.61	0.535
700.80	0.533
700.98	0.534
701.17	0.536
701.36	0.535
701.54	0.535
701.73	0.537
701.91	0.534
702.10	0.533
702.29	0.532
702.47	0.531
702.66	0.532
702.84	0.533
703.03	0.531
703.22	0.532
703.40	0.531
703.59	0.531
703.77	0.531
703.96	0.531
704.15	0.532
704.33	0.531
704.52	0.530
704.70	0.530
704.89	0.529
705.08	0.528
705.26	0.524
705.45	0.524
705.63	0.523
705.82	0.521
706.00	0.519
706.19	0.519
706.38	0.519
706.56	0.519
706.75	0.517
706.93	0.516
707.12	0.518
707.30	0.518
707.49	0.515
707.68	0.514
707.86	0.513
708.05	0.513
708.23	0.510
708.42	0.510
708.60	0.512
708.79	0.511
708.98	0.510
709.16	0.509
709.35	0.511
709.53	0.515
709.72	0.514
709.90	0.516
710.09	0.517
710.27	0.520
710.46	0.523
710.64	0.522
710.83	0.524
711.02	0.526
711.20	0.524
711.39	0.523
711.57	0.520
711.76	0.521
711.94	0.519
712.13	0.521
712.31	0.520
712.50	0.515
712.68	0.513
712.87	0.514
713.05	0.514
713.24	0.514
713.42	0.514
713.61	0.515
713.79	0.516
713.98	0.516
714.16	0.517
714.35	0.518
714.54	0.519
714.72	0.519
714.91	0.517
715.09	0.523
715.28	0.526
715.46	0.526
715.65	0.524
715.83	0.523
716.02	0.525
716.20	0.522
716.39	0.521
716.57	0.523
716.76	0.525
716.94	0.526
717.12	0.518
717.31	0.520
717.49	0.522
717.68	0.524
717.86	0.524
718.05	0.526
718.23	0.528
718.42	0.530
718.60	0.530
718.79	0.538
718.97	0.539
719.16	0.539
719.34	0.537
719.53	0.536
719.71	0.536
719.90	0.537
720.08	0.534
720.27	0.534
720.45	0.534
720.63	0.534
720.82	0.527
721.00	0.530
721.19	0.534
721.37	0.533
721.56	0.534
721.74	0.536
721.93	0.545
722.11	0.550
722.30	0.550
722.48	0.555
722.66	0.556
722.85	0.556
723.03	0.557
723.22	0.555
723.40	0.557
723.59	0.557
723.77	0.562
723.95	0.555
724.14	0.557
724.32	0.559
724.51	0.558
724.69	0.559
724.88	0.558
725.06	0.556
725.24	0.558
725.43	0.561
725.61	0.564
725.80	0.558
725.98	0.556
726.16	0.554
726.35	0.558
726.53	0.557
726.72	0.557
726.90	0.567
727.09	0.568
727.27	0.572
727.45	0.569
727.64	0.577
727.82	0.585
728.01	0.589
728.19	0.586
728.37	0.592
728.56	0.597
728.74	0.602
728.92	0.590
729.11	0.592
729.29	0.590
729.48	0.592
729.66	0.581
729.84	0.582
730.03	0.584
730.21	0.587
730.40	0.577
730.58	0.578
730.76	0.577
730.95	0.580
731.13	0.580
731.31	0.593
731.50	0.602
731.68	0.606
731.86	0.602
732.05	0.616
732.23	0.620
732.42	0.623
732.60	0.625
732.78	0.630
732.97	0.648
733.15	0.655
733.33	0.644
733.52	0.651
733.70	0.660
733.88	0.668
734.07	0.655
734.25	0.680
734.43	0.687
734.62	0.689
734.80	0.685
734.98	0.675
735.17	0.680
735.35	0.686
735.53	0.676
735.72	0.679
735.90	0.698
736.08	0.718
736.27	0.695
736.45	0.703
736.63	0.716
736.82	0.725
737.00	0.724
737.18	0.734
737.37	0.763
737.55	0.787
737.73	0.785
737.92	0.787
738.10	0.781
738.28	0.801
738.46	0.792
738.65	0.803
738.83	0.821
739.01	0.873
739.20	0.866
739.38	0.848
739.56	0.835
739.75	0.837
739.93	0.810
740.11	0.835
740.29	0.833
740.48	0.839
740.66	0.818
740.84	0.814
741.03	0.776
741.21	0.787
741.39	0.773
741.57	0.786
741.76	0.803
741.94	0.808
742.12	0.777
742.31	0.783
742.49	0.800
742.67	0.821
742.85	0.836
743.04	0.844
743.22	0.849
743.40	0.900
743.58	0.884
743.77	0.895
743.95	0.923
744.13	0.969
744.31	0.951
744.50	0.949
744.68	0.944
744.86	0.921
745.04	0.934
745.23	0.996
745.41	0.974
745.59	0.977
745.77	0.944
745.96	0.933
746.14	0.932
746.32	0.930
746.50	0.921
746.69	0.910
746.87	0.911
747.05	0.898
747.23	0.835
747.42	0.821
747.60	0.843
747.78	0.850
747.96	0.875
748.14	0.843
748.33	0.868
748.51	0.860
748.69	0.851
748.87	0.877
749.06	0.871
749.24	0.866
749.42	0.854
749.60	0.837
749.78	0.840
749.97	0.804
750.15	0.800
750.33	0.799
750.51	0.824
750.69	0.828
750.88	0.839
751.06	0.847
751.24	0.875
751.42	0.868
751.60	0.860
751.79	0.930
751.97	0.966
752.15	0.964
752.33	0.939
752.51	0.992
752.69	1.009
752.88	0.976
753.06	1.026
753.24	0.998
753.42	1.028
753.60	1.187
753.78	1.058
753.97	1.080
754.15	1.086
754.33	1.109
754.51	1.004
754.69	0.991
754.87	1.016
755.06	0.946
755.24	0.950
755.42	0.954
755.60	0.859
755.78	0.868
755.96	0.819
756.15	0.823
756.33	0.825
756.51	0.843
756.69	0.828
756.87	0.797
757.05	0.814
757.23	0.799
757.42	0.773
757.60	0.773
757.78	0.760
757.96	0.758
758.14	0.744
758.32	0.732
758.50	0.740
758.69	0.742
758.87	0.735
759.05	0.737
759.23	0.744
759.41	0.743
759.59	0.737
759.77	0.755
759.95	0.779
760.13	0.822
760.32	0.821
760.50	0.817
760.68	0.836
760.86	0.836
761.04	0.814
761.22	0.819
761.40	0.860
761.58	0.859
761.76	0.836
761.95	0.821
762.13	0.781
762.31	0.783
762.49	0.759
762.67	0.774
762.85	0.787
763.03	0.784
763.21	0.768
763.39	0.749
763.57	0.752
763.75	0.748
763.94	0.735
764.12	0.736
764.30	0.756
764.48	0.759
764.66	0.728
764.84	0.723
765.02	0.755
765.20	0.763
765.38	0.747
765.56	0.752
765.74	0.788
765.92	0.789
766.10	0.797
766.28	0.790
766.46	0.813
766.65	0.812
766.83	0.803
767.01	0.788
767.19	0.792
767.37	0.792
767.55	0.780
767.73	0.759
767.91	0.760
768.09	0.749
768.27	0.740
768.45	0.734
768.63	0.739
768.81	0.740
768.99	0.716
769.17	0.738
769.35	0.749
769.53	0.750
769.71	0.734
769.89	0.741
770.07	0.743
770.25	0.726
770.43	0.704
770.61	0.723
770.79	0.726
770.97	0.737
771.15	0.708
771.33	0.712
771.51	0.713
771.69	0.721
771.87	0.729
772.05	0.736
772.24	0.741
772.42	0.751
772.60	0.733
772.78	0.786
772.96	0.811
773.14	0.810
773.32	0.789
773.49	0.795
773.67	0.793
773.85	0.775
774.03	0.765
774.21	0.796
774.39	0.805
774.57	0.828
774.75	0.766
774.93	0.760
775.11	0.779
775.29	0.788
775.47	0.790
775.65	0.801
775.83	0.818
776.01	0.839
776.19	0.794
776.37	0.793
776.55	0.792
776.73	0.788
776.91	0.783
777.09	0.765
777.27	0.761
777.45	0.749
777.63	0.726
777.81	0.720
777.99	0.706
778.17	0.707
778.35	0.692
778.53	0.680
778.71	0.685
778.89	0.675
779.07	0.668
779.24	0.670
779.42	0.672
779.60	0.692
779.78	0.690
779.96	0.694
780.14	0.699
780.32	0.715
780.50	0.700
780.68	0.700
780.86	0.692
781.04	0.709
781.22	0.716
781.40	0.726
781.58	0.715
781.75	0.709
781.93	0.695
782.11	0.698
782.29	0.685
782.47	0.683
782.65	0.672
782.83	0.696
783.01	0.686
783.19	0.680
783.37	0.667
783.55	0.672
783.72	0.685
783.90	0.695
784.08	0.687
784.26	0.697
784.44	0.716
784.62	0.718
784.80	0.690
784.98	0.697
785.16	0.703
785.33	0.716
785.51	0.704
785.69	0.694
785.87	0.694
786.05	0.705
786.23	0.703
786.41	0.698
786.59	0.705
786.77	0.705
786.94	0.696
787.12	0.697
787.30	0.698
787.48	0.695
787.66	0.685
787.84	0.685
788.02	0.675
788.19	0.672
788.37	0.661
788.55	0.662
788.73	0.661
788.91	0.653
789.09	0.638
789.27	0.627
789.44	0.636
789.62	0.640
789.80	0.649
789.98	0.670
790.16	0.657
790.34	0.656
790.51	0.644
790.69	0.664
790.87	0.670
791.05	0.670
791.23	0.664
791.41	0.664
791.58	0.670
791.76	0.651
791.94	0.624
792.12	0.633
792.30	0.634
792.48	0.633
792.65	0.625
792.83	0.629
793.01	0.636
793.19	0.636
793.37	0.623
793.54	0.620
793.72	0.630
793.90	0.629
794.08	0.620
794.26	0.619
794.43	0.628
794.61	0.613
794.79	0.605
794.97	0.603
795.15	0.607
795.32	0.609
795.50	0.599
795.68	0.592
795.86	0.595
796.04	0.598
796.21	0.592
796.39	0.589
796.57	0.601
796.75	0.606
796.92	0.607
797.10	0.610
797.28	0.613
797.46	0.618
797.64	0.622
797.81	0.629
797.99	0.631
798.17	0.637
798.35	0.632
798.52	0.636
798.70	0.633
798.88	0.643
799.06	0.643
799.23	0.644
799.41	0.648
799.59	0.640
799.77	0.631
799.94	0.638
800.12	0.644
800.30	0.659
800.48	0.659
800.65	0.658
800.83	0.647
801.01	0.640
801.19	0.641
801.36	0.639
801.54	0.643
801.72	0.652
801.90	0.641
802.07	0.636
802.25	0.625
802.43	0.608
802.60	0.605
802.78	0.613
802.96	0.618
803.14	0.614
803.31	0.614
803.49	0.614
803.67	0.609
803.84	0.613
804.02	0.605
804.20	0.608
804.38	0.614
804.55	0.614
804.73	0.602
804.91	0.600
805.08	0.611
805.26	0.607
805.44	0.667
805.61	0.671
805.79	0.668
805.97	0.670
806.15	0.663
806.32	0.657
806.50	0.662
806.68	0.659
806.85	0.652
807.03	0.641
807.21	0.655
807.38	0.595
807.56	0.585
807.74	0.596
807.91	0.601
808.09	0.602
808.27	0.620
808.44	0.646
808.62	0.655
808.80	0.658
808.97	0.655
809.15	0.650
809.33	0.664
809.50	0.672
809.68	0.659
809.86	0.665
810.03	0.695
810.21	0.678
810.39	0.658
810.56	0.663
810.74	0.684
810.91	0.752
811.09	0.742
811.27	0.758
811.44	0.762
811.62	0.764
811.80	0.750
811.97	0.724
812.15	0.721
812.33	0.718
812.50	0.706
812.68	0.695
812.85	0.641
813.03	0.644
813.21	0.618
813.38	0.614
813.56	0.616
813.74	0.625
813.91	0.631
814.09	0.659
814.26	0.651
814.44	0.653
814.62	0.643
814.79	0.647
814.97	0.649
815.14	0.651
815.32	0.651
815.50	0.665
815.67	0.662
815.85	0.653
816.02	0.643
816.20	0.650
816.38	0.662
816.55	0.669
816.73	0.668
816.90	0.678
817.08	0.703
817.26	0.710
817.43	0.693
817.61	0.720
817.78	0.736
817.96	0.721
818.13	0.715
818.31	0.714
818.49	0.723
818.66	0.715
818.84	0.705
819.01	0.685
819.19	0.690
819.36	0.693
819.54	0.669
819.71	0.709
819.89	0.719
820.07	0.730
820.24	0.725
820.42	0.722
820.59	0.740
820.77	0.760
820.94	0.755
821.12	0.769
821.29	0.781
821.47	0.784
821.64	0.728
821.82	0.740
822.00	0.737
822.17	0.737
822.35	0.733
822.52	0.737
822.70	0.724
822.87	0.736
823.05	0.719
823.22	0.727
823.40	0.746
823.57	0.765
823.75	0.752
823.92	0.773
824.10	0.788
824.27	0.825
824.45	0.814
824.62	0.869
824.80	0.880
824.97	0.896
825.15	0.890
825.32	0.903
825.50	0.903
825.67	0.907
825.85	0.890
826.02	0.906
826.20	0.921
826.37	1.031
826.55	0.961
826.72	1.117
826.90	1.166
827.07	1.210
827.25	1.171
827.42	1.296
827.60	1.407
827.77	1.519
827.95	1.503
828.12	1.582
828.30	1.315
828.47	1.413
828.65	1.138
828.82	1.174
829.00	1.202
829.17	1.254
829.34	1.263
829.52	1.280
829.69	-0.000
829.87	-0.000
830.04	-0.000
830.22	-0.000
830.39	-0.000
830.57	-0.000
830.74	-0.000
830.92	-0.000
831.09	-0.000
831.26	-0.000
831.44	-0.000
831.61	-0.000
831.79	-0.000
831.96	-0.000
832.14	-0.000
832.31	-0.000
832.49	-0.000
832.66	-0.000
832.83	-0.000
833.01	-0.000
833.18	-0.000
833.36	-0.000
833.53	-0.000
833.70	-0.000
833.88	-0.000
834.05	-0.000
834.23	-0.000
834.40	-0.000
834.58	-0.000
834.75	-0.000
834.92	-0.000
835.10	-0.000
835.27	-0.000
835.45	-0.000
835.62	-0.000
835.79	-0.000
835.97	-0.000
836.14	-0.000
836.32	-0.000
836.49	-0.000
836.66	-0.000
836.84	-0.000
837.01	-0.000
837.18	-0.000
837.36	-0.000
837.53	-0.000
837.71	-0.000
837.88	-0.000
838.05	-0.000
838.23	-0.000
838.40	-0.000
838.58	-0.000
838.75	-0.000
838.92	-0.000
839.10	-0.000
839.27	-0.000
839.44	-0.000
839.62	-0.000
839.79	-0.000
839.96	-0.000
840.14	-0.000
840.31	-0.000
840.48	-0.000
840.66	-0.000
840.83	-0.000
841.01	-0.000
841.18	-0.000
841.35	-0.000
841.53	-0.000
841.70	-0.000
841.87	-0.000
842.05	-0.000
842.22	-0.000
842.39	-0.000
842.57	-0.000
842.74	-0.000
842.91	-0.000
843.09	-0.000
843.26	-0.000
843.43	-0.000
843.60	-0.000
843.78	-0.000
843.95	-0.000
844.12	-0.000
844.30	-0.000
844.47	-0.000
844.64	-0.000
844.82	-0.000
844.99	-0.000
845.16	-0.000
845.34	-0.000
845.51	-0.000
845.68	-0.000
845.85	-0.000
846.03	-0.000
846.20	-0.000
846.37	-0.000
846.55	-0.000
846.72	-0.000
846.89	-0.000
847.06	-0.000
847.24	-0.000
847.41	-0.000
847.58	-0.000
847.76	-0.000
847.93	-0.000
848.10	-0.000
848.27	-0.000
848.45	-0.000
848.62	-0.000
848.79	-0.000
848.97	-0.000
849.14	-0.000
849.31	-0.000
849.48	-0.000
849.66	-0.000
849.83	-0.000
850.00	-0.000
850.17	-0.000
850.35	-0.000
850.52	-0.000
850.69	-0.000
850.86	-0.000
851.04	-0.000
851.21	-0.000
851.38	-0.000
851.55	-0.000
851.72	-0.000
851.90	-0.000
852.07	-0.000
852.24	-0.000
852.41	-0.000
852.59	-0.000
852.76	-0.000
852.93	-0.000
853.10	-0.000
853.28	-0.000
853.45	-0.000
853.62	-0.000
853.79	-0.000
853.96	-0.000
854.14	-0.000
854.31	-0.000
854.48	-0.000
854.65	-0.000
854.82	-0.000
855.00	-0.000
855.17	-0.000
855.34	-0.000
855.51	-0.000
855.68	-0.000
855.86	-0.000
856.03	-0.000
856.20	-0.000
856.37	-0.000
856.54	-0.000
856.72	-0.000
856.89	-0.000
857.06	-0.000
857.23	-0.000
857.40	-0.000
857.57	-0.000
857.75	-0.000
857.92	-0.000
858.09	-0.000
858.26	-0.000
858.43	-0.000
858.60	-0.000
858.78	-0.000
858.95	-0.000
859.12	-0.000
859.29	-0.000
859.46	-0.000
859.63	-0.000
859.81	-0.000
859.98	-0.000
860.15	-0.000
860.32	-0.000
860.49	-0.000
860.66	-0.000
860.83	-0.000
861.01	-0.000
861.18	-0.000
861.35	-0.000
861.52	-0.000
861.69	-0.000
861.86	-0.000
862.03	-0.000
862.21	-0.000
862.38	-0.000
862.55	-0.000
862.72	-0.000
862.89	-0.000
863.06	-0.000
863.23	-0.000
863.40	-0.000
863.58	-0.000
863.75	-0.000
863.92	-0.000
864.09	-0.000
864.26	-0.000
864.43	-0.000
864.60	-0.000
864.77	-0.000
864.94	-0.000
865.11	-0.000
865.29	-0.000
865.46	-0.000
865.63	-0.000
865.80	-0.000
865.97	-0.000
866.14	-0.000
866.31	-0.000
866.48	-0.000
866.65	-0.000
866.82	-0.000
866.99	-0.000
867.16	-0.000
867.34	-0.000
867.51	-0.000
867.68	-0.000
867.85	-0.000
868.02	-0.000
868.19	-0.000
868.36	-0.000
868.53	-0.000
868.70	-0.000
868.87	-0.000
869.04	-0.000
869.21	-0.000
869.38	-0.000
869.55	-0.000
869.72	-0.000
869.89	-0.000
870.06	-0.000
870.24	-0.000
870.41	-0.000
870.58	-0.000
870.75	-0.000
870.92	-0.000
871.09	-0.000
871.26	-0.000
871.43	-0.000
871.60	-0.000
871.77	-0.000
871.94	-0.000
872.11	-0.000
872.28	-0.000
872.45	-0.000
872.62	-0.000
872.79	-0.000
872.96	-0.000
873.13	-0.000
873.30	-0.000
873.47	-0.000
873.64	-0.000
873.81	-0.000
873.98	-0.000
874.15	-0.000
874.32	-0.000
874.49	-0.000
874.66	-0.000
874.83	-0.000
875.00	-0.000
875.17	-0.000
875.34	-0.000
875.51	-0.000
875.68	-0.000
875.85	-0.000
876.02	-0.000
876.19	-0.000
876.36	-0.000
876.53	-0.000
876.70	-0.000
876.87	-0.000
877.04	-0.000
877.21	-0.000
877.38	-0.000
877.55	-0.000
877.72	-0.000
877.89	-0.000
878.06	-0.000
878.23	-0.000
878.39	-0.000
878.56	-0.000
878.73	-0.000
878.90	-0.000
879.07	-0.000
879.24	-0.000
879.41	-0.000
879.58	-0.000
879.75	-0.000
879.92	-0.000
880.09	-0.000
880.26	-0.000
880.43	-0.000
880.60	-0.000
880.77	-0.000
880.94	-0.000
881.11	-0.000
881.27	-0.000
881.44	-0.000
881.61	-0.000
881.78	-0.000
881.95	-0.000
882.12	-0.000
882.29	-0.000
882.46	-0.000
882.63	-0.000
882.80	-0.000
882.97	-0.000
883.14	-0.000
883.30	-0.000
883.47	-0.000
883.64	-0.000
883.81	-0.000
883.98	-0.000
884.15	-0.000
884.32	-0.000
884.49	-0.000
884.66	-0.000
884.82	-0.000
884.99	-0.000
885.16	-0.000
885.33	-0.000
885.50	-0.000
885.67	-0.000
885.84	-0.000
886.01	-0.000
886.17	-0.000
886.34	-0.000
886.51	-0.000
886.68	-0.000
886.85	-0.000
887.02	-0.000
887.19	-0.000
887.36	-0.000
887.52	-0.000
887.69	-0.000
887.86	-0.000
888.03	-0.000
888.20	-0.000
888.37	-0.000
888.54	-0.000
888.70	-0.000
888.87	-0.000
889.04	-0.000
889.21	-0.000
889.38	-0.000
889.55	-0.000
889.71	-0.000
889.88	-0.000
890.05	-0.000
890.22	-0.000
890.39	-0.000
>>>>>End Processed Spectral Data<<<<<
