SpectraSuite Data File
++++++++++++++++++++++++++++++++++++
Date: Fri Jun 19 13:43:58 CEST 2015
User: introlabs
Dark Spectrum Present: Yes
Reference Spectrum Present: Yes
Number of Sampled Component Spectra: 1
Spectrometers: USB4H08886
Integration Time (usec): 745692 (USB4H08886)
Spectra Averaged: 5 (USB4H08886)
Boxcar Smoothing: 5 (USB4H08886)
Correct for Electrical Dark: Yes (USB4H08886)
Strobe/Lamp Enabled: No (USB4H08886)
Correct for Detector Non-linearity: Yes (USB4H08886)
Correct for Stray Light: Yes (USB4H08886)
Number of Pixels in Processed Spectrum: 3648
>>>>>Begin Processed Spectral Data<<<<<
178.14	-0.000
178.36	-0.000
178.57	-0.000
178.79	-0.000
179.01	-0.000
179.22	-0.000
179.44	-0.000
179.65	-0.000
179.87	-0.000
180.08	-0.000
180.30	-0.000
180.52	-0.000
180.73	-0.000
180.95	-0.000
181.16	-0.000
181.38	-0.000
181.59	-0.000
181.81	-0.000
182.03	-0.000
182.24	-0.000
182.46	-0.000
182.67	-0.000
182.89	-0.000
183.10	-0.000
183.32	-0.000
183.54	-0.000
183.75	-0.000
183.97	-0.000
184.18	-0.000
184.40	-0.000
184.61	-0.000
184.83	-0.000
185.04	-0.000
185.26	-0.000
185.48	-0.000
185.69	-0.000
185.91	-0.000
186.12	-0.000
186.34	-0.000
186.55	-0.000
186.77	-0.000
186.98	-0.000
187.20	-0.000
187.42	-0.000
187.63	-0.000
187.85	-0.000
188.06	-0.000
188.28	-0.000
188.49	-0.000
188.71	-0.000
188.92	-0.000
189.14	-0.000
189.36	-0.000
189.57	-0.000
189.79	-0.000
190.00	-0.000
190.22	-0.000
190.43	-0.000
190.65	-0.000
190.86	-0.000
191.08	-0.000
191.29	-0.000
191.51	-0.000
191.72	-0.000
191.94	-0.000
192.16	-0.000
192.37	-0.000
192.59	-0.000
192.80	-0.000
193.02	-0.000
193.23	-0.000
193.45	-0.000
193.66	-0.000
193.88	-0.000
194.09	-0.000
194.31	-0.000
194.52	-0.000
194.74	-0.000
194.95	-0.000
195.17	-0.000
195.38	-0.000
195.60	-0.000
195.81	-0.000
196.03	-0.000
196.25	-0.000
196.46	-0.000
196.68	-0.000
196.89	-0.000
197.11	-0.000
197.32	-0.000
197.54	-0.000
197.75	-0.000
197.97	-0.000
198.18	-0.000
198.40	-0.000
198.61	-0.000
198.83	-0.000
199.04	-0.000
199.26	-0.000
199.47	-0.000
199.69	-0.000
199.90	-0.000
200.12	-0.000
200.33	-0.000
200.55	-0.000
200.76	-0.000
200.98	-0.000
201.19	-0.000
201.41	-0.000
201.62	-0.000
201.84	-0.000
202.05	-0.000
202.27	-0.000
202.48	-0.000
202.70	-0.000
202.91	-0.000
203.13	-0.000
203.34	-0.000
203.56	-0.000
203.77	-0.000
203.99	-0.000
204.20	-0.000
204.42	-0.000
204.63	-0.000
204.85	-0.000
205.06	-0.000
205.28	-0.000
205.49	-0.000
205.71	-0.000
205.92	-0.000
206.14	-0.000
206.35	-0.000
206.56	-0.000
206.78	-0.000
206.99	-0.000
207.21	-0.000
207.42	-0.000
207.64	-0.000
207.85	-0.000
208.07	-0.000
208.28	-0.000
208.50	-0.000
208.71	-0.000
208.93	-0.000
209.14	-0.000
209.36	-0.000
209.57	-0.000
209.79	-0.000
210.00	-0.000
210.22	-0.000
210.43	-0.000
210.64	-0.000
210.86	-0.000
211.07	-0.000
211.29	-0.000
211.50	-0.000
211.72	-0.000
211.93	-0.000
212.15	-0.000
212.36	-0.000
212.58	-0.000
212.79	-0.000
213.01	-0.000
213.22	-0.000
213.43	-0.000
213.65	-0.000
213.86	-0.000
214.08	-0.000
214.29	-0.000
214.51	-0.000
214.72	-0.000
214.94	-0.000
215.15	-0.000
215.36	-0.000
215.58	-0.000
215.79	-0.000
216.01	-0.000
216.22	-0.000
216.44	-0.000
216.65	-0.000
216.87	-0.000
217.08	-0.000
217.29	-0.000
217.51	-0.000
217.72	-0.000
217.94	-0.000
218.15	-0.000
218.37	-0.000
218.58	-0.000
218.80	-0.000
219.01	-0.000
219.22	-0.000
219.44	-0.000
219.65	-0.000
219.87	-0.000
220.08	-0.000
220.30	-0.000
220.51	-0.000
220.72	-0.000
220.94	-0.000
221.15	-0.000
221.37	-0.000
221.58	-0.000
221.79	-0.000
222.01	-0.000
222.22	-0.000
222.44	-0.000
222.65	-0.000
222.87	-0.000
223.08	-0.000
223.29	-0.000
223.51	-0.000
223.72	-0.000
223.94	-0.000
224.15	-0.000
224.36	-0.000
224.58	-0.000
224.79	-0.000
225.01	-0.000
225.22	-0.000
225.44	-0.000
225.65	-0.000
225.86	-0.000
226.08	-0.000
226.29	-0.000
226.51	-0.000
226.72	-0.000
226.93	-0.000
227.15	-0.000
227.36	-0.000
227.58	-0.000
227.79	-0.000
228.00	-0.000
228.22	-0.000
228.43	-0.000
228.65	-0.000
228.86	-0.000
229.07	-0.000
229.29	-0.000
229.50	-0.000
229.72	-0.000
229.93	-0.000
230.14	-0.000
230.36	-0.000
230.57	-0.000
230.78	-0.000
231.00	-0.000
231.21	-0.000
231.43	-0.000
231.64	-0.000
231.85	-0.000
232.07	-0.000
232.28	-0.000
232.50	-0.000
232.71	-0.000
232.92	-0.000
233.14	-0.000
233.35	-0.000
233.56	-0.000
233.78	-0.000
233.99	-0.000
234.21	-0.000
234.42	-0.000
234.63	-0.000
234.85	-0.000
235.06	-0.000
235.27	-0.000
235.49	-0.000
235.70	-0.000
235.91	-0.000
236.13	-0.000
236.34	-0.000
236.56	-0.000
236.77	-0.000
236.98	-0.000
237.20	-0.000
237.41	-0.000
237.62	-0.000
237.84	-0.000
238.05	-0.000
238.26	-0.000
238.48	-0.000
238.69	-0.000
238.91	-0.000
239.12	-0.000
239.33	-0.000
239.55	-0.000
239.76	-0.000
239.97	-0.000
240.19	-0.000
240.40	-0.000
240.61	-0.000
240.83	-0.000
241.04	-0.000
241.25	-0.000
241.47	-0.000
241.68	-0.000
241.89	-0.000
242.11	-0.000
242.32	-0.000
242.53	-0.000
242.75	-0.000
242.96	-0.000
243.17	-0.000
243.39	-0.000
243.60	-0.000
243.81	-0.000
244.03	-0.000
244.24	-0.000
244.45	-0.000
244.67	-0.000
244.88	-0.000
245.09	-0.000
245.31	-0.000
245.52	-0.000
245.73	-0.000
245.95	-0.000
246.16	-0.000
246.37	-0.000
246.59	-0.000
246.80	-0.000
247.01	-0.000
247.23	-0.000
247.44	-0.000
247.65	-0.000
247.87	-0.000
248.08	-0.000
248.29	-0.000
248.51	-0.000
248.72	-0.000
248.93	-0.000
249.15	-0.000
249.36	-0.000
249.57	-0.000
249.78	-0.000
250.00	-0.000
250.21	-0.000
250.42	-0.000
250.64	-0.000
250.85	-0.000
251.06	-0.000
251.28	-0.000
251.49	-0.000
251.70	-0.000
251.92	-0.000
252.13	-0.000
252.34	-0.000
252.55	-0.000
252.77	-0.000
252.98	-0.000
253.19	-0.000
253.41	-0.000
253.62	-0.000
253.83	-0.000
254.05	-0.000
254.26	-0.000
254.47	-0.000
254.68	-0.000
254.90	-0.000
255.11	-0.000
255.32	-0.000
255.54	-0.000
255.75	-0.000
255.96	-0.000
256.17	-0.000
256.39	-0.000
256.60	-0.000
256.81	-0.000
257.03	-0.000
257.24	-0.000
257.45	-0.000
257.66	-0.000
257.88	-0.000
258.09	-0.000
258.30	-0.000
258.51	-0.000
258.73	-0.000
258.94	-0.000
259.15	-0.000
259.37	-0.000
259.58	-0.000
259.79	-0.000
260.00	-0.000
260.22	-0.000
260.43	-0.000
260.64	-0.000
260.85	-0.000
261.07	-0.000
261.28	-0.000
261.49	-0.000
261.71	-0.000
261.92	-0.000
262.13	-0.000
262.34	-0.000
262.56	-0.000
262.77	-0.000
262.98	-0.000
263.19	-0.000
263.41	-0.000
263.62	-0.000
263.83	-0.000
264.04	-0.000
264.26	-0.000
264.47	-0.000
264.68	-0.000
264.89	-0.000
265.11	-0.000
265.32	-0.000
265.53	-0.000
265.74	-0.000
265.96	-0.000
266.17	-0.000
266.38	-0.000
266.59	-0.000
266.81	-0.000
267.02	-0.000
267.23	-0.000
267.44	-0.000
267.65	-0.000
267.87	-0.000
268.08	-0.000
268.29	-0.000
268.50	-0.000
268.72	-0.000
268.93	-0.000
269.14	-0.000
269.35	-0.000
269.57	-0.000
269.78	-0.000
269.99	-0.000
270.20	-0.000
270.41	-0.000
270.63	-0.000
270.84	-0.000
271.05	-0.000
271.26	-0.000
271.48	-0.000
271.69	-0.000
271.90	-0.000
272.11	-0.000
272.32	-0.000
272.54	-0.000
272.75	-0.000
272.96	-0.000
273.17	-0.000
273.39	-0.000
273.60	-0.000
273.81	-0.000
274.02	-0.000
274.23	-0.000
274.45	-0.000
274.66	-0.000
274.87	-0.000
275.08	-0.000
275.29	-0.000
275.51	-0.000
275.72	-0.000
275.93	-0.000
276.14	-0.000
276.35	-0.000
276.57	-0.000
276.78	-0.000
276.99	-0.000
277.20	-0.000
277.41	-0.000
277.63	-0.000
277.84	-0.000
278.05	-0.000
278.26	-0.000
278.47	-0.000
278.69	-0.000
278.90	-0.000
279.11	-0.000
279.32	-0.000
279.53	-0.000
279.74	-0.000
279.96	-0.000
280.17	-0.000
280.38	-0.000
280.59	-0.000
280.80	-0.000
281.02	-0.000
281.23	-0.000
281.44	-0.000
281.65	-0.000
281.86	-0.000
282.07	-0.000
282.29	-0.000
282.50	-0.000
282.71	-0.000
282.92	-0.000
283.13	-0.000
283.35	-0.000
283.56	-0.000
283.77	-0.000
283.98	-0.000
284.19	-0.000
284.40	-0.000
284.62	-0.000
284.83	-0.000
285.04	-0.000
285.25	-0.000
285.46	-0.000
285.67	-0.000
285.88	-0.000
286.10	-0.000
286.31	-0.000
286.52	-0.000
286.73	-0.000
286.94	-0.000
287.15	-0.000
287.37	-0.000
287.58	-0.000
287.79	-0.000
288.00	-0.000
288.21	-0.000
288.42	-0.000
288.63	-0.000
288.85	-0.000
289.06	-0.000
289.27	-0.000
289.48	-0.000
289.69	-0.000
289.90	-0.000
290.11	-0.000
290.33	-0.000
290.54	-0.000
290.75	-0.000
290.96	-0.000
291.17	-0.000
291.38	-0.000
291.59	-0.000
291.81	-0.000
292.02	-0.000
292.23	-0.000
292.44	-0.000
292.65	-0.000
292.86	-0.000
293.07	-0.000
293.28	-0.000
293.50	-0.000
293.71	-0.000
293.92	-0.000
294.13	-0.000
294.34	-0.000
294.55	-0.000
294.76	-0.000
294.97	-0.000
295.19	-0.000
295.40	-0.000
295.61	-0.000
295.82	-0.000
296.03	-0.000
296.24	-0.000
296.45	-0.000
296.66	2.657
296.87	2.807
297.09	-0.000
297.30	-0.000
297.51	2.255
297.72	2.130
297.93	2.492
298.14	2.322
298.35	2.161
298.56	2.058
298.77	2.566
298.99	2.394
299.20	2.259
299.41	2.200
299.62	2.071
299.83	2.032
300.04	1.885
300.25	1.868
300.46	1.945
300.67	1.877
300.88	1.774
301.10	1.779
301.31	1.913
301.52	1.789
301.73	1.685
301.94	1.685
302.15	1.718
302.36	1.639
302.57	1.548
302.78	1.560
302.99	1.617
303.20	1.646
303.41	1.515
303.63	1.487
303.84	1.502
304.05	1.492
304.26	1.416
304.47	1.418
304.68	1.426
304.89	1.413
305.10	1.361
305.31	1.345
305.52	1.392
305.73	1.386
305.94	1.338
306.15	1.324
306.37	1.355
306.58	1.365
306.79	1.329
307.00	1.351
307.21	1.395
307.42	1.387
307.63	1.349
307.84	1.312
308.05	1.349
308.26	1.348
308.47	1.322
308.68	1.317
308.89	1.318
309.10	1.314
309.31	1.267
309.52	1.261
309.73	1.277
309.95	1.266
310.16	1.234
310.37	1.225
310.58	1.244
310.79	1.245
311.00	1.237
311.21	1.236
311.42	1.240
311.63	1.234
311.84	1.210
312.05	1.206
312.26	1.233
312.47	1.246
312.68	1.217
312.89	1.203
313.10	1.207
313.31	1.177
313.52	1.177
313.73	1.175
313.94	1.180
314.15	1.160
314.36	1.136
314.57	1.127
314.78	1.112
314.99	1.106
315.21	1.090
315.42	1.096
315.63	1.109
315.84	1.087
316.05	1.073
316.26	1.079
316.47	1.099
316.68	1.095
316.89	1.076
317.10	1.096
317.31	1.101
317.52	1.101
317.73	1.078
317.94	1.077
318.15	1.122
318.36	1.121
318.57	1.102
318.78	1.090
318.99	1.128
319.20	1.125
319.41	1.089
319.62	1.091
319.83	1.107
320.04	1.103
320.25	1.090
320.46	1.054
320.67	1.058
320.88	1.054
321.09	1.038
321.30	1.022
321.51	1.037
321.72	1.035
321.93	1.016
322.14	1.007
322.35	1.035
322.56	1.034
322.77	1.022
322.98	1.033
323.19	1.042
323.40	1.046
323.61	1.023
323.82	1.021
324.03	1.029
324.24	1.028
324.45	1.014
324.66	0.994
324.87	0.991
325.08	0.991
325.29	0.972
325.50	0.969
325.71	0.976
325.92	0.983
326.13	0.966
326.34	0.964
326.55	0.973
326.76	0.970
326.97	0.958
327.18	0.954
327.39	0.980
327.60	0.980
327.80	0.974
328.01	0.974
328.22	0.974
328.43	0.977
328.64	0.966
328.85	0.971
329.06	0.975
329.27	0.974
329.48	0.968
329.69	0.949
329.90	0.959
330.11	0.952
330.32	0.943
330.53	0.936
330.74	0.936
330.95	0.935
331.16	0.919
331.37	0.927
331.58	0.926
331.79	0.925
332.00	0.915
332.21	0.908
332.42	0.912
332.63	0.903
332.83	0.899
333.04	0.901
333.25	0.914
333.46	0.911
333.67	0.897
333.88	0.901
334.09	0.912
334.30	0.907
334.51	0.899
334.72	0.894
334.93	0.899
335.14	0.898
335.35	0.890
335.56	0.885
335.77	0.893
335.98	0.892
336.18	0.885
336.39	0.878
336.60	0.883
336.81	0.880
337.02	0.880
337.23	0.883
337.44	0.885
337.65	0.887
337.86	0.876
338.07	0.871
338.28	0.878
338.49	0.876
338.70	0.867
338.91	0.875
339.11	0.883
339.32	0.879
339.53	0.867
339.74	0.865
339.95	0.862
340.16	0.862
340.37	0.854
340.58	0.851
340.79	0.854
341.00	0.854
341.21	0.842
341.41	0.842
341.62	0.845
341.83	0.846
342.04	0.841
342.25	0.852
342.46	0.855
342.67	0.853
342.88	0.846
343.09	0.845
343.30	0.853
343.50	0.856
343.71	0.845
343.92	0.843
344.13	0.847
344.34	0.846
344.55	0.829
344.76	0.828
344.97	0.833
345.18	0.832
345.38	0.829
345.59	0.824
345.80	0.824
346.01	0.822
346.22	0.818
346.43	0.812
346.64	0.821
346.85	0.822
347.06	0.815
347.26	0.814
347.47	0.818
347.68	0.813
347.89	0.808
348.10	0.803
348.31	0.811
348.52	0.810
348.73	0.806
348.93	0.802
349.14	0.805
349.35	0.805
349.56	0.799
349.77	0.795
349.98	0.801
350.19	0.798
350.39	0.793
350.60	0.789
350.81	0.805
351.02	0.805
351.23	0.800
351.44	0.803
351.65	0.807
351.86	0.803
352.06	0.803
352.27	0.802
352.48	0.804
352.69	0.804
352.90	0.798
353.11	0.784
353.31	0.791
353.52	0.787
353.73	0.778
353.94	0.779
354.15	0.786
354.36	0.786
354.57	0.776
354.77	0.778
354.98	0.777
355.19	0.777
355.40	0.777
355.61	0.782
355.82	0.786
356.02	0.786
356.23	0.778
356.44	0.780
356.65	0.783
356.86	0.784
357.07	0.778
357.27	0.781
357.48	0.785
357.69	0.780
357.90	0.765
358.11	0.762
358.32	0.766
358.52	0.769
358.73	0.759
358.94	0.761
359.15	0.766
359.36	0.767
359.56	0.762
359.77	0.759
359.98	0.766
360.19	0.765
360.40	0.762
360.61	0.763
360.81	0.762
361.02	0.763
361.23	0.754
361.44	0.753
361.65	0.753
361.85	0.753
362.06	0.751
362.27	0.753
362.48	0.754
362.69	0.756
362.89	0.750
363.10	0.751
363.31	0.756
363.52	0.759
363.73	0.754
363.93	0.754
364.14	0.756
364.35	0.758
364.56	0.747
364.77	0.749
364.97	0.752
365.18	0.752
365.39	0.746
365.60	0.741
365.81	0.743
366.01	0.743
366.22	0.740
366.43	0.739
366.64	0.741
366.84	0.746
367.05	0.742
367.26	0.742
367.47	0.744
367.68	0.744
367.88	0.742
368.09	0.739
368.30	0.742
368.51	0.741
368.71	0.741
368.92	0.745
369.13	0.743
369.34	0.742
369.55	0.741
369.75	0.741
369.96	0.748
370.17	0.748
370.38	0.744
370.58	0.744
370.79	0.750
371.00	0.748
371.21	0.740
371.41	0.745
371.62	0.750
371.83	0.745
372.04	0.742
372.24	0.736
372.45	0.736
372.66	0.737
372.87	0.734
373.07	0.730
373.28	0.731
373.49	0.734
373.70	0.724
373.90	0.723
374.11	0.732
374.32	0.732
374.53	0.731
374.73	0.731
374.94	0.734
375.15	0.735
375.36	0.732
375.56	0.741
375.77	0.741
375.98	0.741
376.19	0.739
376.39	0.732
376.60	0.735
376.81	0.736
377.02	0.733
377.22	0.731
377.43	0.731
377.64	0.731
377.84	0.721
378.05	0.725
378.26	0.731
378.47	0.730
378.67	0.727
378.88	0.724
379.09	0.725
379.30	0.725
379.50	0.723
379.71	0.726
379.92	0.729
380.12	0.729
380.33	0.721
380.54	0.717
380.75	0.724
380.95	0.724
381.16	0.722
381.37	0.723
381.57	0.724
381.78	0.724
381.99	0.724
382.20	0.723
382.40	0.726
382.61	0.726
382.82	0.722
383.02	0.716
383.23	0.719
383.44	0.720
383.64	0.718
383.85	0.720
384.06	0.723
384.27	0.720
384.47	0.718
384.68	0.719
384.89	0.725
385.09	0.725
385.30	0.724
385.51	0.722
385.71	0.724
385.92	0.724
386.13	0.722
386.33	0.724
386.54	0.725
386.75	0.724
386.95	0.720
387.16	0.715
387.37	0.718
387.58	0.718
387.78	0.716
387.99	0.714
388.20	0.717
388.40	0.714
388.61	0.710
388.82	0.712
389.02	0.715
389.23	0.715
389.44	0.713
389.64	0.713
389.85	0.725
390.06	0.724
390.26	0.724
390.47	0.723
390.68	0.725
390.88	0.724
391.09	0.720
391.30	0.719
391.50	0.719
391.71	0.719
391.92	0.716
392.12	0.708
392.33	0.709
392.53	0.709
392.74	0.709
392.95	0.708
393.15	0.711
393.36	0.713
393.57	0.711
393.77	0.714
393.98	0.716
394.19	0.716
394.39	0.715
394.60	0.716
394.81	0.718
395.01	0.716
395.22	0.715
395.43	0.715
395.63	0.719
395.84	0.720
396.04	0.716
396.25	0.718
396.46	0.720
396.66	0.718
396.87	0.715
397.08	0.712
397.28	0.714
397.49	0.714
397.69	0.710
397.90	0.705
398.11	0.706
398.31	0.707
398.52	0.703
398.73	0.704
398.93	0.703
399.14	0.702
399.34	0.701
399.55	0.702
399.76	0.702
399.96	0.703
400.17	0.701
400.37	0.699
400.58	0.706
400.79	0.708
400.99	0.706
401.20	0.711
401.41	0.714
401.61	0.715
401.82	0.720
402.02	0.719
402.23	0.720
402.44	0.720
402.64	0.721
402.85	0.715
403.05	0.714
403.26	0.713
403.47	0.707
403.67	0.705
403.88	0.706
404.08	0.700
404.29	0.699
404.50	0.698
404.70	0.698
404.91	0.697
405.11	0.693
405.32	0.693
405.52	0.693
405.73	0.693
405.94	0.692
406.14	0.694
406.35	0.696
406.55	0.696
406.76	0.694
406.97	0.695
407.17	0.698
407.38	0.699
407.58	0.696
407.79	0.700
407.99	0.702
408.20	0.703
408.41	0.699
408.61	0.696
408.82	0.697
409.02	0.697
409.23	0.694
409.43	0.693
409.64	0.694
409.84	0.694
410.05	0.689
410.26	0.688
410.46	0.687
410.67	0.687
410.87	0.688
411.08	0.690
411.28	0.692
411.49	0.693
411.69	0.691
411.90	0.692
412.11	0.694
412.31	0.695
412.52	0.694
412.72	0.695
412.93	0.696
413.13	0.695
413.34	0.691
413.54	0.693
413.75	0.694
413.95	0.694
414.16	0.690
414.37	0.693
414.57	0.693
414.78	0.695
414.98	0.693
415.19	0.693
415.39	0.691
415.60	0.693
415.80	0.692
416.01	0.691
416.21	0.694
416.42	0.694
416.62	0.689
416.83	0.689
417.03	0.690
417.24	0.690
417.44	0.688
417.65	0.688
417.86	0.688
418.06	0.686
418.27	0.684
418.47	0.685
418.68	0.686
418.88	0.686
419.09	0.684
419.29	0.684
419.50	0.685
419.70	0.684
419.91	0.683
420.11	0.681
420.32	0.683
420.52	0.683
420.73	0.682
420.93	0.682
421.14	0.684
421.34	0.683
421.55	0.680
421.75	0.679
421.96	0.681
422.16	0.681
422.37	0.680
422.57	0.677
422.78	0.679
422.98	0.676
423.19	0.674
423.39	0.673
423.60	0.677
423.80	0.678
424.01	0.677
424.21	0.679
424.42	0.679
424.62	0.680
424.83	0.678
425.03	0.679
425.23	0.681
425.44	0.681
425.64	0.681
425.85	0.679
426.05	0.680
426.26	0.681
426.46	0.677
426.67	0.677
426.87	0.682
427.08	0.682
427.28	0.680
427.49	0.680
427.69	0.681
427.90	0.681
428.10	0.678
428.31	0.677
428.51	0.679
428.71	0.678
428.92	0.678
429.12	0.676
429.33	0.677
429.53	0.681
429.74	0.685
429.94	0.685
430.15	0.684
430.35	0.684
430.56	0.681
430.76	0.680
430.96	0.681
431.17	0.679
431.37	0.676
431.58	0.674
431.78	0.671
431.99	0.663
432.19	0.666
432.40	0.667
432.60	0.668
432.80	0.671
433.01	0.669
433.21	0.670
433.42	0.672
433.62	0.672
433.83	0.672
434.03	0.675
434.23	0.678
434.44	0.677
434.64	0.674
434.85	0.679
435.05	0.680
435.26	0.680
435.46	0.678
435.66	0.678
435.87	0.678
436.07	0.678
436.28	0.674
436.48	0.670
436.69	0.670
436.89	0.671
437.09	0.664
437.30	0.663
437.50	0.664
437.71	0.676
437.91	0.675
438.11	0.676
438.32	0.681
438.52	0.681
438.73	0.680
438.93	0.679
439.13	0.679
439.34	0.683
439.54	0.681
439.75	0.680
439.95	0.670
440.15	0.674
440.36	0.673
440.56	0.670
440.77	0.671
440.97	0.671
441.17	0.670
441.38	0.671
441.58	0.668
441.79	0.667
441.99	0.666
442.19	0.665
442.40	0.663
442.60	0.663
442.81	0.661
443.01	0.661
443.21	0.662
443.42	0.661
443.62	0.660
443.82	0.660
444.03	0.661
444.23	0.662
444.44	0.661
444.64	0.660
444.84	0.661
445.05	0.662
445.25	0.659
445.45	0.660
445.66	0.663
445.86	0.662
446.06	0.663
446.27	0.663
446.47	0.666
446.68	0.665
446.88	0.663
447.08	0.662
447.29	0.664
447.49	0.665
447.69	0.664
447.90	0.663
448.10	0.666
448.30	0.663
448.51	0.664
448.71	0.661
448.91	0.664
449.12	0.663
449.32	0.664
449.52	0.663
449.73	0.666
449.93	0.666
450.14	0.666
450.34	0.665
450.54	0.669
450.75	0.666
450.95	0.666
451.15	0.666
451.36	0.669
451.56	0.666
451.76	0.665
451.97	0.662
452.17	0.662
452.37	0.660
452.58	0.657
452.78	0.656
452.98	0.659
453.19	0.658
453.39	0.658
453.59	0.657
453.79	0.658
454.00	0.658
454.20	0.657
454.40	0.658
454.61	0.661
454.81	0.661
455.01	0.660
455.22	0.660
455.42	0.663
455.62	0.660
455.83	0.660
456.03	0.663
456.23	0.664
456.44	0.665
456.64	0.664
456.84	0.663
457.04	0.664
457.25	0.663
457.45	0.660
457.65	0.659
457.86	0.659
458.06	0.658
458.26	0.654
458.47	0.653
458.67	0.655
458.87	0.655
459.07	0.652
459.28	0.654
459.48	0.657
459.68	0.657
459.89	0.656
460.09	0.655
460.29	0.657
460.49	0.659
460.70	0.658
460.90	0.658
461.10	0.659
461.31	0.658
461.51	0.656
461.71	0.657
461.91	0.659
462.12	0.659
462.32	0.657
462.52	0.657
462.72	0.659
462.93	0.659
463.13	0.658
463.33	0.659
463.53	0.660
463.74	0.659
463.94	0.654
464.14	0.655
464.35	0.657
464.55	0.657
464.75	0.655
464.95	0.653
465.16	0.655
465.36	0.654
465.56	0.653
465.76	0.652
465.97	0.653
466.17	0.654
466.37	0.652
466.57	0.652
466.78	0.653
466.98	0.653
467.18	0.651
467.38	0.649
467.59	0.651
467.79	0.652
467.99	0.651
468.19	0.652
468.39	0.655
468.60	0.656
468.80	0.655
469.00	0.656
469.20	0.657
469.41	0.658
469.61	0.658
469.81	0.658
470.01	0.658
470.22	0.658
470.42	0.656
470.62	0.654
470.82	0.656
471.02	0.655
471.23	0.652
471.43	0.653
471.63	0.655
471.83	0.654
472.04	0.652
472.24	0.651
472.44	0.657
472.64	0.657
472.84	0.655
473.05	0.654
473.25	0.657
473.45	0.656
473.65	0.654
473.85	0.654
474.06	0.656
474.26	0.656
474.46	0.657
474.66	0.653
474.86	0.654
475.07	0.654
475.27	0.652
475.47	0.649
475.67	0.651
475.87	0.653
476.08	0.650
476.28	0.650
476.48	0.652
476.68	0.650
476.88	0.648
477.09	0.650
477.29	0.651
477.49	0.651
477.69	0.650
477.89	0.650
478.09	0.649
478.30	0.651
478.50	0.648
478.70	0.648
478.90	0.649
479.10	0.652
479.31	0.652
479.51	0.650
479.71	0.651
479.91	0.651
480.11	0.650
480.31	0.650
480.52	0.649
480.72	0.649
480.92	0.648
481.12	0.647
481.32	0.644
481.52	0.642
481.72	0.643
481.93	0.646
482.13	0.647
482.33	0.646
482.53	0.644
482.73	0.645
482.93	0.646
483.14	0.646
483.34	0.645
483.54	0.646
483.74	0.645
483.94	0.644
484.14	0.640
484.34	0.640
484.55	0.641
484.75	0.641
484.95	0.639
485.15	0.638
485.35	0.638
485.55	0.638
485.75	0.635
485.96	0.636
486.16	0.637
486.36	0.637
486.56	0.635
486.76	0.635
486.96	0.636
487.16	0.635
487.36	0.633
487.57	0.633
487.77	0.634
487.97	0.635
488.17	0.633
488.37	0.632
488.57	0.632
488.77	0.633
488.97	0.632
489.18	0.631
489.38	0.634
489.58	0.634
489.78	0.633
489.98	0.633
490.18	0.633
490.38	0.634
490.58	0.632
490.78	0.633
490.98	0.635
491.19	0.635
491.39	0.634
491.59	0.633
491.79	0.636
491.99	0.636
492.19	0.636
492.39	0.639
492.59	0.639
492.79	0.641
492.99	0.641
493.20	0.641
493.40	0.641
493.60	0.642
493.80	0.641
494.00	0.639
494.20	0.640
494.40	0.639
494.60	0.636
494.80	0.641
495.00	0.640
495.20	0.638
495.40	0.637
495.61	0.638
495.81	0.638
496.01	0.642
496.21	0.643
496.41	0.642
496.61	0.643
496.81	0.642
497.01	0.636
497.21	0.635
497.41	0.636
497.61	0.636
497.81	0.633
498.01	0.634
498.21	0.632
498.41	0.630
498.61	0.629
498.82	0.631
499.02	0.634
499.22	0.634
499.42	0.634
499.62	0.635
499.82	0.636
500.02	0.638
500.22	0.636
500.42	0.638
500.62	0.639
500.82	0.639
501.02	0.637
501.22	0.637
501.42	0.637
501.62	0.640
501.82	0.639
502.02	0.639
502.22	0.638
502.42	0.640
502.62	0.637
502.82	0.638
503.02	0.638
503.22	0.638
503.42	0.636
503.63	0.636
503.83	0.634
504.03	0.633
504.23	0.632
504.43	0.633
504.63	0.633
504.83	0.634
505.03	0.632
505.23	0.634
505.43	0.636
505.63	0.636
505.83	0.636
506.03	0.638
506.23	0.639
506.43	0.640
506.63	0.638
506.83	0.638
507.03	0.639
507.23	0.639
507.43	0.636
507.63	0.637
507.83	0.638
508.03	0.637
508.23	0.637
508.43	0.635
508.63	0.638
508.83	0.638
509.03	0.639
509.23	0.638
509.43	0.640
509.63	0.640
509.83	0.638
510.03	0.641
510.23	0.642
510.43	0.642
510.63	0.643
510.83	0.642
511.03	0.643
511.23	0.641
511.43	0.640
511.63	0.641
511.83	0.644
512.03	0.644
512.22	0.640
512.42	0.640
512.62	0.641
512.82	0.640
513.02	0.640
513.22	0.640
513.42	0.642
513.62	0.645
513.82	0.643
514.02	0.642
514.22	0.644
514.42	0.644
514.62	0.644
514.82	0.644
515.02	0.647
515.22	0.650
515.42	0.648
515.62	0.651
515.82	0.650
516.02	0.651
516.22	0.650
516.42	0.652
516.62	0.654
516.82	0.655
517.01	0.653
517.21	0.653
517.41	0.656
517.61	0.657
517.81	0.653
518.01	0.653
518.21	0.653
518.41	0.652
518.61	0.651
518.81	0.651
519.01	0.652
519.21	0.653
519.41	0.651
519.61	0.646
519.81	0.649
520.00	0.649
520.20	0.649
520.40	0.652
520.60	0.653
520.80	0.652
521.00	0.652
521.20	0.653
521.40	0.658
521.60	0.658
521.80	0.657
522.00	0.657
522.20	0.660
522.39	0.659
522.59	0.655
522.79	0.658
522.99	0.660
523.19	0.659
523.39	0.657
523.59	0.654
523.79	0.658
523.99	0.660
524.19	0.659
524.38	0.658
524.58	0.660
524.78	0.660
524.98	0.658
525.18	0.659
525.38	0.660
525.58	0.661
525.78	0.658
525.98	0.656
526.18	0.656
526.37	0.655
526.57	0.657
526.77	0.657
526.97	0.657
527.17	0.658
527.37	0.654
527.57	0.657
527.77	0.658
527.96	0.659
528.16	0.657
528.36	0.659
528.56	0.661
528.76	0.659
528.96	0.658
529.16	0.659
529.36	0.662
529.55	0.662
529.75	0.659
529.95	0.659
530.15	0.661
530.35	0.663
530.55	0.660
530.75	0.661
530.94	0.662
531.14	0.662
531.34	0.661
531.54	0.659
531.74	0.662
531.94	0.665
532.13	0.663
532.33	0.664
532.53	0.663
532.73	0.663
532.93	0.661
533.13	0.663
533.33	0.663
533.52	0.664
533.72	0.667
533.92	0.664
534.12	0.662
534.32	0.663
534.52	0.661
534.71	0.663
534.91	0.666
535.11	0.667
535.31	0.665
535.51	0.668
535.71	0.669
535.90	0.666
536.10	0.667
536.30	0.669
536.50	0.670
536.70	0.671
536.89	0.668
537.09	0.668
537.29	0.670
537.49	0.670
537.69	0.667
537.89	0.667
538.08	0.667
538.28	0.665
538.48	0.665
538.68	0.667
538.88	0.669
539.07	0.669
539.27	0.667
539.47	0.666
539.67	0.666
539.87	0.668
540.06	0.665
540.26	0.666
540.46	0.669
540.66	0.666
540.86	0.663
541.05	0.664
541.25	0.665
541.45	0.665
541.65	0.664
541.84	0.666
542.04	0.667
542.24	0.668
542.44	0.667
542.64	0.668
542.83	0.671
543.03	0.672
543.23	0.669
543.43	0.670
543.62	0.672
543.82	0.673
544.02	0.671
544.22	0.671
544.42	0.674
544.61	0.675
544.81	0.672
545.01	0.671
545.21	0.673
545.40	0.673
545.60	0.671
545.80	0.674
546.00	0.674
546.19	0.674
546.39	0.672
546.59	0.670
546.79	0.672
546.98	0.672
547.18	0.671
547.38	0.672
547.58	0.674
547.77	0.674
547.97	0.670
548.17	0.672
548.37	0.672
548.56	0.672
548.76	0.671
548.96	0.673
549.16	0.675
549.35	0.675
549.55	0.673
549.75	0.674
549.95	0.677
550.14	0.678
550.34	0.676
550.54	0.681
550.73	0.686
550.93	0.687
551.13	0.683
551.33	0.681
551.52	0.682
551.72	0.682
551.92	0.680
552.12	0.681
552.31	0.682
552.51	0.681
552.71	0.676
552.90	0.675
553.10	0.677
553.30	0.677
553.50	0.677
553.69	0.679
553.89	0.680
554.09	0.680
554.28	0.677
554.48	0.679
554.68	0.681
554.87	0.681
555.07	0.678
555.27	0.678
555.47	0.680
555.66	0.680
555.86	0.678
556.06	0.680
556.25	0.681
556.45	0.689
556.65	0.687
556.84	0.690
557.04	0.693
557.24	0.695
557.43	0.694
557.63	0.697
557.83	0.699
558.02	0.700
558.22	0.704
558.42	0.704
558.61	0.697
558.81	0.698
559.01	0.694
559.21	0.694
559.40	0.695
559.60	0.695
559.80	0.691
559.99	0.693
560.19	0.694
560.39	0.688
560.58	0.685
560.78	0.686
560.97	0.689
561.17	0.687
561.37	0.685
561.56	0.685
561.76	0.686
561.96	0.686
562.15	0.683
562.35	0.686
562.55	0.687
562.74	0.687
562.94	0.686
563.14	0.683
563.33	0.684
563.53	0.684
563.73	0.682
563.92	0.684
564.12	0.687
564.31	0.689
564.51	0.686
564.71	0.688
564.90	0.691
565.10	0.692
565.30	0.695
565.49	0.696
565.69	0.698
565.89	0.699
566.08	0.696
566.28	0.697
566.47	0.699
566.67	0.698
566.87	0.694
567.06	0.695
567.26	0.702
567.46	0.698
567.65	0.697
567.85	0.699
568.04	0.701
568.24	0.701
568.44	0.697
568.63	0.696
568.83	0.698
569.02	0.697
569.22	0.692
569.42	0.687
569.61	0.690
569.81	0.688
570.00	0.686
570.20	0.687
570.40	0.688
570.59	0.688
570.79	0.686
570.98	0.684
571.18	0.685
571.38	0.685
571.57	0.682
571.77	0.680
571.96	0.684
572.16	0.681
572.35	0.676
572.55	0.676
572.75	0.674
572.94	0.674
573.14	0.673
573.33	0.673
573.53	0.674
573.73	0.674
573.92	0.671
574.12	0.669
574.31	0.672
574.51	0.673
574.70	0.670
574.90	0.672
575.09	0.674
575.29	0.674
575.49	0.671
575.68	0.672
575.88	0.673
576.07	0.675
576.27	0.672
576.46	0.671
576.66	0.671
576.86	0.670
577.05	0.667
577.25	0.665
577.44	0.667
577.64	0.667
577.83	0.665
578.03	0.666
578.22	0.665
578.42	0.665
578.61	0.662
578.81	0.664
579.00	0.664
579.20	0.664
579.40	0.663
579.59	0.662
579.79	0.663
579.98	0.662
580.18	0.661
580.37	0.661
580.57	0.664
580.76	0.669
580.96	0.667
581.15	0.667
581.35	0.670
581.54	0.669
581.74	0.668
581.93	0.670
582.13	0.671
582.32	0.668
582.52	0.666
582.71	0.665
582.91	0.661
583.10	0.661
583.30	0.660
583.49	0.659
583.69	0.663
583.88	0.664
584.08	0.663
584.27	0.665
584.47	0.668
584.66	0.669
584.86	0.668
585.05	0.670
585.25	0.674
585.44	0.673
585.64	0.671
585.83	0.668
586.03	0.669
586.22	0.667
586.42	0.664
586.61	0.666
586.81	0.668
587.00	0.668
587.20	0.665
587.39	0.665
587.59	0.667
587.78	0.668
587.98	0.669
588.17	0.670
588.37	0.672
588.56	0.674
588.76	0.669
588.95	0.670
589.15	0.674
589.34	0.677
589.54	0.675
589.73	0.676
589.92	0.679
590.12	0.679
590.31	0.676
590.51	0.681
590.70	0.683
590.90	0.683
591.09	0.681
591.29	0.680
591.48	0.680
591.68	0.681
591.87	0.679
592.06	0.678
592.26	0.682
592.45	0.681
592.65	0.674
592.84	0.674
593.04	0.677
593.23	0.679
593.43	0.676
593.62	0.676
593.81	0.676
594.01	0.676
594.20	0.673
594.40	0.672
594.59	0.674
594.79	0.676
594.98	0.674
595.17	0.673
595.37	0.674
595.56	0.676
595.76	0.675
595.95	0.676
596.14	0.680
596.34	0.681
596.53	0.679
596.73	0.680
596.92	0.682
597.12	0.685
597.31	0.684
597.50	0.684
597.70	0.685
597.89	0.685
598.09	0.682
598.28	0.683
598.47	0.685
598.67	0.684
598.86	0.680
599.06	0.682
599.25	0.682
599.44	0.680
599.64	0.678
599.83	0.676
600.03	0.679
600.22	0.679
600.41	0.678
600.61	0.676
600.80	0.679
601.00	0.679
601.19	0.675
601.38	0.674
601.58	0.676
601.77	0.677
601.96	0.679
602.16	0.679
602.35	0.688
602.55	0.686
602.74	0.687
602.93	0.689
603.13	0.695
603.32	0.696
603.51	0.695
603.71	0.698
603.90	0.700
604.09	0.701
604.29	0.698
604.48	0.692
604.68	0.694
604.87	0.692
605.06	0.689
605.26	0.685
605.45	0.685
605.64	0.684
605.84	0.680
606.03	0.679
606.22	0.678
606.42	0.677
606.61	0.673
606.80	0.673
607.00	0.675
607.19	0.675
607.38	0.674
607.58	0.676
607.77	0.679
607.96	0.679
608.16	0.677
608.35	0.682
608.54	0.686
608.74	0.689
608.93	0.694
609.12	0.698
609.32	0.700
609.51	0.704
609.70	0.702
609.90	0.704
610.09	0.708
610.28	0.714
610.48	0.706
610.67	0.707
610.86	0.708
611.06	0.703
611.25	0.700
611.44	0.701
611.64	0.701
611.83	0.704
612.02	0.700
612.21	0.699
612.41	0.698
612.60	0.697
612.79	0.692
612.99	0.693
613.18	0.695
613.37	0.692
613.57	0.689
613.76	0.691
613.95	0.688
614.14	0.688
614.34	0.685
614.53	0.686
614.72	0.690
614.92	0.690
615.11	0.687
615.30	0.683
615.49	0.686
615.69	0.689
615.88	0.685
616.07	0.686
616.26	0.689
616.46	0.689
616.65	0.687
616.84	0.685
617.04	0.687
617.23	0.690
617.42	0.691
617.61	0.695
617.81	0.696
618.00	0.697
618.19	0.696
618.38	0.699
618.58	0.703
618.77	0.704
618.96	0.703
619.15	0.705
619.35	0.707
619.54	0.707
619.73	0.702
619.92	0.704
620.12	0.709
620.31	0.709
620.50	0.704
620.69	0.705
620.89	0.709
621.08	0.709
621.27	0.708
621.46	0.708
621.66	0.712
621.85	0.712
622.04	0.707
622.23	0.708
622.43	0.710
622.62	0.710
622.81	0.709
623.00	0.707
623.19	0.712
623.39	0.710
623.58	0.707
623.77	0.706
623.96	0.710
624.16	0.710
624.35	0.705
624.54	0.708
624.73	0.712
624.92	0.710
625.12	0.708
625.31	0.708
625.50	0.711
625.69	0.712
625.88	0.707
626.08	0.706
626.27	0.708
626.46	0.708
626.65	0.705
626.84	0.705
627.04	0.711
627.23	0.711
627.42	0.707
627.61	0.709
627.80	0.712
628.00	0.713
628.19	0.711
628.38	0.714
628.57	0.717
628.76	0.716
628.96	0.712
629.15	0.713
629.34	0.716
629.53	0.716
629.72	0.710
629.91	0.711
630.11	0.715
630.30	0.716
630.49	0.718
630.68	0.719
630.87	0.722
631.06	0.724
631.26	0.719
631.45	0.721
631.64	0.729
631.83	0.732
632.02	0.729
632.21	0.729
632.41	0.736
632.60	0.731
632.79	0.729
632.98	0.730
633.17	0.731
633.36	0.732
633.55	0.728
633.75	0.724
633.94	0.726
634.13	0.726
634.32	0.723
634.51	0.717
634.70	0.719
634.89	0.718
635.09	0.715
635.28	0.716
635.47	0.718
635.66	0.721
635.85	0.716
636.04	0.717
636.23	0.723
636.43	0.724
636.62	0.722
636.81	0.721
637.00	0.725
637.19	0.727
637.38	0.723
637.57	0.723
637.76	0.724
637.95	0.725
638.15	0.721
638.34	0.718
638.53	0.721
638.72	0.723
638.91	0.720
639.10	0.717
639.29	0.718
639.48	0.719
639.67	0.718
639.87	0.717
640.06	0.723
640.25	0.724
640.44	0.724
640.63	0.725
640.82	0.727
641.01	0.728
641.20	0.727
641.39	0.729
641.58	0.732
641.78	0.730
641.97	0.726
642.16	0.739
642.35	0.741
642.54	0.739
642.73	0.733
642.92	0.731
643.11	0.735
643.30	0.735
643.49	0.729
643.68	0.731
643.87	0.734
644.06	0.734
644.25	0.714
644.45	0.717
644.64	0.718
644.83	0.719
645.02	0.716
645.21	0.714
645.40	0.717
645.59	0.717
645.78	0.711
645.97	0.713
646.16	0.715
646.35	0.714
646.54	0.711
646.73	0.712
646.92	0.714
647.11	0.714
647.30	0.711
647.49	0.712
647.68	0.712
647.88	0.710
648.07	0.703
648.26	0.706
648.45	0.709
648.64	0.705
648.83	0.702
649.02	0.705
649.21	0.715
649.40	0.714
649.59	0.709
649.78	0.710
649.97	0.724
650.16	0.724
650.35	0.717
650.54	0.720
650.73	0.728
650.92	0.726
651.11	0.718
651.30	0.715
651.49	0.720
651.68	0.721
651.87	0.717
652.06	0.707
652.25	0.712
652.44	0.714
652.63	0.710
652.82	0.710
653.01	0.710
653.20	0.707
653.39	0.694
653.58	0.691
653.77	0.690
653.96	0.685
654.15	0.676
654.34	0.674
654.53	0.670
654.72	0.664
654.91	0.655
655.10	0.651
655.29	0.649
655.48	0.647
655.67	0.642
655.86	0.639
656.05	0.638
656.24	0.637
656.43	0.632
656.62	0.630
656.81	0.630
657.00	0.628
657.19	0.625
657.38	0.624
657.57	0.624
657.76	0.627
657.95	0.625
658.14	0.629
658.33	0.632
658.51	0.638
658.70	0.639
658.89	0.641
659.08	0.650
659.27	0.659
659.46	0.659
659.65	0.666
659.84	0.670
660.03	0.674
660.22	0.674
660.41	0.678
660.60	0.677
660.79	0.679
660.98	0.685
661.17	0.684
661.36	0.683
661.55	0.684
661.74	0.681
661.92	0.684
662.11	0.686
662.30	0.685
662.49	0.678
662.68	0.677
662.87	0.680
663.06	0.675
663.25	0.675
663.44	0.675
663.63	0.677
663.82	0.675
664.01	0.670
664.20	0.669
664.38	0.671
664.57	0.671
664.76	0.671
664.95	0.671
665.14	0.676
665.33	0.671
665.52	0.678
665.71	0.681
665.90	0.681
666.09	0.683
666.28	0.680
666.46	0.678
666.65	0.679
666.84	0.677
667.03	0.671
667.22	0.669
667.41	0.672
667.60	0.661
667.79	0.654
667.98	0.656
668.16	0.657
668.35	0.657
668.54	0.654
668.73	0.655
668.92	0.656
669.11	0.655
669.30	0.649
669.49	0.645
669.67	0.647
669.86	0.650
670.05	0.647
670.24	0.644
670.43	0.643
670.62	0.641
670.81	0.635
671.00	0.636
671.18	0.636
671.37	0.635
671.56	0.633
671.75	0.632
671.94	0.629
672.13	0.627
672.32	0.622
672.50	0.621
672.69	0.621
672.88	0.622
673.07	0.617
673.26	0.620
673.45	0.621
673.63	0.621
673.82	0.617
674.01	0.619
674.20	0.618
674.39	0.618
674.58	0.618
674.76	0.618
674.95	0.616
675.14	0.616
675.33	0.612
675.52	0.610
675.71	0.610
675.89	0.610
676.08	0.606
676.27	0.606
676.46	0.607
676.65	0.607
676.84	0.606
677.02	0.608
677.21	0.610
677.40	0.609
677.59	0.606
677.78	0.607
677.96	0.610
678.15	0.609
678.34	0.607
678.53	0.607
678.72	0.607
678.90	0.604
679.09	0.599
679.28	0.596
679.47	0.596
679.66	0.595
679.84	0.591
680.03	0.589
680.22	0.588
680.41	0.589
680.60	0.585
680.78	0.585
680.97	0.587
681.16	0.587
681.35	0.586
681.53	0.585
681.72	0.587
681.91	0.588
682.10	0.586
682.29	0.590
682.47	0.587
682.66	0.587
682.85	0.585
683.04	0.583
683.22	0.584
683.41	0.585
683.60	0.584
683.79	0.585
683.97	0.584
684.16	0.583
684.35	0.579
684.54	0.581
684.72	0.581
684.91	0.582
685.10	0.580
685.29	0.581
685.47	0.579
685.66	0.578
685.85	0.574
686.04	0.574
686.22	0.576
686.41	0.579
686.60	0.576
686.79	0.579
686.97	0.580
687.16	0.581
687.35	0.579
687.54	0.583
687.72	0.586
687.91	0.586
688.10	0.587
688.29	0.587
688.47	0.584
688.66	0.584
688.85	0.579
689.03	0.577
689.22	0.581
689.41	0.582
689.60	0.576
689.78	0.573
689.97	0.574
690.16	0.572
690.34	0.568
690.53	0.568
690.72	0.568
690.91	0.567
691.09	0.565
691.28	0.560
691.47	0.558
691.65	0.557
691.84	0.554
692.03	0.553
692.21	0.551
692.40	0.552
692.59	0.549
692.77	0.548
692.96	0.549
693.15	0.549
693.34	0.547
693.52	0.547
693.71	0.548
693.90	0.549
694.08	0.549
694.27	0.550
694.46	0.560
694.64	0.561
694.83	0.561
695.02	0.559
695.20	0.559
695.39	0.560
695.58	0.559
695.76	0.559
695.95	0.558
696.14	0.557
696.32	0.555
696.51	0.545
696.70	0.545
696.88	0.546
697.07	0.545
697.26	0.546
697.44	0.547
697.63	0.546
697.81	0.544
698.00	0.544
698.19	0.544
698.37	0.544
698.56	0.544
698.75	0.544
698.93	0.543
699.12	0.542
699.31	0.541
699.49	0.540
699.68	0.542
699.87	0.544
700.05	0.543
700.24	0.542
700.42	0.544
700.61	0.544
700.80	0.541
700.98	0.541
701.17	0.543
701.36	0.542
701.54	0.541
701.73	0.542
701.91	0.540
702.10	0.539
702.29	0.537
702.47	0.536
702.66	0.538
702.84	0.539
703.03	0.537
703.22	0.539
703.40	0.539
703.59	0.540
703.77	0.540
703.96	0.540
704.15	0.541
704.33	0.541
704.52	0.540
704.70	0.540
704.89	0.539
705.08	0.539
705.26	0.534
705.45	0.534
705.63	0.533
705.82	0.530
706.00	0.529
706.19	0.528
706.38	0.528
706.56	0.527
706.75	0.525
706.93	0.524
707.12	0.526
707.30	0.526
707.49	0.523
707.68	0.521
707.86	0.521
708.05	0.521
708.23	0.519
708.42	0.519
708.60	0.522
708.79	0.522
708.98	0.521
709.16	0.520
709.35	0.523
709.53	0.527
709.72	0.526
709.90	0.528
710.09	0.530
710.27	0.532
710.46	0.536
710.64	0.534
710.83	0.536
711.02	0.538
711.20	0.536
711.39	0.535
711.57	0.533
711.76	0.534
711.94	0.531
712.13	0.532
712.31	0.532
712.50	0.527
712.68	0.524
712.87	0.525
713.05	0.525
713.24	0.525
713.42	0.524
713.61	0.524
713.79	0.525
713.98	0.525
714.16	0.526
714.35	0.526
714.54	0.526
714.72	0.526
714.91	0.524
715.09	0.531
715.28	0.534
715.46	0.533
715.65	0.531
715.83	0.531
716.02	0.533
716.20	0.529
716.39	0.528
716.57	0.530
716.76	0.532
716.94	0.532
717.12	0.524
717.31	0.525
717.49	0.528
717.68	0.530
717.86	0.529
718.05	0.530
718.23	0.533
718.42	0.536
718.60	0.537
718.79	0.546
718.97	0.549
719.16	0.550
719.34	0.548
719.53	0.548
719.71	0.548
719.90	0.551
720.08	0.549
720.27	0.549
720.45	0.550
720.63	0.548
720.82	0.542
721.00	0.544
721.19	0.547
721.37	0.547
721.56	0.547
721.74	0.550
721.93	0.558
722.11	0.566
722.30	0.565
722.48	0.569
722.66	0.571
722.85	0.571
723.03	0.571
723.22	0.569
723.40	0.572
723.59	0.572
723.77	0.576
723.95	0.569
724.14	0.571
724.32	0.573
724.51	0.571
724.69	0.573
724.88	0.573
725.06	0.571
725.24	0.573
725.43	0.575
725.61	0.578
725.80	0.572
725.98	0.569
726.16	0.565
726.35	0.570
726.53	0.570
726.72	0.567
726.90	0.580
727.09	0.581
727.27	0.585
727.45	0.581
727.64	0.591
727.82	0.601
728.01	0.606
728.19	0.602
728.37	0.608
728.56	0.613
728.74	0.621
728.92	0.608
729.11	0.611
729.29	0.608
729.48	0.611
729.66	0.600
729.84	0.600
730.03	0.603
730.21	0.607
730.40	0.597
730.58	0.596
730.76	0.596
730.95	0.597
731.13	0.596
731.31	0.611
731.50	0.621
731.68	0.624
731.86	0.619
732.05	0.633
732.23	0.638
732.42	0.642
732.60	0.647
732.78	0.652
732.97	0.673
733.15	0.679
733.33	0.668
733.52	0.676
733.70	0.689
733.88	0.700
734.07	0.686
734.25	0.713
734.43	0.719
734.62	0.721
734.80	0.717
734.98	0.706
735.17	0.715
735.35	0.720
735.53	0.707
735.72	0.711
735.90	0.735
736.08	0.755
736.27	0.731
736.45	0.741
736.63	0.754
736.82	0.767
737.00	0.767
737.18	0.782
737.37	0.819
737.55	0.845
737.73	0.835
737.92	0.835
738.10	0.835
738.28	0.856
738.46	0.845
738.65	0.859
738.83	0.885
739.01	0.944
739.20	0.931
739.38	0.908
739.56	0.900
739.75	0.906
739.93	0.871
740.11	0.897
740.29	0.897
740.48	0.905
740.66	0.879
740.84	0.870
741.03	0.835
741.21	0.848
741.39	0.833
741.57	0.849
741.76	0.874
741.94	0.885
742.12	0.846
742.31	0.855
742.49	0.880
742.67	0.909
742.85	0.926
743.04	0.935
743.22	0.945
743.40	1.008
743.58	0.986
743.77	1.005
743.95	1.046
744.13	1.105
744.31	1.078
744.50	1.072
744.68	1.083
744.86	1.050
745.04	1.060
745.23	1.146
745.41	1.127
745.59	1.125
745.77	1.083
745.96	1.061
746.14	1.079
746.32	1.079
746.50	1.067
746.69	1.042
746.87	1.059
747.05	1.043
747.23	0.956
747.42	0.938
747.60	0.975
747.78	0.976
747.96	1.016
748.14	0.960
748.33	0.992
748.51	0.983
748.69	0.973
748.87	1.004
749.06	1.001
749.24	0.996
749.42	0.980
749.60	0.960
749.78	0.974
749.97	0.918
750.15	0.909
750.33	0.909
750.51	0.941
750.69	0.948
750.88	0.954
751.06	0.967
751.24	1.001
751.42	0.985
751.60	0.970
751.79	1.056
751.97	1.124
752.15	1.124
752.33	1.082
752.51	1.165
752.69	1.188
752.88	1.139
753.06	1.200
753.24	1.163
753.42	1.218
753.60	1.479
753.78	1.243
753.97	1.264
754.15	1.303
754.33	1.351
754.51	1.163
754.69	1.140
754.87	1.182
755.06	1.081
755.24	1.078
755.42	1.081
755.60	0.964
755.78	0.976
755.96	0.908
756.15	0.906
756.33	0.912
756.51	0.931
756.69	0.915
756.87	0.874
757.05	0.898
757.23	0.882
757.42	0.848
757.60	0.846
757.78	0.832
757.96	0.831
758.14	0.814
758.32	0.797
758.50	0.812
758.69	0.809
758.87	0.801
759.05	0.803
759.23	0.814
759.41	0.812
759.59	0.803
759.77	0.828
759.95	0.859
760.13	0.910
760.32	0.909
760.50	0.899
760.68	0.928
760.86	0.929
761.04	0.900
761.22	0.907
761.40	0.964
761.58	0.966
761.76	0.931
761.95	0.910
762.13	0.863
762.31	0.864
762.49	0.832
762.67	0.853
762.85	0.871
763.03	0.865
763.21	0.839
763.39	0.818
763.57	0.819
763.75	0.811
763.94	0.795
764.12	0.795
764.30	0.820
764.48	0.822
764.66	0.780
764.84	0.776
765.02	0.818
765.20	0.826
765.38	0.808
765.56	0.815
765.74	0.863
765.92	0.862
766.10	0.869
766.28	0.861
766.46	0.898
766.65	0.903
766.83	0.886
767.01	0.867
767.19	0.876
767.37	0.876
767.55	0.858
767.73	0.836
767.91	0.843
768.09	0.829
768.27	0.815
768.45	0.804
768.63	0.807
768.81	0.810
768.99	0.782
769.17	0.808
769.35	0.821
769.53	0.822
769.71	0.800
769.89	0.806
770.07	0.814
770.25	0.797
770.43	0.772
770.61	0.798
770.79	0.808
770.97	0.817
771.15	0.781
771.33	0.787
771.51	0.792
771.69	0.803
771.87	0.813
772.05	0.822
772.24	0.828
772.42	0.838
772.60	0.812
772.78	0.877
772.96	0.906
773.14	0.905
773.32	0.878
773.49	0.884
773.67	0.880
773.85	0.858
774.03	0.843
774.21	0.883
774.39	0.899
774.57	0.928
774.75	0.844
774.93	0.843
775.11	0.871
775.29	0.878
775.47	0.881
775.65	0.896
775.83	0.917
776.01	0.944
776.19	0.883
776.37	0.882
776.55	0.884
776.73	0.878
776.91	0.871
777.09	0.848
777.27	0.847
777.45	0.833
777.63	0.807
777.81	0.804
777.99	0.787
778.17	0.787
778.35	0.763
778.53	0.749
778.71	0.760
778.89	0.746
779.07	0.735
779.24	0.742
779.42	0.746
779.60	0.765
779.78	0.760
779.96	0.766
780.14	0.775
780.32	0.797
780.50	0.777
780.68	0.773
780.86	0.767
781.04	0.784
781.22	0.786
781.40	0.795
781.58	0.785
781.75	0.777
781.93	0.760
782.11	0.761
782.29	0.747
782.47	0.746
782.65	0.735
782.83	0.765
783.01	0.759
783.19	0.753
783.37	0.737
783.55	0.741
783.72	0.760
783.90	0.769
784.08	0.759
784.26	0.772
784.44	0.795
784.62	0.796
784.80	0.759
784.98	0.762
785.16	0.769
785.33	0.785
785.51	0.770
785.69	0.756
785.87	0.756
786.05	0.768
786.23	0.761
786.41	0.757
786.59	0.766
786.77	0.767
786.94	0.754
787.12	0.757
787.30	0.759
787.48	0.754
787.66	0.741
787.84	0.741
788.02	0.732
788.19	0.733
788.37	0.718
788.55	0.716
788.73	0.716
788.91	0.709
789.09	0.690
789.27	0.679
789.44	0.692
789.62	0.699
789.80	0.706
789.98	0.732
790.16	0.715
790.34	0.712
790.51	0.702
790.69	0.723
790.87	0.732
791.05	0.730
791.23	0.724
791.41	0.722
791.58	0.732
791.76	0.710
791.94	0.678
792.12	0.688
792.30	0.690
792.48	0.687
792.65	0.679
792.83	0.686
793.01	0.695
793.19	0.691
793.37	0.675
793.54	0.670
793.72	0.681
793.90	0.679
794.08	0.668
794.26	0.670
794.43	0.678
794.61	0.661
794.79	0.647
794.97	0.644
795.15	0.651
795.32	0.656
795.50	0.644
795.68	0.640
795.86	0.647
796.04	0.648
796.21	0.641
796.39	0.640
796.57	0.656
796.75	0.665
796.92	0.667
797.10	0.671
797.28	0.673
797.46	0.677
797.64	0.677
797.81	0.684
797.99	0.690
798.17	0.694
798.35	0.688
798.52	0.692
798.70	0.689
798.88	0.699
799.06	0.698
799.23	0.701
799.41	0.711
799.59	0.704
799.77	0.691
799.94	0.700
800.12	0.710
800.30	0.728
800.48	0.724
800.65	0.724
800.83	0.712
801.01	0.705
801.19	0.705
801.36	0.704
801.54	0.709
801.72	0.717
801.90	0.702
802.07	0.694
802.25	0.681
802.43	0.665
802.60	0.659
802.78	0.667
802.96	0.671
803.14	0.662
803.31	0.656
803.49	0.656
803.67	0.653
803.84	0.657
804.02	0.651
804.20	0.655
804.38	0.662
804.55	0.662
804.73	0.646
804.91	0.647
805.08	0.661
805.26	0.658
805.44	0.727
805.61	0.731
805.79	0.731
805.97	0.731
806.15	0.721
806.32	0.713
806.50	0.721
806.68	0.722
806.85	0.712
807.03	0.702
807.21	0.721
807.38	0.648
807.56	0.637
807.74	0.648
807.91	0.655
808.09	0.658
808.27	0.678
808.44	0.706
808.62	0.717
808.80	0.719
808.97	0.713
809.15	0.706
809.33	0.726
809.50	0.733
809.68	0.718
809.86	0.727
810.03	0.760
810.21	0.739
810.39	0.719
810.56	0.726
810.74	0.752
810.91	0.831
811.09	0.819
811.27	0.843
811.44	0.850
811.62	0.850
811.80	0.828
811.97	0.793
812.15	0.793
812.33	0.785
812.50	0.769
812.68	0.757
812.85	0.699
813.03	0.702
813.21	0.666
813.38	0.661
813.56	0.666
813.74	0.678
813.91	0.686
814.09	0.717
814.26	0.714
814.44	0.716
814.62	0.702
814.79	0.705
814.97	0.710
815.14	0.717
815.32	0.720
815.50	0.740
815.67	0.743
815.85	0.735
816.02	0.722
816.20	0.728
816.38	0.746
816.55	0.756
816.73	0.757
816.90	0.768
817.08	0.800
817.26	0.807
817.43	0.782
817.61	0.808
817.78	0.831
817.96	0.809
818.13	0.800
818.31	0.800
818.49	0.816
818.66	0.805
818.84	0.788
819.01	0.766
819.19	0.775
819.36	0.778
819.54	0.745
819.71	0.791
819.89	0.807
820.07	0.820
820.24	0.811
820.42	0.809
820.59	0.832
820.77	0.856
820.94	0.849
821.12	0.866
821.29	0.882
821.47	0.884
821.64	0.811
821.82	0.822
822.00	0.819
822.17	0.818
822.35	0.811
822.52	0.818
822.70	0.807
822.87	0.817
823.05	0.794
823.22	0.812
823.40	0.847
823.57	0.875
823.75	0.861
823.92	0.892
824.10	0.918
824.27	0.967
824.45	0.946
824.62	1.029
824.80	1.050
824.97	1.068
825.15	1.052
825.32	1.073
825.50	1.080
825.67	1.098
825.85	1.066
826.02	1.098
826.20	1.141
826.37	1.352
826.55	1.220
826.72	1.642
826.90	1.966
827.07	2.440
827.25	1.969
827.42	-0.000
827.60	-0.000
827.77	-0.000
827.95	-0.000
828.12	-0.000
828.30	-0.000
828.47	-0.000
828.65	2.123
828.82	-0.000
829.00	-0.000
829.17	-0.000
829.34	-0.000
829.52	-0.000
829.69	-0.000
829.87	-0.000
830.04	-0.000
830.22	-0.000
830.39	-0.000
830.57	-0.000
830.74	-0.000
830.92	-0.000
831.09	-0.000
831.26	-0.000
831.44	-0.000
831.61	-0.000
831.79	-0.000
831.96	-0.000
832.14	-0.000
832.31	-0.000
832.49	-0.000
832.66	-0.000
832.83	-0.000
833.01	-0.000
833.18	-0.000
833.36	-0.000
833.53	-0.000
833.70	-0.000
833.88	-0.000
834.05	-0.000
834.23	-0.000
834.40	-0.000
834.58	-0.000
834.75	-0.000
834.92	-0.000
835.10	-0.000
835.27	-0.000
835.45	-0.000
835.62	-0.000
835.79	-0.000
835.97	-0.000
836.14	-0.000
836.32	-0.000
836.49	-0.000
836.66	-0.000
836.84	-0.000
837.01	-0.000
837.18	-0.000
837.36	-0.000
837.53	-0.000
837.71	-0.000
837.88	-0.000
838.05	-0.000
838.23	-0.000
838.40	-0.000
838.58	-0.000
838.75	-0.000
838.92	-0.000
839.10	-0.000
839.27	-0.000
839.44	-0.000
839.62	-0.000
839.79	-0.000
839.96	-0.000
840.14	-0.000
840.31	-0.000
840.48	-0.000
840.66	-0.000
840.83	-0.000
841.01	-0.000
841.18	-0.000
841.35	-0.000
841.53	-0.000
841.70	-0.000
841.87	-0.000
842.05	-0.000
842.22	-0.000
842.39	-0.000
842.57	-0.000
842.74	-0.000
842.91	-0.000
843.09	-0.000
843.26	-0.000
843.43	-0.000
843.60	-0.000
843.78	-0.000
843.95	-0.000
844.12	-0.000
844.30	-0.000
844.47	-0.000
844.64	-0.000
844.82	-0.000
844.99	-0.000
845.16	-0.000
845.34	-0.000
845.51	-0.000
845.68	-0.000
845.85	-0.000
846.03	-0.000
846.20	-0.000
846.37	-0.000
846.55	-0.000
846.72	-0.000
846.89	-0.000
847.06	-0.000
847.24	-0.000
847.41	-0.000
847.58	-0.000
847.76	-0.000
847.93	-0.000
848.10	-0.000
848.27	-0.000
848.45	-0.000
848.62	-0.000
848.79	-0.000
848.97	-0.000
849.14	-0.000
849.31	-0.000
849.48	-0.000
849.66	-0.000
849.83	-0.000
850.00	-0.000
850.17	-0.000
850.35	-0.000
850.52	-0.000
850.69	-0.000
850.86	-0.000
851.04	-0.000
851.21	-0.000
851.38	-0.000
851.55	-0.000
851.72	-0.000
851.90	-0.000
852.07	-0.000
852.24	-0.000
852.41	-0.000
852.59	-0.000
852.76	-0.000
852.93	-0.000
853.10	-0.000
853.28	-0.000
853.45	-0.000
853.62	-0.000
853.79	-0.000
853.96	-0.000
854.14	-0.000
854.31	-0.000
854.48	-0.000
854.65	-0.000
854.82	-0.000
855.00	-0.000
855.17	-0.000
855.34	-0.000
855.51	-0.000
855.68	-0.000
855.86	-0.000
856.03	-0.000
856.20	-0.000
856.37	-0.000
856.54	-0.000
856.72	-0.000
856.89	-0.000
857.06	-0.000
857.23	-0.000
857.40	-0.000
857.57	-0.000
857.75	-0.000
857.92	-0.000
858.09	-0.000
858.26	-0.000
858.43	-0.000
858.60	-0.000
858.78	-0.000
858.95	-0.000
859.12	-0.000
859.29	-0.000
859.46	-0.000
859.63	-0.000
859.81	-0.000
859.98	-0.000
860.15	-0.000
860.32	-0.000
860.49	-0.000
860.66	-0.000
860.83	-0.000
861.01	-0.000
861.18	-0.000
861.35	-0.000
861.52	-0.000
861.69	-0.000
861.86	-0.000
862.03	-0.000
862.21	-0.000
862.38	-0.000
862.55	-0.000
862.72	-0.000
862.89	-0.000
863.06	-0.000
863.23	-0.000
863.40	-0.000
863.58	-0.000
863.75	-0.000
863.92	-0.000
864.09	-0.000
864.26	-0.000
864.43	-0.000
864.60	-0.000
864.77	-0.000
864.94	-0.000
865.11	-0.000
865.29	-0.000
865.46	-0.000
865.63	-0.000
865.80	-0.000
865.97	-0.000
866.14	-0.000
866.31	-0.000
866.48	-0.000
866.65	-0.000
866.82	-0.000
866.99	-0.000
867.16	-0.000
867.34	-0.000
867.51	-0.000
867.68	-0.000
867.85	-0.000
868.02	-0.000
868.19	-0.000
868.36	-0.000
868.53	-0.000
868.70	-0.000
868.87	-0.000
869.04	-0.000
869.21	-0.000
869.38	-0.000
869.55	-0.000
869.72	-0.000
869.89	-0.000
870.06	-0.000
870.24	-0.000
870.41	-0.000
870.58	-0.000
870.75	-0.000
870.92	-0.000
871.09	-0.000
871.26	-0.000
871.43	-0.000
871.60	-0.000
871.77	-0.000
871.94	-0.000
872.11	-0.000
872.28	-0.000
872.45	-0.000
872.62	-0.000
872.79	-0.000
872.96	-0.000
873.13	-0.000
873.30	-0.000
873.47	-0.000
873.64	-0.000
873.81	-0.000
873.98	-0.000
874.15	-0.000
874.32	-0.000
874.49	-0.000
874.66	-0.000
874.83	-0.000
875.00	-0.000
875.17	-0.000
875.34	-0.000
875.51	-0.000
875.68	-0.000
875.85	-0.000
876.02	-0.000
876.19	-0.000
876.36	-0.000
876.53	-0.000
876.70	-0.000
876.87	-0.000
877.04	-0.000
877.21	-0.000
877.38	-0.000
877.55	-0.000
877.72	-0.000
877.89	-0.000
878.06	-0.000
878.23	-0.000
878.39	-0.000
878.56	-0.000
878.73	-0.000
878.90	-0.000
879.07	-0.000
879.24	-0.000
879.41	-0.000
879.58	-0.000
879.75	-0.000
879.92	-0.000
880.09	-0.000
880.26	-0.000
880.43	-0.000
880.60	-0.000
880.77	-0.000
880.94	-0.000
881.11	-0.000
881.27	-0.000
881.44	-0.000
881.61	-0.000
881.78	-0.000
881.95	-0.000
882.12	-0.000
882.29	-0.000
882.46	-0.000
882.63	-0.000
882.80	-0.000
882.97	-0.000
883.14	-0.000
883.30	-0.000
883.47	-0.000
883.64	-0.000
883.81	-0.000
883.98	-0.000
884.15	-0.000
884.32	-0.000
884.49	-0.000
884.66	-0.000
884.82	-0.000
884.99	-0.000
885.16	-0.000
885.33	-0.000
885.50	-0.000
885.67	-0.000
885.84	-0.000
886.01	-0.000
886.17	-0.000
886.34	-0.000
886.51	-0.000
886.68	-0.000
886.85	-0.000
887.02	-0.000
887.19	-0.000
887.36	-0.000
887.52	-0.000
887.69	-0.000
887.86	-0.000
888.03	-0.000
888.20	-0.000
888.37	-0.000
888.54	-0.000
888.70	-0.000
888.87	-0.000
889.04	-0.000
889.21	-0.000
889.38	-0.000
889.55	-0.000
889.71	-0.000
889.88	-0.000
890.05	-0.000
890.22	-0.000
890.39	-0.000
>>>>>End Processed Spectral Data<<<<<
