SpectraSuite Data File
++++++++++++++++++++++++++++++++++++
Date: Fri Jun 19 15:17:47 CEST 2015
User: introlabs
Dark Spectrum Present: Yes
Reference Spectrum Present: Yes
Number of Sampled Component Spectra: 1
Spectrometers: USB4H08886
Integration Time (usec): 745692 (USB4H08886)
Spectra Averaged: 5 (USB4H08886)
Boxcar Smoothing: 5 (USB4H08886)
Correct for Electrical Dark: Yes (USB4H08886)
Strobe/Lamp Enabled: No (USB4H08886)
Correct for Detector Non-linearity: Yes (USB4H08886)
Correct for Stray Light: Yes (USB4H08886)
Number of Pixels in Processed Spectrum: 3648
>>>>>Begin Processed Spectral Data<<<<<
178.14	-0.000
178.36	-0.000
178.57	-0.000
178.79	-0.000
179.01	-0.000
179.22	-0.000
179.44	-0.000
179.65	-0.000
179.87	-0.000
180.08	-0.000
180.30	-0.000
180.52	-0.000
180.73	-0.000
180.95	-0.000
181.16	-0.000
181.38	-0.000
181.59	-0.000
181.81	-0.000
182.03	-0.000
182.24	-0.000
182.46	-0.000
182.67	-0.000
182.89	-0.000
183.10	-0.000
183.32	-0.000
183.54	-0.000
183.75	-0.000
183.97	-0.000
184.18	-0.000
184.40	-0.000
184.61	-0.000
184.83	-0.000
185.04	-0.000
185.26	-0.000
185.48	-0.000
185.69	-0.000
185.91	-0.000
186.12	-0.000
186.34	-0.000
186.55	-0.000
186.77	-0.000
186.98	-0.000
187.20	-0.000
187.42	-0.000
187.63	-0.000
187.85	-0.000
188.06	-0.000
188.28	-0.000
188.49	-0.000
188.71	-0.000
188.92	-0.000
189.14	-0.000
189.36	-0.000
189.57	-0.000
189.79	-0.000
190.00	-0.000
190.22	-0.000
190.43	-0.000
190.65	-0.000
190.86	-0.000
191.08	-0.000
191.29	-0.000
191.51	-0.000
191.72	-0.000
191.94	-0.000
192.16	-0.000
192.37	-0.000
192.59	-0.000
192.80	-0.000
193.02	-0.000
193.23	-0.000
193.45	-0.000
193.66	-0.000
193.88	-0.000
194.09	-0.000
194.31	-0.000
194.52	-0.000
194.74	-0.000
194.95	-0.000
195.17	-0.000
195.38	-0.000
195.60	-0.000
195.81	-0.000
196.03	-0.000
196.25	-0.000
196.46	-0.000
196.68	-0.000
196.89	-0.000
197.11	-0.000
197.32	-0.000
197.54	-0.000
197.75	-0.000
197.97	-0.000
198.18	-0.000
198.40	-0.000
198.61	-0.000
198.83	-0.000
199.04	-0.000
199.26	-0.000
199.47	-0.000
199.69	-0.000
199.90	-0.000
200.12	-0.000
200.33	-0.000
200.55	-0.000
200.76	-0.000
200.98	-0.000
201.19	-0.000
201.41	-0.000
201.62	-0.000
201.84	-0.000
202.05	-0.000
202.27	-0.000
202.48	-0.000
202.70	-0.000
202.91	-0.000
203.13	-0.000
203.34	-0.000
203.56	-0.000
203.77	-0.000
203.99	-0.000
204.20	-0.000
204.42	-0.000
204.63	-0.000
204.85	-0.000
205.06	-0.000
205.28	-0.000
205.49	-0.000
205.71	-0.000
205.92	-0.000
206.14	-0.000
206.35	-0.000
206.56	-0.000
206.78	-0.000
206.99	-0.000
207.21	-0.000
207.42	-0.000
207.64	-0.000
207.85	-0.000
208.07	-0.000
208.28	-0.000
208.50	-0.000
208.71	-0.000
208.93	-0.000
209.14	-0.000
209.36	-0.000
209.57	-0.000
209.79	-0.000
210.00	-0.000
210.22	-0.000
210.43	-0.000
210.64	-0.000
210.86	-0.000
211.07	-0.000
211.29	-0.000
211.50	-0.000
211.72	-0.000
211.93	-0.000
212.15	-0.000
212.36	-0.000
212.58	-0.000
212.79	-0.000
213.01	-0.000
213.22	-0.000
213.43	-0.000
213.65	-0.000
213.86	-0.000
214.08	-0.000
214.29	-0.000
214.51	-0.000
214.72	-0.000
214.94	-0.000
215.15	-0.000
215.36	-0.000
215.58	-0.000
215.79	-0.000
216.01	-0.000
216.22	-0.000
216.44	-0.000
216.65	-0.000
216.87	-0.000
217.08	-0.000
217.29	-0.000
217.51	-0.000
217.72	-0.000
217.94	-0.000
218.15	-0.000
218.37	-0.000
218.58	-0.000
218.80	-0.000
219.01	-0.000
219.22	-0.000
219.44	-0.000
219.65	-0.000
219.87	-0.000
220.08	-0.000
220.30	-0.000
220.51	-0.000
220.72	-0.000
220.94	-0.000
221.15	-0.000
221.37	-0.000
221.58	-0.000
221.79	-0.000
222.01	-0.000
222.22	-0.000
222.44	-0.000
222.65	-0.000
222.87	-0.000
223.08	-0.000
223.29	-0.000
223.51	-0.000
223.72	-0.000
223.94	-0.000
224.15	-0.000
224.36	-0.000
224.58	-0.000
224.79	-0.000
225.01	-0.000
225.22	-0.000
225.44	-0.000
225.65	-0.000
225.86	-0.000
226.08	-0.000
226.29	-0.000
226.51	-0.000
226.72	-0.000
226.93	-0.000
227.15	-0.000
227.36	-0.000
227.58	-0.000
227.79	-0.000
228.00	-0.000
228.22	-0.000
228.43	-0.000
228.65	-0.000
228.86	-0.000
229.07	-0.000
229.29	-0.000
229.50	-0.000
229.72	-0.000
229.93	-0.000
230.14	-0.000
230.36	-0.000
230.57	-0.000
230.78	-0.000
231.00	-0.000
231.21	-0.000
231.43	-0.000
231.64	-0.000
231.85	-0.000
232.07	-0.000
232.28	-0.000
232.50	-0.000
232.71	-0.000
232.92	-0.000
233.14	-0.000
233.35	-0.000
233.56	-0.000
233.78	-0.000
233.99	-0.000
234.21	-0.000
234.42	-0.000
234.63	-0.000
234.85	-0.000
235.06	-0.000
235.27	-0.000
235.49	-0.000
235.70	-0.000
235.91	-0.000
236.13	-0.000
236.34	-0.000
236.56	-0.000
236.77	-0.000
236.98	-0.000
237.20	-0.000
237.41	-0.000
237.62	-0.000
237.84	-0.000
238.05	-0.000
238.26	-0.000
238.48	-0.000
238.69	-0.000
238.91	-0.000
239.12	-0.000
239.33	-0.000
239.55	-0.000
239.76	-0.000
239.97	-0.000
240.19	-0.000
240.40	-0.000
240.61	-0.000
240.83	-0.000
241.04	-0.000
241.25	-0.000
241.47	-0.000
241.68	-0.000
241.89	-0.000
242.11	-0.000
242.32	-0.000
242.53	-0.000
242.75	-0.000
242.96	-0.000
243.17	-0.000
243.39	-0.000
243.60	-0.000
243.81	-0.000
244.03	-0.000
244.24	-0.000
244.45	-0.000
244.67	-0.000
244.88	-0.000
245.09	-0.000
245.31	-0.000
245.52	-0.000
245.73	-0.000
245.95	-0.000
246.16	-0.000
246.37	-0.000
246.59	-0.000
246.80	-0.000
247.01	-0.000
247.23	-0.000
247.44	-0.000
247.65	-0.000
247.87	-0.000
248.08	-0.000
248.29	-0.000
248.51	-0.000
248.72	-0.000
248.93	-0.000
249.15	-0.000
249.36	-0.000
249.57	-0.000
249.78	-0.000
250.00	-0.000
250.21	-0.000
250.42	-0.000
250.64	-0.000
250.85	-0.000
251.06	-0.000
251.28	-0.000
251.49	-0.000
251.70	-0.000
251.92	-0.000
252.13	-0.000
252.34	-0.000
252.55	-0.000
252.77	-0.000
252.98	-0.000
253.19	-0.000
253.41	-0.000
253.62	-0.000
253.83	-0.000
254.05	-0.000
254.26	-0.000
254.47	-0.000
254.68	-0.000
254.90	-0.000
255.11	-0.000
255.32	-0.000
255.54	-0.000
255.75	-0.000
255.96	-0.000
256.17	-0.000
256.39	-0.000
256.60	-0.000
256.81	-0.000
257.03	-0.000
257.24	-0.000
257.45	-0.000
257.66	-0.000
257.88	-0.000
258.09	-0.000
258.30	-0.000
258.51	-0.000
258.73	-0.000
258.94	-0.000
259.15	-0.000
259.37	-0.000
259.58	-0.000
259.79	-0.000
260.00	-0.000
260.22	-0.000
260.43	-0.000
260.64	-0.000
260.85	-0.000
261.07	-0.000
261.28	-0.000
261.49	-0.000
261.71	-0.000
261.92	-0.000
262.13	-0.000
262.34	-0.000
262.56	-0.000
262.77	-0.000
262.98	-0.000
263.19	-0.000
263.41	-0.000
263.62	-0.000
263.83	-0.000
264.04	-0.000
264.26	-0.000
264.47	-0.000
264.68	-0.000
264.89	-0.000
265.11	-0.000
265.32	-0.000
265.53	-0.000
265.74	-0.000
265.96	-0.000
266.17	-0.000
266.38	-0.000
266.59	-0.000
266.81	-0.000
267.02	-0.000
267.23	-0.000
267.44	-0.000
267.65	-0.000
267.87	-0.000
268.08	-0.000
268.29	-0.000
268.50	-0.000
268.72	-0.000
268.93	-0.000
269.14	-0.000
269.35	-0.000
269.57	-0.000
269.78	-0.000
269.99	-0.000
270.20	-0.000
270.41	-0.000
270.63	-0.000
270.84	-0.000
271.05	-0.000
271.26	-0.000
271.48	-0.000
271.69	-0.000
271.90	-0.000
272.11	-0.000
272.32	-0.000
272.54	-0.000
272.75	-0.000
272.96	-0.000
273.17	-0.000
273.39	-0.000
273.60	-0.000
273.81	-0.000
274.02	-0.000
274.23	-0.000
274.45	-0.000
274.66	-0.000
274.87	-0.000
275.08	-0.000
275.29	-0.000
275.51	-0.000
275.72	-0.000
275.93	-0.000
276.14	-0.000
276.35	-0.000
276.57	-0.000
276.78	-0.000
276.99	-0.000
277.20	-0.000
277.41	-0.000
277.63	-0.000
277.84	-0.000
278.05	-0.000
278.26	-0.000
278.47	-0.000
278.69	-0.000
278.90	-0.000
279.11	-0.000
279.32	-0.000
279.53	-0.000
279.74	-0.000
279.96	-0.000
280.17	-0.000
280.38	-0.000
280.59	-0.000
280.80	-0.000
281.02	-0.000
281.23	-0.000
281.44	-0.000
281.65	-0.000
281.86	-0.000
282.07	-0.000
282.29	-0.000
282.50	-0.000
282.71	-0.000
282.92	-0.000
283.13	-0.000
283.35	-0.000
283.56	-0.000
283.77	-0.000
283.98	-0.000
284.19	-0.000
284.40	-0.000
284.62	-0.000
284.83	-0.000
285.04	-0.000
285.25	-0.000
285.46	-0.000
285.67	-0.000
285.88	-0.000
286.10	-0.000
286.31	-0.000
286.52	-0.000
286.73	-0.000
286.94	-0.000
287.15	-0.000
287.37	-0.000
287.58	-0.000
287.79	-0.000
288.00	-0.000
288.21	-0.000
288.42	-0.000
288.63	-0.000
288.85	-0.000
289.06	-0.000
289.27	-0.000
289.48	-0.000
289.69	-0.000
289.90	-0.000
290.11	-0.000
290.33	-0.000
290.54	-0.000
290.75	-0.000
290.96	-0.000
291.17	-0.000
291.38	-0.000
291.59	-0.000
291.81	-0.000
292.02	-0.000
292.23	-0.000
292.44	-0.000
292.65	-0.000
292.86	-0.000
293.07	-0.000
293.28	-0.000
293.50	-0.000
293.71	-0.000
293.92	-0.000
294.13	-0.000
294.34	-0.000
294.55	-0.000
294.76	-0.000
294.97	-0.000
295.19	-0.000
295.40	-0.000
295.61	-0.000
295.82	-0.000
296.03	-0.000
296.24	-0.000
296.45	2.063
296.66	1.755
296.87	1.770
297.09	1.843
297.30	2.041
297.51	1.705
297.72	1.674
297.93	1.752
298.14	1.718
298.35	1.680
298.56	1.665
298.77	1.773
298.99	1.745
299.20	1.727
299.41	1.703
299.62	1.650
299.83	1.641
300.04	1.585
300.25	1.581
300.46	1.622
300.67	1.594
300.88	1.547
301.10	1.549
301.31	1.620
301.52	1.557
301.73	1.513
301.94	1.518
302.15	1.527
302.36	1.479
302.57	1.422
302.78	1.431
302.99	1.473
303.20	1.492
303.41	1.410
303.63	1.393
303.84	1.397
304.05	1.391
304.26	1.333
304.47	1.335
304.68	1.335
304.89	1.324
305.10	1.284
305.31	1.268
305.52	1.309
305.73	1.297
305.94	1.259
306.15	1.253
306.37	1.273
306.58	1.284
306.79	1.260
307.00	1.284
307.21	1.322
307.42	1.318
307.63	1.286
307.84	1.251
308.05	1.286
308.26	1.285
308.47	1.264
308.68	1.258
308.89	1.253
309.10	1.249
309.31	1.211
309.52	1.203
309.73	1.216
309.95	1.212
310.16	1.184
310.37	1.172
310.58	1.191
310.79	1.189
311.00	1.189
311.21	1.192
311.42	1.191
311.63	1.186
311.84	1.169
312.05	1.167
312.26	1.188
312.47	1.201
312.68	1.180
312.89	1.163
313.10	1.167
313.31	1.141
313.52	1.143
313.73	1.145
313.94	1.148
314.15	1.132
314.36	1.113
314.57	1.105
314.78	1.092
314.99	1.087
315.21	1.075
315.42	1.082
315.63	1.092
315.84	1.071
316.05	1.059
316.26	1.066
316.47	1.081
316.68	1.076
316.89	1.059
317.10	1.077
317.31	1.082
317.52	1.085
317.73	1.064
317.94	1.062
318.15	1.102
318.36	1.101
318.57	1.086
318.78	1.075
318.99	1.108
319.20	1.104
319.41	1.073
319.62	1.074
319.83	1.084
320.04	1.082
320.25	1.071
320.46	1.038
320.67	1.039
320.88	1.036
321.09	1.022
321.30	1.009
321.51	1.025
321.72	1.022
321.93	1.006
322.14	0.999
322.35	1.024
322.56	1.027
322.77	1.016
322.98	1.028
323.19	1.034
323.40	1.040
323.61	1.019
323.82	1.014
324.03	1.020
324.24	1.017
324.45	1.005
324.66	0.985
324.87	0.980
325.08	0.979
325.29	0.959
325.50	0.957
325.71	0.962
325.92	0.970
326.13	0.957
326.34	0.958
326.55	0.966
326.76	0.966
326.97	0.956
327.18	0.951
327.39	0.976
327.60	0.978
327.80	0.975
328.01	0.975
328.22	0.974
328.43	0.978
328.64	0.965
328.85	0.970
329.06	0.970
329.27	0.969
329.48	0.966
329.69	0.947
329.90	0.957
330.11	0.950
330.32	0.943
330.53	0.934
330.74	0.933
330.95	0.931
331.16	0.918
331.37	0.926
331.58	0.925
331.79	0.925
332.00	0.916
332.21	0.909
332.42	0.912
332.63	0.904
332.83	0.902
333.04	0.905
333.25	0.916
333.46	0.914
333.67	0.901
333.88	0.903
334.09	0.913
334.30	0.909
334.51	0.901
334.72	0.897
334.93	0.900
335.14	0.899
335.35	0.892
335.56	0.888
335.77	0.897
335.98	0.896
336.18	0.889
336.39	0.882
336.60	0.886
336.81	0.884
337.02	0.885
337.23	0.889
337.44	0.893
337.65	0.894
337.86	0.884
338.07	0.878
338.28	0.882
338.49	0.880
338.70	0.872
338.91	0.879
339.11	0.886
339.32	0.881
339.53	0.869
339.74	0.866
339.95	0.862
340.16	0.861
340.37	0.854
340.58	0.852
340.79	0.856
341.00	0.856
341.21	0.846
341.41	0.845
341.62	0.846
341.83	0.847
342.04	0.843
342.25	0.853
342.46	0.857
342.67	0.856
342.88	0.849
343.09	0.849
343.30	0.855
343.50	0.858
343.71	0.848
343.92	0.847
344.13	0.852
344.34	0.852
344.55	0.836
344.76	0.834
344.97	0.838
345.18	0.837
345.38	0.834
345.59	0.828
345.80	0.828
346.01	0.826
346.22	0.823
346.43	0.816
346.64	0.822
346.85	0.823
347.06	0.817
347.26	0.818
347.47	0.821
347.68	0.817
347.89	0.814
348.10	0.809
348.31	0.815
348.52	0.814
348.73	0.812
348.93	0.810
349.14	0.811
349.35	0.810
349.56	0.805
349.77	0.800
349.98	0.806
350.19	0.803
350.39	0.799
350.60	0.795
350.81	0.811
351.02	0.810
351.23	0.805
351.44	0.807
351.65	0.809
351.86	0.806
352.06	0.806
352.27	0.806
352.48	0.806
352.69	0.805
352.90	0.800
353.11	0.786
353.31	0.793
353.52	0.790
353.73	0.783
353.94	0.786
354.15	0.791
354.36	0.791
354.57	0.782
354.77	0.785
354.98	0.784
355.19	0.784
355.40	0.784
355.61	0.788
355.82	0.791
356.02	0.791
356.23	0.783
356.44	0.784
356.65	0.787
356.86	0.787
357.07	0.782
357.27	0.785
357.48	0.788
357.69	0.784
357.90	0.769
358.11	0.766
358.32	0.768
358.52	0.772
358.73	0.762
358.94	0.764
359.15	0.769
359.36	0.769
359.56	0.764
359.77	0.762
359.98	0.768
360.19	0.767
360.40	0.765
360.61	0.766
360.81	0.764
361.02	0.763
361.23	0.756
361.44	0.755
361.65	0.755
361.85	0.754
362.06	0.753
362.27	0.755
362.48	0.754
362.69	0.756
362.89	0.750
363.10	0.752
363.31	0.757
363.52	0.760
363.73	0.756
363.93	0.756
364.14	0.758
364.35	0.760
364.56	0.750
364.77	0.753
364.97	0.754
365.18	0.754
365.39	0.749
365.60	0.746
365.81	0.746
366.01	0.746
366.22	0.742
366.43	0.741
366.64	0.742
366.84	0.748
367.05	0.744
367.26	0.744
367.47	0.745
367.68	0.746
367.88	0.743
368.09	0.741
368.30	0.743
368.51	0.743
368.71	0.743
368.92	0.747
369.13	0.744
369.34	0.744
369.55	0.743
369.75	0.743
369.96	0.749
370.17	0.749
370.38	0.747
370.58	0.746
370.79	0.751
371.00	0.750
371.21	0.742
371.41	0.748
371.62	0.752
371.83	0.748
372.04	0.746
372.24	0.739
372.45	0.740
372.66	0.740
372.87	0.737
373.07	0.734
373.28	0.735
373.49	0.738
373.70	0.728
373.90	0.727
374.11	0.736
374.32	0.736
374.53	0.735
374.73	0.735
374.94	0.738
375.15	0.737
375.36	0.735
375.56	0.743
375.77	0.743
375.98	0.743
376.19	0.740
376.39	0.734
376.60	0.738
376.81	0.738
377.02	0.736
377.22	0.734
377.43	0.735
377.64	0.735
377.84	0.726
378.05	0.731
378.26	0.736
378.47	0.736
378.67	0.733
378.88	0.731
379.09	0.731
379.30	0.731
379.50	0.729
379.71	0.731
379.92	0.733
380.12	0.733
380.33	0.725
380.54	0.721
380.75	0.728
380.95	0.728
381.16	0.726
381.37	0.726
381.57	0.727
381.78	0.729
381.99	0.728
382.20	0.728
382.40	0.731
382.61	0.731
382.82	0.728
383.02	0.723
383.23	0.726
383.44	0.725
383.64	0.724
383.85	0.726
384.06	0.729
384.27	0.726
384.47	0.725
384.68	0.725
384.89	0.731
385.09	0.730
385.30	0.730
385.51	0.728
385.71	0.732
385.92	0.732
386.13	0.731
386.33	0.733
386.54	0.734
386.75	0.733
386.95	0.729
387.16	0.724
387.37	0.727
387.58	0.726
387.78	0.726
387.99	0.723
388.20	0.726
388.40	0.723
388.61	0.719
388.82	0.722
389.02	0.724
389.23	0.725
389.44	0.723
389.64	0.724
389.85	0.734
390.06	0.734
390.26	0.735
390.47	0.734
390.68	0.736
390.88	0.735
391.09	0.731
391.30	0.729
391.50	0.728
391.71	0.729
391.92	0.726
392.12	0.718
392.33	0.719
392.53	0.718
392.74	0.719
392.95	0.718
393.15	0.721
393.36	0.723
393.57	0.722
393.77	0.726
393.98	0.727
394.19	0.727
394.39	0.726
394.60	0.728
394.81	0.730
395.01	0.728
395.22	0.726
395.43	0.727
395.63	0.731
395.84	0.733
396.04	0.729
396.25	0.731
396.46	0.733
396.66	0.732
396.87	0.730
397.08	0.727
397.28	0.729
397.49	0.730
397.69	0.727
397.90	0.722
398.11	0.723
398.31	0.723
398.52	0.720
398.73	0.722
398.93	0.721
399.14	0.719
399.34	0.718
399.55	0.719
399.76	0.719
399.96	0.720
400.17	0.719
400.37	0.717
400.58	0.724
400.79	0.725
400.99	0.722
401.20	0.728
401.41	0.731
401.61	0.732
401.82	0.737
402.02	0.738
402.23	0.739
402.44	0.739
402.64	0.739
402.85	0.733
403.05	0.731
403.26	0.730
403.47	0.725
403.67	0.724
403.88	0.724
404.08	0.718
404.29	0.716
404.50	0.716
404.70	0.716
404.91	0.715
405.11	0.712
405.32	0.714
405.52	0.714
405.73	0.713
405.94	0.712
406.14	0.715
406.35	0.717
406.55	0.717
406.76	0.714
406.97	0.715
407.17	0.718
407.38	0.718
407.58	0.716
407.79	0.719
407.99	0.721
408.20	0.722
408.41	0.718
408.61	0.715
408.82	0.716
409.02	0.717
409.23	0.715
409.43	0.714
409.64	0.715
409.84	0.714
410.05	0.711
410.26	0.710
410.46	0.709
410.67	0.708
410.87	0.710
411.08	0.712
411.28	0.713
411.49	0.714
411.69	0.712
411.90	0.713
412.11	0.715
412.31	0.716
412.52	0.715
412.72	0.716
412.93	0.717
413.13	0.716
413.34	0.713
413.54	0.714
413.75	0.716
413.95	0.715
414.16	0.712
414.37	0.716
414.57	0.716
414.78	0.718
414.98	0.716
415.19	0.717
415.39	0.714
415.60	0.716
415.80	0.715
416.01	0.713
416.21	0.715
416.42	0.715
416.62	0.709
416.83	0.709
417.03	0.708
417.24	0.709
417.44	0.707
417.65	0.706
417.86	0.706
418.06	0.704
418.27	0.702
418.47	0.704
418.68	0.705
418.88	0.706
419.09	0.704
419.29	0.705
419.50	0.705
419.70	0.706
419.91	0.705
420.11	0.703
420.32	0.705
420.52	0.704
420.73	0.703
420.93	0.703
421.14	0.705
421.34	0.703
421.55	0.700
421.75	0.700
421.96	0.701
422.16	0.700
422.37	0.699
422.57	0.697
422.78	0.698
422.98	0.695
423.19	0.693
423.39	0.690
423.60	0.695
423.80	0.696
424.01	0.695
424.21	0.696
424.42	0.698
424.62	0.697
424.83	0.696
425.03	0.697
425.23	0.698
425.44	0.699
425.64	0.700
425.85	0.698
426.05	0.698
426.26	0.699
426.46	0.696
426.67	0.695
426.87	0.700
427.08	0.701
427.28	0.698
427.49	0.699
427.69	0.700
427.90	0.698
428.10	0.696
428.31	0.696
428.51	0.697
428.71	0.696
428.92	0.697
429.12	0.694
429.33	0.695
429.53	0.699
429.74	0.703
429.94	0.703
430.15	0.703
430.35	0.703
430.56	0.700
430.76	0.698
430.96	0.699
431.17	0.696
431.37	0.693
431.58	0.691
431.78	0.688
431.99	0.681
432.19	0.683
432.40	0.685
432.60	0.685
432.80	0.688
433.01	0.686
433.21	0.686
433.42	0.689
433.62	0.689
433.83	0.689
434.03	0.691
434.23	0.693
434.44	0.692
434.64	0.689
434.85	0.694
435.05	0.695
435.26	0.696
435.46	0.694
435.66	0.693
435.87	0.694
436.07	0.693
436.28	0.689
436.48	0.686
436.69	0.686
436.89	0.686
437.09	0.679
437.30	0.678
437.50	0.677
437.71	0.689
437.91	0.688
438.11	0.689
438.32	0.694
438.52	0.694
438.73	0.693
438.93	0.692
439.13	0.691
439.34	0.695
439.54	0.693
439.75	0.694
439.95	0.684
440.15	0.688
440.36	0.687
440.56	0.684
440.77	0.685
440.97	0.685
441.17	0.684
441.38	0.685
441.58	0.682
441.79	0.682
441.99	0.681
442.19	0.680
442.40	0.677
442.60	0.677
442.81	0.675
443.01	0.675
443.21	0.675
443.42	0.675
443.62	0.673
443.82	0.673
444.03	0.674
444.23	0.673
444.44	0.673
444.64	0.672
444.84	0.673
445.05	0.673
445.25	0.671
445.45	0.671
445.66	0.673
445.86	0.672
446.06	0.674
446.27	0.673
446.47	0.676
446.68	0.674
446.88	0.673
447.08	0.672
447.29	0.674
447.49	0.674
447.69	0.673
447.90	0.672
448.10	0.675
448.30	0.672
448.51	0.673
448.71	0.671
448.91	0.673
449.12	0.672
449.32	0.674
449.52	0.672
449.73	0.676
449.93	0.675
450.14	0.676
450.34	0.675
450.54	0.678
450.75	0.676
450.95	0.675
451.15	0.674
451.36	0.677
451.56	0.673
451.76	0.673
451.97	0.670
452.17	0.670
452.37	0.668
452.58	0.665
452.78	0.664
452.98	0.666
453.19	0.666
453.39	0.666
453.59	0.664
453.79	0.666
454.00	0.666
454.20	0.665
454.40	0.665
454.61	0.667
454.81	0.668
455.01	0.666
455.22	0.668
455.42	0.670
455.62	0.667
455.83	0.667
456.03	0.670
456.23	0.671
456.44	0.672
456.64	0.670
456.84	0.670
457.04	0.671
457.25	0.670
457.45	0.667
457.65	0.665
457.86	0.666
458.06	0.665
458.26	0.661
458.47	0.660
458.67	0.661
458.87	0.662
459.07	0.659
459.28	0.660
459.48	0.663
459.68	0.663
459.89	0.662
460.09	0.661
460.29	0.662
460.49	0.663
460.70	0.663
460.90	0.661
461.10	0.663
461.31	0.662
461.51	0.660
461.71	0.661
461.91	0.662
462.12	0.662
462.32	0.661
462.52	0.662
462.72	0.665
462.93	0.664
463.13	0.664
463.33	0.664
463.53	0.665
463.74	0.665
463.94	0.661
464.14	0.662
464.35	0.663
464.55	0.663
464.75	0.662
464.95	0.659
465.16	0.661
465.36	0.660
465.56	0.659
465.76	0.658
465.97	0.659
466.17	0.659
466.37	0.657
466.57	0.658
466.78	0.658
466.98	0.658
467.18	0.656
467.38	0.654
467.59	0.656
467.79	0.657
467.99	0.657
468.19	0.657
468.39	0.660
468.60	0.661
468.80	0.659
469.00	0.660
469.20	0.661
469.41	0.661
469.61	0.661
469.81	0.662
470.01	0.661
470.22	0.661
470.42	0.660
470.62	0.658
470.82	0.658
471.02	0.658
471.23	0.656
471.43	0.656
471.63	0.659
471.83	0.659
472.04	0.657
472.24	0.656
472.44	0.661
472.64	0.661
472.84	0.660
473.05	0.660
473.25	0.663
473.45	0.662
473.65	0.661
473.85	0.660
474.06	0.661
474.26	0.660
474.46	0.661
474.66	0.658
474.86	0.658
475.07	0.658
475.27	0.656
475.47	0.653
475.67	0.654
475.87	0.656
476.08	0.653
476.28	0.655
476.48	0.656
476.68	0.654
476.88	0.653
477.09	0.654
477.29	0.655
477.49	0.656
477.69	0.655
477.89	0.655
478.09	0.654
478.30	0.657
478.50	0.654
478.70	0.654
478.90	0.654
479.10	0.657
479.31	0.657
479.51	0.655
479.71	0.655
479.91	0.656
480.11	0.655
480.31	0.655
480.52	0.654
480.72	0.654
480.92	0.653
481.12	0.652
481.32	0.649
481.52	0.648
481.72	0.648
481.93	0.652
482.13	0.653
482.33	0.652
482.53	0.650
482.73	0.651
482.93	0.652
483.14	0.651
483.34	0.651
483.54	0.651
483.74	0.650
483.94	0.650
484.14	0.645
484.34	0.645
484.55	0.645
484.75	0.645
484.95	0.643
485.15	0.642
485.35	0.642
485.55	0.642
485.75	0.640
485.96	0.640
486.16	0.641
486.36	0.641
486.56	0.639
486.76	0.640
486.96	0.640
487.16	0.639
487.36	0.638
487.57	0.637
487.77	0.638
487.97	0.638
488.17	0.637
488.37	0.636
488.57	0.636
488.77	0.636
488.97	0.634
489.18	0.634
489.38	0.636
489.58	0.637
489.78	0.636
489.98	0.636
490.18	0.635
490.38	0.636
490.58	0.635
490.78	0.636
490.98	0.638
491.19	0.638
491.39	0.638
491.59	0.637
491.79	0.639
491.99	0.640
492.19	0.640
492.39	0.643
492.59	0.643
492.79	0.645
492.99	0.645
493.20	0.645
493.40	0.645
493.60	0.646
493.80	0.644
494.00	0.642
494.20	0.643
494.40	0.642
494.60	0.639
494.80	0.644
495.00	0.642
495.20	0.641
495.40	0.640
495.61	0.641
495.81	0.641
496.01	0.645
496.21	0.646
496.41	0.645
496.61	0.646
496.81	0.645
497.01	0.640
497.21	0.640
497.41	0.640
497.61	0.640
497.81	0.638
498.01	0.638
498.21	0.636
498.41	0.634
498.61	0.634
498.82	0.635
499.02	0.637
499.22	0.637
499.42	0.637
499.62	0.638
499.82	0.638
500.02	0.640
500.22	0.638
500.42	0.640
500.62	0.641
500.82	0.641
501.02	0.639
501.22	0.639
501.42	0.639
501.62	0.641
501.82	0.641
502.02	0.641
502.22	0.640
502.42	0.642
502.62	0.640
502.82	0.640
503.02	0.640
503.22	0.639
503.42	0.638
503.63	0.637
503.83	0.635
504.03	0.634
504.23	0.633
504.43	0.633
504.63	0.634
504.83	0.634
505.03	0.633
505.23	0.635
505.43	0.637
505.63	0.638
505.83	0.638
506.03	0.640
506.23	0.641
506.43	0.642
506.63	0.641
506.83	0.640
507.03	0.642
507.23	0.642
507.43	0.639
507.63	0.639
507.83	0.639
508.03	0.639
508.23	0.639
508.43	0.637
508.63	0.639
508.83	0.639
509.03	0.640
509.23	0.639
509.43	0.639
509.63	0.640
509.83	0.639
510.03	0.641
510.23	0.643
510.43	0.643
510.63	0.643
510.83	0.643
511.03	0.645
511.23	0.642
511.43	0.642
511.63	0.644
511.83	0.646
512.03	0.646
512.22	0.643
512.42	0.642
512.62	0.643
512.82	0.642
513.02	0.641
513.22	0.641
513.42	0.644
513.62	0.647
513.82	0.644
514.02	0.643
514.22	0.644
514.42	0.645
514.62	0.645
514.82	0.645
515.02	0.648
515.22	0.651
515.42	0.650
515.62	0.652
515.82	0.651
516.02	0.652
516.22	0.653
516.42	0.654
516.62	0.656
516.82	0.656
517.01	0.655
517.21	0.654
517.41	0.657
517.61	0.657
517.81	0.654
518.01	0.653
518.21	0.652
518.41	0.651
518.61	0.650
518.81	0.650
519.01	0.651
519.21	0.651
519.41	0.650
519.61	0.645
519.81	0.647
520.00	0.648
520.20	0.648
520.40	0.651
520.60	0.652
520.80	0.651
521.00	0.652
521.20	0.653
521.40	0.657
521.60	0.658
521.80	0.657
522.00	0.658
522.20	0.660
522.39	0.659
522.59	0.656
522.79	0.657
522.99	0.659
523.19	0.658
523.39	0.656
523.59	0.654
523.79	0.656
523.99	0.658
524.19	0.657
524.38	0.656
524.58	0.657
524.78	0.657
524.98	0.655
525.18	0.658
525.38	0.658
525.58	0.659
525.78	0.657
525.98	0.655
526.18	0.655
526.37	0.654
526.57	0.656
526.77	0.657
526.97	0.657
527.17	0.658
527.37	0.654
527.57	0.657
527.77	0.658
527.96	0.658
528.16	0.658
528.36	0.659
528.56	0.661
528.76	0.659
528.96	0.658
529.16	0.658
529.36	0.662
529.55	0.662
529.75	0.659
529.95	0.659
530.15	0.660
530.35	0.662
530.55	0.660
530.75	0.660
530.94	0.661
531.14	0.661
531.34	0.660
531.54	0.658
531.74	0.661
531.94	0.664
532.13	0.662
532.33	0.664
532.53	0.662
532.73	0.662
532.93	0.661
533.13	0.662
533.33	0.662
533.52	0.663
533.72	0.667
533.92	0.665
534.12	0.663
534.32	0.663
534.52	0.661
534.71	0.663
534.91	0.666
535.11	0.668
535.31	0.666
535.51	0.668
535.71	0.670
535.90	0.666
536.10	0.667
536.30	0.669
536.50	0.670
536.70	0.670
536.89	0.668
537.09	0.667
537.29	0.669
537.49	0.669
537.69	0.667
537.89	0.668
538.08	0.668
538.28	0.666
538.48	0.666
538.68	0.667
538.88	0.669
539.07	0.669
539.27	0.667
539.47	0.666
539.67	0.666
539.87	0.667
540.06	0.664
540.26	0.665
540.46	0.668
540.66	0.665
540.86	0.664
541.05	0.663
541.25	0.665
541.45	0.666
541.65	0.664
541.84	0.666
542.04	0.667
542.24	0.668
542.44	0.667
542.64	0.668
542.83	0.671
543.03	0.671
543.23	0.669
543.43	0.669
543.62	0.670
543.82	0.670
544.02	0.669
544.22	0.669
544.42	0.672
544.61	0.673
544.81	0.670
545.01	0.668
545.21	0.670
545.40	0.671
545.60	0.670
545.80	0.673
546.00	0.673
546.19	0.673
546.39	0.671
546.59	0.668
546.79	0.669
546.98	0.670
547.18	0.669
547.38	0.669
547.58	0.672
547.77	0.672
547.97	0.668
548.17	0.669
548.37	0.669
548.56	0.670
548.76	0.669
548.96	0.671
549.16	0.673
549.35	0.673
549.55	0.671
549.75	0.671
549.95	0.674
550.14	0.675
550.34	0.674
550.54	0.679
550.73	0.683
550.93	0.683
551.13	0.680
551.33	0.679
551.52	0.680
551.72	0.680
551.92	0.678
552.12	0.679
552.31	0.679
552.51	0.679
552.71	0.674
552.90	0.675
553.10	0.676
553.30	0.676
553.50	0.676
553.69	0.677
553.89	0.677
554.09	0.678
554.28	0.674
554.48	0.676
554.68	0.677
554.87	0.678
555.07	0.675
555.27	0.674
555.47	0.676
555.66	0.677
555.86	0.675
556.06	0.677
556.25	0.678
556.45	0.685
556.65	0.684
556.84	0.687
557.04	0.690
557.24	0.691
557.43	0.691
557.63	0.694
557.83	0.695
558.02	0.696
558.22	0.700
558.42	0.700
558.61	0.693
558.81	0.694
559.01	0.690
559.21	0.690
559.40	0.691
559.60	0.692
559.80	0.688
559.99	0.689
560.19	0.691
560.39	0.686
560.58	0.684
560.78	0.684
560.97	0.687
561.17	0.686
561.37	0.684
561.56	0.684
561.76	0.685
561.96	0.685
562.15	0.683
562.35	0.686
562.55	0.686
562.74	0.686
562.94	0.684
563.14	0.683
563.33	0.683
563.53	0.683
563.73	0.681
563.92	0.682
564.12	0.685
564.31	0.686
564.51	0.684
564.71	0.686
564.90	0.688
565.10	0.689
565.30	0.692
565.49	0.693
565.69	0.695
565.89	0.695
566.08	0.692
566.28	0.694
566.47	0.695
566.67	0.694
566.87	0.692
567.06	0.694
567.26	0.701
567.46	0.697
567.65	0.697
567.85	0.698
568.04	0.701
568.24	0.701
568.44	0.698
568.63	0.697
568.83	0.697
569.02	0.695
569.22	0.691
569.42	0.687
569.61	0.688
569.81	0.688
570.00	0.686
570.20	0.686
570.40	0.687
570.59	0.687
570.79	0.685
570.98	0.683
571.18	0.685
571.38	0.685
571.57	0.683
571.77	0.681
571.96	0.684
572.16	0.682
572.35	0.677
572.55	0.678
572.75	0.676
572.94	0.675
573.14	0.674
573.33	0.674
573.53	0.674
573.73	0.673
573.92	0.671
574.12	0.669
574.31	0.672
574.51	0.673
574.70	0.670
574.90	0.671
575.09	0.674
575.29	0.674
575.49	0.672
575.68	0.672
575.88	0.674
576.07	0.675
576.27	0.673
576.46	0.671
576.66	0.670
576.86	0.670
577.05	0.668
577.25	0.666
577.44	0.667
577.64	0.667
577.83	0.665
578.03	0.667
578.22	0.666
578.42	0.665
578.61	0.664
578.81	0.664
579.00	0.664
579.20	0.663
579.40	0.663
579.59	0.661
579.79	0.662
579.98	0.661
580.18	0.660
580.37	0.660
580.57	0.662
580.76	0.667
580.96	0.665
581.15	0.667
581.35	0.669
581.54	0.668
581.74	0.668
581.93	0.669
582.13	0.669
582.32	0.666
582.52	0.664
582.71	0.663
582.91	0.659
583.10	0.659
583.30	0.657
583.49	0.656
583.69	0.660
583.88	0.661
584.08	0.660
584.27	0.664
584.47	0.667
584.66	0.668
584.86	0.668
585.05	0.670
585.25	0.673
585.44	0.673
585.64	0.672
585.83	0.669
586.03	0.669
586.22	0.667
586.42	0.662
586.61	0.664
586.81	0.665
587.00	0.665
587.20	0.662
587.39	0.662
587.59	0.664
587.78	0.665
587.98	0.665
588.17	0.666
588.37	0.668
588.56	0.670
588.76	0.667
588.95	0.667
589.15	0.670
589.34	0.673
589.54	0.672
589.73	0.673
589.92	0.676
590.12	0.676
590.31	0.674
590.51	0.679
590.70	0.681
590.90	0.682
591.09	0.680
591.29	0.679
591.48	0.679
591.68	0.680
591.87	0.678
592.06	0.678
592.26	0.681
592.45	0.680
592.65	0.674
592.84	0.673
593.04	0.675
593.23	0.678
593.43	0.675
593.62	0.675
593.81	0.675
594.01	0.674
594.20	0.672
594.40	0.670
594.59	0.672
594.79	0.672
594.98	0.671
595.17	0.670
595.37	0.670
595.56	0.673
595.76	0.673
595.95	0.675
596.14	0.678
596.34	0.679
596.53	0.678
596.73	0.680
596.92	0.682
597.12	0.685
597.31	0.685
597.50	0.684
597.70	0.686
597.89	0.684
598.09	0.681
598.28	0.682
598.47	0.684
598.67	0.683
598.86	0.679
599.06	0.681
599.25	0.680
599.44	0.679
599.64	0.676
599.83	0.674
600.03	0.676
600.22	0.677
600.41	0.677
600.61	0.674
600.80	0.676
601.00	0.677
601.19	0.673
601.38	0.672
601.58	0.673
601.77	0.674
601.96	0.677
602.16	0.677
602.35	0.685
602.55	0.682
602.74	0.684
602.93	0.686
603.13	0.690
603.32	0.692
603.51	0.692
603.71	0.696
603.90	0.697
604.09	0.698
604.29	0.696
604.48	0.691
604.68	0.692
604.87	0.691
605.06	0.687
605.26	0.684
605.45	0.684
605.64	0.684
605.84	0.679
606.03	0.678
606.22	0.676
606.42	0.676
606.61	0.672
606.80	0.672
607.00	0.673
607.19	0.673
607.38	0.672
607.58	0.673
607.77	0.675
607.96	0.674
608.16	0.673
608.35	0.677
608.54	0.680
608.74	0.682
608.93	0.687
609.12	0.691
609.32	0.693
609.51	0.696
609.70	0.695
609.90	0.697
610.09	0.702
610.28	0.707
610.48	0.701
610.67	0.703
610.86	0.703
611.06	0.698
611.25	0.695
611.44	0.696
611.64	0.696
611.83	0.699
612.02	0.696
612.21	0.694
612.41	0.693
612.60	0.693
612.79	0.689
612.99	0.689
613.18	0.692
613.37	0.690
613.57	0.687
613.76	0.688
613.95	0.686
614.14	0.685
614.34	0.683
614.53	0.683
614.72	0.686
614.92	0.686
615.11	0.683
615.30	0.680
615.49	0.681
615.69	0.683
615.88	0.680
616.07	0.681
616.26	0.683
616.46	0.683
616.65	0.680
616.84	0.679
617.04	0.679
617.23	0.683
617.42	0.683
617.61	0.686
617.81	0.687
618.00	0.690
618.19	0.688
618.38	0.692
618.58	0.696
618.77	0.697
618.96	0.698
619.15	0.700
619.35	0.702
619.54	0.703
619.73	0.699
619.92	0.700
620.12	0.704
620.31	0.705
620.50	0.700
620.69	0.700
620.89	0.703
621.08	0.704
621.27	0.704
621.46	0.702
621.66	0.705
621.85	0.705
622.04	0.703
622.23	0.704
622.43	0.704
622.62	0.704
622.81	0.704
623.00	0.703
623.19	0.705
623.39	0.704
623.58	0.701
623.77	0.700
623.96	0.703
624.16	0.703
624.35	0.698
624.54	0.700
624.73	0.703
624.92	0.700
625.12	0.698
625.31	0.699
625.50	0.702
625.69	0.703
625.88	0.699
626.08	0.698
626.27	0.699
626.46	0.699
626.65	0.696
626.84	0.696
627.04	0.701
627.23	0.701
627.42	0.697
627.61	0.700
627.80	0.703
628.00	0.704
628.19	0.702
628.38	0.706
628.57	0.707
628.76	0.707
628.96	0.704
629.15	0.705
629.34	0.708
629.53	0.709
629.72	0.703
629.91	0.703
630.11	0.707
630.30	0.707
630.49	0.709
630.68	0.710
630.87	0.713
631.06	0.715
631.26	0.710
631.45	0.711
631.64	0.718
631.83	0.720
632.02	0.717
632.21	0.716
632.41	0.721
632.60	0.716
632.79	0.716
632.98	0.716
633.17	0.717
633.36	0.719
633.55	0.716
633.75	0.712
633.94	0.714
634.13	0.714
634.32	0.711
634.51	0.707
634.70	0.709
634.89	0.708
635.09	0.705
635.28	0.706
635.47	0.707
635.66	0.709
635.85	0.706
636.04	0.707
636.23	0.711
636.43	0.712
636.62	0.711
636.81	0.709
637.00	0.711
637.19	0.713
637.38	0.709
637.57	0.710
637.76	0.711
637.95	0.712
638.15	0.709
638.34	0.706
638.53	0.709
638.72	0.711
638.91	0.709
639.10	0.707
639.29	0.706
639.48	0.708
639.67	0.707
639.87	0.706
640.06	0.710
640.25	0.710
640.44	0.711
640.63	0.712
640.82	0.714
641.01	0.713
641.20	0.713
641.39	0.715
641.58	0.717
641.78	0.716
641.97	0.712
642.16	0.726
642.35	0.727
642.54	0.726
642.73	0.720
642.92	0.719
643.11	0.723
643.30	0.724
643.49	0.720
643.68	0.722
643.87	0.724
644.06	0.724
644.25	0.704
644.45	0.706
644.64	0.707
644.83	0.708
645.02	0.704
645.21	0.703
645.40	0.704
645.59	0.703
645.78	0.698
645.97	0.700
646.16	0.700
646.35	0.700
646.54	0.698
646.73	0.700
646.92	0.701
647.11	0.701
647.30	0.698
647.49	0.700
647.68	0.699
647.88	0.697
648.07	0.691
648.26	0.695
648.45	0.696
648.64	0.693
648.83	0.691
649.02	0.693
649.21	0.702
649.40	0.701
649.59	0.696
649.78	0.697
649.97	0.712
650.16	0.711
650.35	0.706
650.54	0.709
650.73	0.716
650.92	0.712
651.11	0.707
651.30	0.704
651.49	0.708
651.68	0.709
651.87	0.707
652.06	0.696
652.25	0.700
652.44	0.703
652.63	0.702
652.82	0.704
653.01	0.704
653.20	0.703
653.39	0.693
653.58	0.690
653.77	0.689
653.96	0.684
654.15	0.677
654.34	0.674
654.53	0.669
654.72	0.662
654.91	0.653
655.10	0.649
655.29	0.646
655.48	0.644
655.67	0.638
655.86	0.636
656.05	0.635
656.24	0.634
656.43	0.629
656.62	0.628
656.81	0.628
657.00	0.624
657.19	0.620
657.38	0.619
657.57	0.618
657.76	0.620
657.95	0.617
658.14	0.619
658.33	0.621
658.51	0.625
658.70	0.625
658.89	0.627
659.08	0.637
659.27	0.646
659.46	0.647
659.65	0.654
659.84	0.656
660.03	0.661
660.22	0.663
660.41	0.667
660.60	0.667
660.79	0.669
660.98	0.675
661.17	0.673
661.36	0.672
661.55	0.672
661.74	0.671
661.92	0.674
662.11	0.675
662.30	0.674
662.49	0.668
662.68	0.667
662.87	0.670
663.06	0.664
663.25	0.665
663.44	0.664
663.63	0.665
663.82	0.664
664.01	0.659
664.20	0.657
664.38	0.658
664.57	0.659
664.76	0.658
664.95	0.659
665.14	0.662
665.33	0.658
665.52	0.665
665.71	0.669
665.90	0.668
666.09	0.670
666.28	0.669
666.46	0.668
666.65	0.668
666.84	0.666
667.03	0.661
667.22	0.659
667.41	0.661
667.60	0.652
667.79	0.646
667.98	0.648
668.16	0.649
668.35	0.648
668.54	0.644
668.73	0.645
668.92	0.645
669.11	0.645
669.30	0.640
669.49	0.636
669.67	0.638
669.86	0.640
670.05	0.637
670.24	0.634
670.43	0.632
670.62	0.631
670.81	0.626
671.00	0.627
671.18	0.627
671.37	0.627
671.56	0.625
671.75	0.624
671.94	0.620
672.13	0.618
672.32	0.615
672.50	0.614
672.69	0.614
672.88	0.614
673.07	0.610
673.26	0.612
673.45	0.613
673.63	0.613
673.82	0.610
674.01	0.612
674.20	0.611
674.39	0.610
674.58	0.609
674.76	0.609
674.95	0.609
675.14	0.609
675.33	0.605
675.52	0.603
675.71	0.602
675.89	0.601
676.08	0.598
676.27	0.598
676.46	0.599
676.65	0.598
676.84	0.598
677.02	0.599
677.21	0.601
677.40	0.600
677.59	0.598
677.78	0.599
677.96	0.601
678.15	0.601
678.34	0.598
678.53	0.598
678.72	0.598
678.90	0.595
679.09	0.591
679.28	0.588
679.47	0.588
679.66	0.587
679.84	0.583
680.03	0.580
680.22	0.579
680.41	0.580
680.60	0.577
680.78	0.576
680.97	0.578
681.16	0.579
681.35	0.577
681.53	0.576
681.72	0.577
681.91	0.580
682.10	0.579
682.29	0.582
682.47	0.579
682.66	0.577
682.85	0.576
683.04	0.574
683.22	0.574
683.41	0.576
683.60	0.574
683.79	0.575
683.97	0.574
684.16	0.573
684.35	0.569
684.54	0.570
684.72	0.572
684.91	0.574
685.10	0.572
685.29	0.573
685.47	0.570
685.66	0.569
685.85	0.566
686.04	0.565
686.22	0.568
686.41	0.571
686.60	0.568
686.79	0.571
686.97	0.571
687.16	0.572
687.35	0.570
687.54	0.573
687.72	0.576
687.91	0.576
688.10	0.578
688.29	0.577
688.47	0.575
688.66	0.575
688.85	0.571
689.03	0.568
689.22	0.572
689.41	0.572
689.60	0.569
689.78	0.566
689.97	0.567
690.16	0.564
690.34	0.561
690.53	0.561
690.72	0.560
690.91	0.558
691.09	0.557
691.28	0.552
691.47	0.550
691.65	0.549
691.84	0.546
692.03	0.545
692.21	0.543
692.40	0.542
692.59	0.540
692.77	0.539
692.96	0.540
693.15	0.541
693.34	0.539
693.52	0.538
693.71	0.539
693.90	0.541
694.08	0.542
694.27	0.543
694.46	0.553
694.64	0.554
694.83	0.553
695.02	0.552
695.20	0.552
695.39	0.552
695.58	0.552
695.76	0.552
695.95	0.550
696.14	0.549
696.32	0.547
696.51	0.538
696.70	0.538
696.88	0.539
697.07	0.537
697.26	0.538
697.44	0.539
697.63	0.538
697.81	0.536
698.00	0.536
698.19	0.536
698.37	0.536
698.56	0.535
698.75	0.535
698.93	0.534
699.12	0.535
699.31	0.534
699.49	0.533
699.68	0.534
699.87	0.536
700.05	0.537
700.24	0.537
700.42	0.538
700.61	0.538
700.80	0.536
700.98	0.536
701.17	0.538
701.36	0.536
701.54	0.536
701.73	0.537
701.91	0.535
702.10	0.534
702.29	0.532
702.47	0.531
702.66	0.532
702.84	0.533
703.03	0.531
703.22	0.532
703.40	0.531
703.59	0.533
703.77	0.532
703.96	0.531
704.15	0.532
704.33	0.532
704.52	0.531
704.70	0.530
704.89	0.530
705.08	0.529
705.26	0.525
705.45	0.525
705.63	0.524
705.82	0.522
706.00	0.521
706.19	0.520
706.38	0.520
706.56	0.519
706.75	0.518
706.93	0.516
707.12	0.518
707.30	0.518
707.49	0.516
707.68	0.514
707.86	0.514
708.05	0.513
708.23	0.510
708.42	0.510
708.60	0.512
708.79	0.512
708.98	0.511
709.16	0.509
709.35	0.511
709.53	0.514
709.72	0.513
709.90	0.515
710.09	0.517
710.27	0.520
710.46	0.524
710.64	0.522
710.83	0.524
711.02	0.525
711.20	0.524
711.39	0.523
711.57	0.521
711.76	0.522
711.94	0.520
712.13	0.520
712.31	0.520
712.50	0.515
712.68	0.513
712.87	0.514
713.05	0.515
713.24	0.516
713.42	0.515
713.61	0.516
713.79	0.517
713.98	0.517
714.16	0.518
714.35	0.518
714.54	0.519
714.72	0.519
714.91	0.517
715.09	0.522
715.28	0.525
715.46	0.524
715.65	0.521
715.83	0.521
716.02	0.524
716.20	0.520
716.39	0.520
716.57	0.521
716.76	0.523
716.94	0.523
717.12	0.517
717.31	0.518
717.49	0.521
717.68	0.524
717.86	0.523
718.05	0.525
718.23	0.526
718.42	0.528
718.60	0.529
718.79	0.537
718.97	0.539
719.16	0.538
719.34	0.535
719.53	0.535
719.71	0.535
719.90	0.537
720.08	0.535
720.27	0.536
720.45	0.535
720.63	0.533
720.82	0.527
721.00	0.530
721.19	0.533
721.37	0.532
721.56	0.532
721.74	0.535
721.93	0.543
722.11	0.547
722.30	0.546
722.48	0.551
722.66	0.552
722.85	0.552
723.03	0.553
723.22	0.552
723.40	0.555
723.59	0.555
723.77	0.560
723.95	0.553
724.14	0.556
724.32	0.557
724.51	0.557
724.69	0.558
724.88	0.558
725.06	0.556
725.24	0.558
725.43	0.559
725.61	0.560
725.80	0.554
725.98	0.553
726.16	0.549
726.35	0.555
726.53	0.555
726.72	0.555
726.90	0.563
727.09	0.564
727.27	0.569
727.45	0.566
727.64	0.576
727.82	0.584
728.01	0.588
728.19	0.585
728.37	0.590
728.56	0.593
728.74	0.599
728.92	0.588
729.11	0.591
729.29	0.589
729.48	0.591
729.66	0.582
729.84	0.581
730.03	0.584
730.21	0.586
730.40	0.577
730.58	0.577
730.76	0.576
730.95	0.579
731.13	0.579
731.31	0.592
731.50	0.600
731.68	0.602
731.86	0.599
732.05	0.613
732.23	0.615
732.42	0.618
732.60	0.622
732.78	0.627
732.97	0.642
733.15	0.649
733.33	0.638
733.52	0.643
733.70	0.654
733.88	0.660
734.07	0.646
734.25	0.670
734.43	0.679
734.62	0.681
734.80	0.677
734.98	0.667
735.17	0.673
735.35	0.678
735.53	0.669
735.72	0.673
735.90	0.694
736.08	0.713
736.27	0.692
736.45	0.702
736.63	0.712
736.82	0.722
737.00	0.724
737.18	0.735
737.37	0.765
737.55	0.785
737.73	0.780
737.92	0.783
738.10	0.778
738.28	0.797
738.46	0.786
738.65	0.802
738.83	0.817
739.01	0.870
739.20	0.862
739.38	0.844
739.56	0.836
739.75	0.842
739.93	0.813
740.11	0.835
740.29	0.831
740.48	0.835
740.66	0.814
740.84	0.809
741.03	0.771
741.21	0.781
741.39	0.765
741.57	0.775
741.76	0.787
741.94	0.791
742.12	0.761
742.31	0.766
742.49	0.785
742.67	0.808
742.85	0.824
743.04	0.831
743.22	0.838
743.40	0.889
743.58	0.875
743.77	0.890
743.95	0.918
744.13	0.968
744.31	0.953
744.50	0.946
744.68	0.942
744.86	0.913
745.04	0.921
745.23	0.978
745.41	0.955
745.59	0.958
745.77	0.927
745.96	0.919
746.14	0.923
746.32	0.922
746.50	0.909
746.69	0.896
746.87	0.905
747.05	0.892
747.23	0.825
747.42	0.812
747.60	0.833
747.78	0.838
747.96	0.864
748.14	0.827
748.33	0.854
748.51	0.846
748.69	0.838
748.87	0.861
749.06	0.862
749.24	0.867
749.42	0.857
749.60	0.841
749.78	0.848
749.97	0.806
750.15	0.797
750.33	0.797
750.51	0.820
750.69	0.826
750.88	0.832
751.06	0.837
751.24	0.855
751.42	0.848
751.60	0.845
751.79	0.907
751.97	0.946
752.15	0.948
752.33	0.921
752.51	0.981
752.69	0.985
752.88	0.957
753.06	1.000
753.24	0.978
753.42	1.006
753.60	1.146
753.78	1.028
753.97	1.047
754.15	1.057
754.33	1.085
754.51	0.980
754.69	0.967
754.87	0.987
755.06	0.927
755.24	0.929
755.42	0.936
755.60	0.846
755.78	0.854
755.96	0.807
756.15	0.808
756.33	0.809
756.51	0.827
756.69	0.823
756.87	0.794
757.05	0.805
757.23	0.792
757.42	0.764
757.60	0.763
757.78	0.752
757.96	0.747
758.14	0.735
758.32	0.723
758.50	0.733
758.69	0.727
758.87	0.722
759.05	0.728
759.23	0.736
759.41	0.735
759.59	0.730
759.77	0.748
759.95	0.773
760.13	0.816
760.32	0.816
760.50	0.812
760.68	0.834
760.86	0.836
761.04	0.814
761.22	0.818
761.40	0.864
761.58	0.866
761.76	0.847
761.95	0.829
762.13	0.787
762.31	0.788
762.49	0.760
762.67	0.777
762.85	0.788
763.03	0.782
763.21	0.766
763.39	0.745
763.57	0.747
763.75	0.741
763.94	0.730
764.12	0.730
764.30	0.750
764.48	0.754
764.66	0.720
764.84	0.718
765.02	0.751
765.20	0.759
765.38	0.743
765.56	0.746
765.74	0.780
765.92	0.780
766.10	0.787
766.28	0.779
766.46	0.802
766.65	0.804
766.83	0.792
767.01	0.779
767.19	0.785
767.37	0.784
767.55	0.772
767.73	0.757
767.91	0.760
768.09	0.748
768.27	0.740
768.45	0.732
768.63	0.736
768.81	0.738
768.99	0.715
769.17	0.732
769.35	0.742
769.53	0.741
769.71	0.723
769.89	0.729
770.07	0.737
770.25	0.722
770.43	0.704
770.61	0.722
770.79	0.728
770.97	0.735
771.15	0.711
771.33	0.715
771.51	0.717
771.69	0.723
771.87	0.732
772.05	0.735
772.24	0.741
772.42	0.749
772.60	0.734
772.78	0.787
772.96	0.810
773.14	0.806
773.32	0.788
773.49	0.797
773.67	0.795
773.85	0.777
774.03	0.768
774.21	0.795
774.39	0.805
774.57	0.821
774.75	0.755
774.93	0.754
775.11	0.776
775.29	0.781
775.47	0.779
775.65	0.788
775.83	0.800
776.01	0.818
776.19	0.780
776.37	0.784
776.55	0.786
776.73	0.784
776.91	0.782
777.09	0.765
777.27	0.766
777.45	0.757
777.63	0.737
777.81	0.737
777.99	0.725
778.17	0.723
778.35	0.701
778.53	0.689
778.71	0.695
778.89	0.681
779.07	0.673
779.24	0.676
779.42	0.675
779.60	0.692
779.78	0.687
779.96	0.692
780.14	0.698
780.32	0.716
780.50	0.699
780.68	0.699
780.86	0.693
781.04	0.708
781.22	0.711
781.40	0.721
781.58	0.709
781.75	0.704
781.93	0.689
782.11	0.689
782.29	0.677
782.47	0.677
782.65	0.665
782.83	0.690
783.01	0.682
783.19	0.676
783.37	0.664
783.55	0.668
783.72	0.684
783.90	0.693
784.08	0.687
784.26	0.697
784.44	0.716
784.62	0.719
784.80	0.691
784.98	0.697
785.16	0.701
785.33	0.715
785.51	0.706
785.69	0.693
785.87	0.691
786.05	0.702
786.23	0.699
786.41	0.699
786.59	0.705
786.77	0.704
786.94	0.693
787.12	0.695
787.30	0.696
787.48	0.695
787.66	0.684
787.84	0.685
788.02	0.675
788.19	0.674
788.37	0.660
788.55	0.659
788.73	0.660
788.91	0.653
789.09	0.641
789.27	0.631
789.44	0.640
789.62	0.645
789.80	0.655
789.98	0.679
790.16	0.665
790.34	0.661
790.51	0.652
790.69	0.669
790.87	0.676
791.05	0.673
791.23	0.668
791.41	0.668
791.58	0.673
791.76	0.654
791.94	0.627
792.12	0.633
792.30	0.634
792.48	0.631
792.65	0.627
792.83	0.633
793.01	0.638
793.19	0.637
793.37	0.624
793.54	0.622
793.72	0.631
793.90	0.629
794.08	0.621
794.26	0.622
794.43	0.629
794.61	0.613
794.79	0.603
794.97	0.601
795.15	0.604
795.32	0.608
795.50	0.598
795.68	0.593
795.86	0.594
796.04	0.595
796.21	0.591
796.39	0.590
796.57	0.604
796.75	0.611
796.92	0.613
797.10	0.617
797.28	0.618
797.46	0.623
797.64	0.625
797.81	0.634
797.99	0.640
798.17	0.643
798.35	0.637
798.52	0.639
798.70	0.634
798.88	0.642
799.06	0.642
799.23	0.644
799.41	0.650
799.59	0.642
799.77	0.632
799.94	0.638
800.12	0.645
800.30	0.663
800.48	0.663
800.65	0.662
800.83	0.652
801.01	0.645
801.19	0.645
801.36	0.642
801.54	0.645
801.72	0.655
801.90	0.642
802.07	0.637
802.25	0.622
802.43	0.605
802.60	0.605
802.78	0.612
802.96	0.617
803.14	0.612
803.31	0.611
803.49	0.613
803.67	0.609
803.84	0.613
804.02	0.606
804.20	0.611
804.38	0.618
804.55	0.616
804.73	0.602
804.91	0.601
805.08	0.611
805.26	0.607
805.44	0.668
805.61	0.669
805.79	0.669
805.97	0.668
806.15	0.661
806.32	0.657
806.50	0.661
806.68	0.661
806.85	0.655
807.03	0.649
807.21	0.664
807.38	0.600
807.56	0.592
807.74	0.599
807.91	0.605
808.09	0.606
808.27	0.621
808.44	0.647
808.62	0.654
808.80	0.656
808.97	0.650
809.15	0.643
809.33	0.659
809.50	0.667
809.68	0.656
809.86	0.663
810.03	0.693
810.21	0.677
810.39	0.660
810.56	0.666
810.74	0.685
810.91	0.752
811.09	0.742
811.27	0.761
811.44	0.763
811.62	0.766
811.80	0.752
811.97	0.723
812.15	0.720
812.33	0.715
812.50	0.701
812.68	0.691
812.85	0.638
813.03	0.640
813.21	0.613
813.38	0.608
813.56	0.609
813.74	0.619
813.91	0.626
814.09	0.654
814.26	0.648
814.44	0.652
814.62	0.644
814.79	0.650
814.97	0.652
815.14	0.656
815.32	0.660
815.50	0.674
815.67	0.676
815.85	0.668
816.02	0.658
816.20	0.666
816.38	0.676
816.55	0.682
816.73	0.681
816.90	0.692
817.08	0.719
817.26	0.724
817.43	0.707
817.61	0.731
817.78	0.747
817.96	0.728
818.13	0.719
818.31	0.719
818.49	0.731
818.66	0.721
818.84	0.712
819.01	0.690
819.19	0.694
819.36	0.694
819.54	0.667
819.71	0.705
819.89	0.717
820.07	0.729
820.24	0.729
820.42	0.725
820.59	0.745
820.77	0.764
820.94	0.758
821.12	0.776
821.29	0.790
821.47	0.790
821.64	0.735
821.82	0.747
822.00	0.743
822.17	0.738
822.35	0.733
822.52	0.734
822.70	0.724
822.87	0.736
823.05	0.718
823.22	0.729
823.40	0.751
823.57	0.770
823.75	0.750
823.92	0.773
824.10	0.788
824.27	0.823
824.45	0.813
824.62	0.868
824.80	0.877
824.97	0.888
825.15	0.884
825.32	0.895
825.50	0.895
825.67	0.910
825.85	0.892
826.02	0.908
826.20	0.927
826.37	1.033
826.55	0.961
826.72	1.125
826.90	1.177
827.07	1.212
827.25	1.167
827.42	1.279
827.60	1.367
827.77	1.472
827.95	1.463
828.12	1.547
828.30	1.306
828.47	1.396
828.65	1.119
828.82	1.160
829.00	1.194
829.17	1.256
829.34	1.257
829.52	1.298
829.69	-0.000
829.87	-0.000
830.04	-0.000
830.22	-0.000
830.39	-0.000
830.57	-0.000
830.74	-0.000
830.92	-0.000
831.09	-0.000
831.26	-0.000
831.44	-0.000
831.61	-0.000
831.79	-0.000
831.96	-0.000
832.14	-0.000
832.31	-0.000
832.49	-0.000
832.66	-0.000
832.83	-0.000
833.01	-0.000
833.18	-0.000
833.36	-0.000
833.53	-0.000
833.70	-0.000
833.88	-0.000
834.05	-0.000
834.23	-0.000
834.40	-0.000
834.58	-0.000
834.75	-0.000
834.92	-0.000
835.10	-0.000
835.27	-0.000
835.45	-0.000
835.62	-0.000
835.79	-0.000
835.97	-0.000
836.14	-0.000
836.32	-0.000
836.49	-0.000
836.66	-0.000
836.84	-0.000
837.01	-0.000
837.18	-0.000
837.36	-0.000
837.53	-0.000
837.71	-0.000
837.88	-0.000
838.05	-0.000
838.23	-0.000
838.40	-0.000
838.58	-0.000
838.75	-0.000
838.92	-0.000
839.10	-0.000
839.27	-0.000
839.44	-0.000
839.62	-0.000
839.79	-0.000
839.96	-0.000
840.14	-0.000
840.31	-0.000
840.48	-0.000
840.66	-0.000
840.83	-0.000
841.01	-0.000
841.18	-0.000
841.35	-0.000
841.53	-0.000
841.70	-0.000
841.87	-0.000
842.05	-0.000
842.22	-0.000
842.39	-0.000
842.57	-0.000
842.74	-0.000
842.91	-0.000
843.09	-0.000
843.26	-0.000
843.43	-0.000
843.60	-0.000
843.78	-0.000
843.95	-0.000
844.12	-0.000
844.30	-0.000
844.47	-0.000
844.64	-0.000
844.82	-0.000
844.99	-0.000
845.16	-0.000
845.34	-0.000
845.51	-0.000
845.68	-0.000
845.85	-0.000
846.03	-0.000
846.20	-0.000
846.37	-0.000
846.55	-0.000
846.72	-0.000
846.89	-0.000
847.06	-0.000
847.24	-0.000
847.41	-0.000
847.58	-0.000
847.76	-0.000
847.93	-0.000
848.10	-0.000
848.27	-0.000
848.45	-0.000
848.62	-0.000
848.79	-0.000
848.97	-0.000
849.14	-0.000
849.31	-0.000
849.48	-0.000
849.66	-0.000
849.83	-0.000
850.00	-0.000
850.17	-0.000
850.35	-0.000
850.52	-0.000
850.69	-0.000
850.86	-0.000
851.04	-0.000
851.21	-0.000
851.38	-0.000
851.55	-0.000
851.72	-0.000
851.90	-0.000
852.07	-0.000
852.24	-0.000
852.41	-0.000
852.59	-0.000
852.76	-0.000
852.93	-0.000
853.10	-0.000
853.28	-0.000
853.45	-0.000
853.62	-0.000
853.79	-0.000
853.96	-0.000
854.14	-0.000
854.31	-0.000
854.48	-0.000
854.65	-0.000
854.82	-0.000
855.00	-0.000
855.17	-0.000
855.34	-0.000
855.51	-0.000
855.68	-0.000
855.86	-0.000
856.03	-0.000
856.20	-0.000
856.37	-0.000
856.54	-0.000
856.72	-0.000
856.89	-0.000
857.06	-0.000
857.23	-0.000
857.40	-0.000
857.57	-0.000
857.75	-0.000
857.92	-0.000
858.09	-0.000
858.26	-0.000
858.43	-0.000
858.60	-0.000
858.78	-0.000
858.95	-0.000
859.12	-0.000
859.29	-0.000
859.46	-0.000
859.63	-0.000
859.81	-0.000
859.98	-0.000
860.15	-0.000
860.32	-0.000
860.49	-0.000
860.66	-0.000
860.83	-0.000
861.01	-0.000
861.18	-0.000
861.35	-0.000
861.52	-0.000
861.69	-0.000
861.86	-0.000
862.03	-0.000
862.21	-0.000
862.38	-0.000
862.55	-0.000
862.72	-0.000
862.89	-0.000
863.06	-0.000
863.23	-0.000
863.40	-0.000
863.58	-0.000
863.75	-0.000
863.92	-0.000
864.09	-0.000
864.26	-0.000
864.43	-0.000
864.60	-0.000
864.77	-0.000
864.94	-0.000
865.11	-0.000
865.29	-0.000
865.46	-0.000
865.63	-0.000
865.80	-0.000
865.97	-0.000
866.14	-0.000
866.31	-0.000
866.48	-0.000
866.65	-0.000
866.82	-0.000
866.99	-0.000
867.16	-0.000
867.34	-0.000
867.51	-0.000
867.68	-0.000
867.85	-0.000
868.02	-0.000
868.19	-0.000
868.36	-0.000
868.53	-0.000
868.70	-0.000
868.87	-0.000
869.04	-0.000
869.21	-0.000
869.38	-0.000
869.55	-0.000
869.72	-0.000
869.89	-0.000
870.06	-0.000
870.24	-0.000
870.41	-0.000
870.58	-0.000
870.75	-0.000
870.92	-0.000
871.09	-0.000
871.26	-0.000
871.43	-0.000
871.60	-0.000
871.77	-0.000
871.94	-0.000
872.11	-0.000
872.28	-0.000
872.45	-0.000
872.62	-0.000
872.79	-0.000
872.96	-0.000
873.13	-0.000
873.30	-0.000
873.47	-0.000
873.64	-0.000
873.81	-0.000
873.98	-0.000
874.15	-0.000
874.32	-0.000
874.49	-0.000
874.66	-0.000
874.83	-0.000
875.00	-0.000
875.17	-0.000
875.34	-0.000
875.51	-0.000
875.68	-0.000
875.85	-0.000
876.02	-0.000
876.19	-0.000
876.36	-0.000
876.53	-0.000
876.70	-0.000
876.87	-0.000
877.04	-0.000
877.21	-0.000
877.38	-0.000
877.55	-0.000
877.72	-0.000
877.89	-0.000
878.06	-0.000
878.23	-0.000
878.39	-0.000
878.56	-0.000
878.73	-0.000
878.90	-0.000
879.07	-0.000
879.24	-0.000
879.41	-0.000
879.58	-0.000
879.75	-0.000
879.92	-0.000
880.09	-0.000
880.26	-0.000
880.43	-0.000
880.60	-0.000
880.77	-0.000
880.94	-0.000
881.11	-0.000
881.27	-0.000
881.44	-0.000
881.61	-0.000
881.78	-0.000
881.95	-0.000
882.12	-0.000
882.29	-0.000
882.46	-0.000
882.63	-0.000
882.80	-0.000
882.97	-0.000
883.14	-0.000
883.30	-0.000
883.47	-0.000
883.64	-0.000
883.81	-0.000
883.98	-0.000
884.15	-0.000
884.32	-0.000
884.49	-0.000
884.66	-0.000
884.82	-0.000
884.99	-0.000
885.16	-0.000
885.33	-0.000
885.50	-0.000
885.67	-0.000
885.84	-0.000
886.01	-0.000
886.17	-0.000
886.34	-0.000
886.51	-0.000
886.68	-0.000
886.85	-0.000
887.02	-0.000
887.19	-0.000
887.36	-0.000
887.52	-0.000
887.69	-0.000
887.86	-0.000
888.03	-0.000
888.20	-0.000
888.37	-0.000
888.54	-0.000
888.70	-0.000
888.87	-0.000
889.04	-0.000
889.21	-0.000
889.38	-0.000
889.55	-0.000
889.71	-0.000
889.88	-0.000
890.05	-0.000
890.22	-0.000
890.39	-0.000
>>>>>End Processed Spectral Data<<<<<
