SpectraSuite Data File
++++++++++++++++++++++++++++++++++++
Date: Fri Jun 19 13:14:19 CEST 2015
User: introlabs
Dark Spectrum Present: Yes
Reference Spectrum Present: Yes
Number of Sampled Component Spectra: 1
Spectrometers: USB4H08886
Integration Time (usec): 745692 (USB4H08886)
Spectra Averaged: 5 (USB4H08886)
Boxcar Smoothing: 5 (USB4H08886)
Correct for Electrical Dark: Yes (USB4H08886)
Strobe/Lamp Enabled: No (USB4H08886)
Correct for Detector Non-linearity: Yes (USB4H08886)
Correct for Stray Light: Yes (USB4H08886)
Number of Pixels in Processed Spectrum: 3648
>>>>>Begin Processed Spectral Data<<<<<
178.14	-0.000
178.36	-0.000
178.57	-0.000
178.79	-0.000
179.01	-0.000
179.22	-0.000
179.44	-0.000
179.65	-0.000
179.87	-0.000
180.08	-0.000
180.30	-0.000
180.52	-0.000
180.73	-0.000
180.95	-0.000
181.16	-0.000
181.38	-0.000
181.59	-0.000
181.81	-0.000
182.03	-0.000
182.24	-0.000
182.46	-0.000
182.67	-0.000
182.89	-0.000
183.10	-0.000
183.32	-0.000
183.54	-0.000
183.75	-0.000
183.97	-0.000
184.18	-0.000
184.40	-0.000
184.61	-0.000
184.83	-0.000
185.04	-0.000
185.26	-0.000
185.48	-0.000
185.69	-0.000
185.91	-0.000
186.12	-0.000
186.34	-0.000
186.55	-0.000
186.77	-0.000
186.98	-0.000
187.20	-0.000
187.42	-0.000
187.63	-0.000
187.85	-0.000
188.06	-0.000
188.28	-0.000
188.49	-0.000
188.71	-0.000
188.92	-0.000
189.14	-0.000
189.36	-0.000
189.57	-0.000
189.79	-0.000
190.00	-0.000
190.22	-0.000
190.43	-0.000
190.65	-0.000
190.86	-0.000
191.08	-0.000
191.29	-0.000
191.51	-0.000
191.72	-0.000
191.94	-0.000
192.16	-0.000
192.37	-0.000
192.59	-0.000
192.80	-0.000
193.02	-0.000
193.23	-0.000
193.45	-0.000
193.66	-0.000
193.88	-0.000
194.09	-0.000
194.31	-0.000
194.52	-0.000
194.74	-0.000
194.95	-0.000
195.17	-0.000
195.38	-0.000
195.60	-0.000
195.81	-0.000
196.03	-0.000
196.25	-0.000
196.46	-0.000
196.68	-0.000
196.89	-0.000
197.11	-0.000
197.32	-0.000
197.54	-0.000
197.75	-0.000
197.97	-0.000
198.18	-0.000
198.40	-0.000
198.61	-0.000
198.83	-0.000
199.04	-0.000
199.26	-0.000
199.47	-0.000
199.69	-0.000
199.90	-0.000
200.12	-0.000
200.33	-0.000
200.55	-0.000
200.76	-0.000
200.98	-0.000
201.19	-0.000
201.41	-0.000
201.62	-0.000
201.84	-0.000
202.05	-0.000
202.27	-0.000
202.48	-0.000
202.70	-0.000
202.91	-0.000
203.13	-0.000
203.34	-0.000
203.56	-0.000
203.77	-0.000
203.99	-0.000
204.20	-0.000
204.42	-0.000
204.63	-0.000
204.85	-0.000
205.06	-0.000
205.28	-0.000
205.49	-0.000
205.71	-0.000
205.92	-0.000
206.14	-0.000
206.35	-0.000
206.56	-0.000
206.78	-0.000
206.99	-0.000
207.21	-0.000
207.42	-0.000
207.64	-0.000
207.85	-0.000
208.07	-0.000
208.28	-0.000
208.50	-0.000
208.71	-0.000
208.93	-0.000
209.14	-0.000
209.36	-0.000
209.57	-0.000
209.79	-0.000
210.00	-0.000
210.22	-0.000
210.43	-0.000
210.64	-0.000
210.86	-0.000
211.07	-0.000
211.29	-0.000
211.50	-0.000
211.72	-0.000
211.93	-0.000
212.15	-0.000
212.36	-0.000
212.58	-0.000
212.79	-0.000
213.01	-0.000
213.22	-0.000
213.43	-0.000
213.65	-0.000
213.86	-0.000
214.08	-0.000
214.29	-0.000
214.51	-0.000
214.72	-0.000
214.94	-0.000
215.15	-0.000
215.36	-0.000
215.58	-0.000
215.79	-0.000
216.01	-0.000
216.22	-0.000
216.44	-0.000
216.65	-0.000
216.87	-0.000
217.08	-0.000
217.29	-0.000
217.51	-0.000
217.72	-0.000
217.94	-0.000
218.15	-0.000
218.37	-0.000
218.58	-0.000
218.80	-0.000
219.01	-0.000
219.22	-0.000
219.44	-0.000
219.65	-0.000
219.87	-0.000
220.08	-0.000
220.30	-0.000
220.51	-0.000
220.72	-0.000
220.94	-0.000
221.15	-0.000
221.37	-0.000
221.58	-0.000
221.79	-0.000
222.01	-0.000
222.22	-0.000
222.44	-0.000
222.65	-0.000
222.87	-0.000
223.08	-0.000
223.29	-0.000
223.51	-0.000
223.72	-0.000
223.94	-0.000
224.15	-0.000
224.36	-0.000
224.58	-0.000
224.79	-0.000
225.01	-0.000
225.22	-0.000
225.44	-0.000
225.65	-0.000
225.86	-0.000
226.08	-0.000
226.29	-0.000
226.51	-0.000
226.72	-0.000
226.93	-0.000
227.15	-0.000
227.36	-0.000
227.58	-0.000
227.79	-0.000
228.00	-0.000
228.22	-0.000
228.43	-0.000
228.65	-0.000
228.86	-0.000
229.07	-0.000
229.29	-0.000
229.50	-0.000
229.72	-0.000
229.93	-0.000
230.14	-0.000
230.36	-0.000
230.57	-0.000
230.78	-0.000
231.00	-0.000
231.21	-0.000
231.43	-0.000
231.64	-0.000
231.85	-0.000
232.07	-0.000
232.28	-0.000
232.50	-0.000
232.71	-0.000
232.92	-0.000
233.14	-0.000
233.35	-0.000
233.56	-0.000
233.78	-0.000
233.99	-0.000
234.21	-0.000
234.42	-0.000
234.63	-0.000
234.85	-0.000
235.06	-0.000
235.27	-0.000
235.49	-0.000
235.70	-0.000
235.91	-0.000
236.13	-0.000
236.34	-0.000
236.56	-0.000
236.77	-0.000
236.98	-0.000
237.20	-0.000
237.41	-0.000
237.62	-0.000
237.84	-0.000
238.05	-0.000
238.26	-0.000
238.48	-0.000
238.69	-0.000
238.91	-0.000
239.12	-0.000
239.33	-0.000
239.55	-0.000
239.76	-0.000
239.97	-0.000
240.19	-0.000
240.40	-0.000
240.61	-0.000
240.83	-0.000
241.04	-0.000
241.25	-0.000
241.47	-0.000
241.68	-0.000
241.89	-0.000
242.11	-0.000
242.32	-0.000
242.53	-0.000
242.75	-0.000
242.96	-0.000
243.17	-0.000
243.39	-0.000
243.60	-0.000
243.81	-0.000
244.03	-0.000
244.24	-0.000
244.45	-0.000
244.67	-0.000
244.88	-0.000
245.09	-0.000
245.31	-0.000
245.52	-0.000
245.73	-0.000
245.95	-0.000
246.16	-0.000
246.37	-0.000
246.59	-0.000
246.80	-0.000
247.01	-0.000
247.23	-0.000
247.44	-0.000
247.65	-0.000
247.87	-0.000
248.08	-0.000
248.29	-0.000
248.51	-0.000
248.72	-0.000
248.93	-0.000
249.15	-0.000
249.36	-0.000
249.57	-0.000
249.78	-0.000
250.00	-0.000
250.21	-0.000
250.42	-0.000
250.64	-0.000
250.85	-0.000
251.06	-0.000
251.28	-0.000
251.49	-0.000
251.70	-0.000
251.92	-0.000
252.13	-0.000
252.34	-0.000
252.55	-0.000
252.77	-0.000
252.98	-0.000
253.19	-0.000
253.41	-0.000
253.62	-0.000
253.83	-0.000
254.05	-0.000
254.26	-0.000
254.47	-0.000
254.68	-0.000
254.90	-0.000
255.11	-0.000
255.32	-0.000
255.54	-0.000
255.75	-0.000
255.96	-0.000
256.17	-0.000
256.39	-0.000
256.60	-0.000
256.81	-0.000
257.03	-0.000
257.24	-0.000
257.45	-0.000
257.66	-0.000
257.88	-0.000
258.09	-0.000
258.30	-0.000
258.51	-0.000
258.73	-0.000
258.94	-0.000
259.15	-0.000
259.37	-0.000
259.58	-0.000
259.79	-0.000
260.00	-0.000
260.22	-0.000
260.43	-0.000
260.64	-0.000
260.85	-0.000
261.07	-0.000
261.28	-0.000
261.49	-0.000
261.71	-0.000
261.92	-0.000
262.13	-0.000
262.34	-0.000
262.56	-0.000
262.77	-0.000
262.98	-0.000
263.19	-0.000
263.41	-0.000
263.62	-0.000
263.83	-0.000
264.04	-0.000
264.26	-0.000
264.47	-0.000
264.68	-0.000
264.89	-0.000
265.11	-0.000
265.32	-0.000
265.53	-0.000
265.74	-0.000
265.96	-0.000
266.17	-0.000
266.38	-0.000
266.59	-0.000
266.81	-0.000
267.02	-0.000
267.23	-0.000
267.44	-0.000
267.65	-0.000
267.87	-0.000
268.08	-0.000
268.29	-0.000
268.50	-0.000
268.72	-0.000
268.93	-0.000
269.14	-0.000
269.35	-0.000
269.57	-0.000
269.78	-0.000
269.99	-0.000
270.20	-0.000
270.41	-0.000
270.63	-0.000
270.84	-0.000
271.05	-0.000
271.26	-0.000
271.48	-0.000
271.69	-0.000
271.90	-0.000
272.11	-0.000
272.32	-0.000
272.54	-0.000
272.75	-0.000
272.96	-0.000
273.17	-0.000
273.39	-0.000
273.60	-0.000
273.81	-0.000
274.02	-0.000
274.23	-0.000
274.45	-0.000
274.66	-0.000
274.87	-0.000
275.08	-0.000
275.29	-0.000
275.51	-0.000
275.72	-0.000
275.93	-0.000
276.14	-0.000
276.35	-0.000
276.57	-0.000
276.78	-0.000
276.99	-0.000
277.20	-0.000
277.41	-0.000
277.63	-0.000
277.84	-0.000
278.05	-0.000
278.26	-0.000
278.47	-0.000
278.69	-0.000
278.90	-0.000
279.11	-0.000
279.32	-0.000
279.53	-0.000
279.74	-0.000
279.96	-0.000
280.17	-0.000
280.38	-0.000
280.59	-0.000
280.80	-0.000
281.02	-0.000
281.23	-0.000
281.44	-0.000
281.65	-0.000
281.86	-0.000
282.07	-0.000
282.29	-0.000
282.50	-0.000
282.71	-0.000
282.92	-0.000
283.13	-0.000
283.35	-0.000
283.56	-0.000
283.77	-0.000
283.98	-0.000
284.19	-0.000
284.40	-0.000
284.62	-0.000
284.83	-0.000
285.04	-0.000
285.25	-0.000
285.46	-0.000
285.67	-0.000
285.88	-0.000
286.10	-0.000
286.31	-0.000
286.52	-0.000
286.73	-0.000
286.94	-0.000
287.15	-0.000
287.37	-0.000
287.58	-0.000
287.79	-0.000
288.00	-0.000
288.21	-0.000
288.42	-0.000
288.63	-0.000
288.85	-0.000
289.06	-0.000
289.27	-0.000
289.48	-0.000
289.69	-0.000
289.90	-0.000
290.11	-0.000
290.33	-0.000
290.54	-0.000
290.75	-0.000
290.96	-0.000
291.17	-0.000
291.38	-0.000
291.59	-0.000
291.81	-0.000
292.02	-0.000
292.23	-0.000
292.44	-0.000
292.65	-0.000
292.86	-0.000
293.07	-0.000
293.28	-0.000
293.50	-0.000
293.71	-0.000
293.92	-0.000
294.13	-0.000
294.34	-0.000
294.55	-0.000
294.76	-0.000
294.97	-0.000
295.19	-0.000
295.40	-0.000
295.61	-0.000
295.82	-0.000
296.03	-0.000
296.24	-0.000
296.45	-0.000
296.66	2.965
296.87	3.080
297.09	-0.000
297.30	-0.000
297.51	2.341
297.72	2.197
297.93	2.699
298.14	2.405
298.35	2.195
298.56	2.099
298.77	2.661
298.99	2.473
299.20	2.333
299.41	2.214
299.62	2.097
299.83	2.043
300.04	1.881
300.25	1.861
300.46	1.972
300.67	1.900
300.88	1.796
301.10	1.786
301.31	1.933
301.52	1.799
301.73	1.696
301.94	1.688
302.15	1.715
302.36	1.644
302.57	1.548
302.78	1.549
302.99	1.610
303.20	1.627
303.41	1.504
303.63	1.478
303.84	1.491
304.05	1.490
304.26	1.414
304.47	1.422
304.68	1.430
304.89	1.419
305.10	1.368
305.31	1.353
305.52	1.404
305.73	1.398
305.94	1.347
306.15	1.338
306.37	1.361
306.58	1.371
306.79	1.331
307.00	1.352
307.21	1.395
307.42	1.387
307.63	1.343
307.84	1.307
308.05	1.349
308.26	1.349
308.47	1.317
308.68	1.315
308.89	1.316
309.10	1.311
309.31	1.263
309.52	1.254
309.73	1.274
309.95	1.263
310.16	1.230
310.37	1.216
310.58	1.237
310.79	1.231
311.00	1.224
311.21	1.225
311.42	1.228
311.63	1.223
311.84	1.201
312.05	1.197
312.26	1.227
312.47	1.236
312.68	1.207
312.89	1.189
313.10	1.201
313.31	1.171
313.52	1.169
313.73	1.168
313.94	1.170
314.15	1.153
314.36	1.130
314.57	1.120
314.78	1.110
314.99	1.104
315.21	1.088
315.42	1.090
315.63	1.106
315.84	1.081
316.05	1.066
316.26	1.076
316.47	1.095
316.68	1.090
316.89	1.069
317.10	1.088
317.31	1.096
317.52	1.099
317.73	1.077
317.94	1.075
318.15	1.122
318.36	1.123
318.57	1.103
318.78	1.090
318.99	1.124
319.20	1.120
319.41	1.085
319.62	1.084
319.83	1.101
320.04	1.095
320.25	1.079
320.46	1.045
320.67	1.048
320.88	1.043
321.09	1.029
321.30	1.016
321.51	1.032
321.72	1.028
321.93	1.011
322.14	1.001
322.35	1.030
322.56	1.032
322.77	1.018
322.98	1.028
323.19	1.038
323.40	1.043
323.61	1.018
323.82	1.014
324.03	1.020
324.24	1.018
324.45	1.004
324.66	0.984
324.87	0.981
325.08	0.981
325.29	0.961
325.50	0.953
325.71	0.960
325.92	0.968
326.13	0.953
326.34	0.954
326.55	0.962
326.76	0.960
326.97	0.949
327.18	0.943
327.39	0.969
327.60	0.969
327.80	0.969
328.01	0.968
328.22	0.969
328.43	0.972
328.64	0.960
328.85	0.964
329.06	0.966
329.27	0.966
329.48	0.960
329.69	0.941
329.90	0.951
330.11	0.945
330.32	0.936
330.53	0.930
330.74	0.930
330.95	0.927
331.16	0.912
331.37	0.920
331.58	0.920
331.79	0.920
332.00	0.911
332.21	0.903
332.42	0.908
332.63	0.898
332.83	0.893
333.04	0.895
333.25	0.907
333.46	0.906
333.67	0.892
333.88	0.895
334.09	0.904
334.30	0.900
334.51	0.891
334.72	0.885
334.93	0.890
335.14	0.889
335.35	0.880
335.56	0.875
335.77	0.884
335.98	0.882
336.18	0.875
336.39	0.869
336.60	0.873
336.81	0.871
337.02	0.870
337.23	0.875
337.44	0.879
337.65	0.881
337.86	0.870
338.07	0.865
338.28	0.870
338.49	0.867
338.70	0.860
338.91	0.868
339.11	0.877
339.32	0.873
339.53	0.860
339.74	0.856
339.95	0.853
340.16	0.852
340.37	0.844
340.58	0.841
340.79	0.847
341.00	0.846
341.21	0.834
341.41	0.833
341.62	0.834
341.83	0.835
342.04	0.831
342.25	0.841
342.46	0.846
342.67	0.845
342.88	0.837
343.09	0.836
343.30	0.843
343.50	0.847
343.71	0.836
343.92	0.836
344.13	0.840
344.34	0.839
344.55	0.822
344.76	0.822
344.97	0.826
345.18	0.825
345.38	0.820
345.59	0.816
345.80	0.816
346.01	0.814
346.22	0.808
346.43	0.802
346.64	0.811
346.85	0.811
347.06	0.804
347.26	0.804
347.47	0.809
347.68	0.804
347.89	0.800
348.10	0.795
348.31	0.803
348.52	0.803
348.73	0.800
348.93	0.796
349.14	0.799
349.35	0.798
349.56	0.792
349.77	0.788
349.98	0.794
350.19	0.793
350.39	0.788
350.60	0.784
350.81	0.800
351.02	0.799
351.23	0.795
351.44	0.796
351.65	0.799
351.86	0.797
352.06	0.795
352.27	0.795
352.48	0.795
352.69	0.794
352.90	0.788
353.11	0.775
353.31	0.782
353.52	0.777
353.73	0.770
353.94	0.771
354.15	0.777
354.36	0.777
354.57	0.768
354.77	0.770
354.98	0.771
355.19	0.770
355.40	0.770
355.61	0.776
355.82	0.781
356.02	0.781
356.23	0.774
356.44	0.776
356.65	0.780
356.86	0.780
357.07	0.774
357.27	0.778
357.48	0.781
357.69	0.777
357.90	0.761
358.11	0.758
358.32	0.760
358.52	0.764
358.73	0.753
358.94	0.756
359.15	0.761
359.36	0.761
359.56	0.755
359.77	0.751
359.98	0.759
360.19	0.759
360.40	0.756
360.61	0.757
360.81	0.756
361.02	0.756
361.23	0.747
361.44	0.746
361.65	0.747
361.85	0.746
362.06	0.745
362.27	0.746
362.48	0.746
362.69	0.748
362.89	0.741
363.10	0.743
363.31	0.748
363.52	0.751
363.73	0.745
363.93	0.745
364.14	0.747
364.35	0.749
364.56	0.738
364.77	0.740
364.97	0.743
365.18	0.745
365.39	0.739
365.60	0.736
365.81	0.736
366.01	0.737
366.22	0.734
366.43	0.734
366.64	0.736
366.84	0.742
367.05	0.738
367.26	0.737
367.47	0.739
367.68	0.738
367.88	0.735
368.09	0.734
368.30	0.737
368.51	0.736
368.71	0.735
368.92	0.739
369.13	0.737
369.34	0.736
369.55	0.735
369.75	0.735
369.96	0.742
370.17	0.742
370.38	0.738
370.58	0.737
370.79	0.743
371.00	0.741
371.21	0.731
371.41	0.737
371.62	0.740
371.83	0.736
372.04	0.733
372.24	0.727
372.45	0.728
372.66	0.729
372.87	0.726
373.07	0.722
373.28	0.722
373.49	0.727
373.70	0.718
373.90	0.717
374.11	0.726
374.32	0.726
374.53	0.724
374.73	0.725
374.94	0.727
375.15	0.727
375.36	0.724
375.56	0.733
375.77	0.733
375.98	0.733
376.19	0.730
376.39	0.724
376.60	0.728
376.81	0.728
377.02	0.725
377.22	0.724
377.43	0.724
377.64	0.724
377.84	0.714
378.05	0.719
378.26	0.725
378.47	0.724
378.67	0.720
378.88	0.717
379.09	0.718
379.30	0.719
379.50	0.716
379.71	0.719
379.92	0.723
380.12	0.722
380.33	0.714
380.54	0.710
380.75	0.717
380.95	0.717
381.16	0.715
381.37	0.715
381.57	0.717
381.78	0.717
381.99	0.716
382.20	0.715
382.40	0.718
382.61	0.719
382.82	0.715
383.02	0.708
383.23	0.712
383.44	0.712
383.64	0.709
383.85	0.712
384.06	0.716
384.27	0.713
384.47	0.710
384.68	0.711
384.89	0.716
385.09	0.715
385.30	0.715
385.51	0.713
385.71	0.717
385.92	0.717
386.13	0.715
386.33	0.716
386.54	0.718
386.75	0.717
386.95	0.712
387.16	0.707
387.37	0.710
387.58	0.710
387.78	0.708
387.99	0.705
388.20	0.708
388.40	0.705
388.61	0.701
388.82	0.704
389.02	0.707
389.23	0.707
389.44	0.705
389.64	0.705
389.85	0.716
390.06	0.715
390.26	0.716
390.47	0.715
390.68	0.718
390.88	0.715
391.09	0.711
391.30	0.710
391.50	0.709
391.71	0.710
391.92	0.707
392.12	0.699
392.33	0.701
392.53	0.700
392.74	0.699
392.95	0.698
393.15	0.701
393.36	0.702
393.57	0.700
393.77	0.704
393.98	0.706
394.19	0.705
394.39	0.704
394.60	0.705
394.81	0.708
395.01	0.705
395.22	0.703
395.43	0.705
395.63	0.710
395.84	0.710
396.04	0.706
396.25	0.708
396.46	0.710
396.66	0.708
396.87	0.705
397.08	0.702
397.28	0.704
397.49	0.705
397.69	0.701
397.90	0.695
398.11	0.697
398.31	0.697
398.52	0.693
398.73	0.694
398.93	0.692
399.14	0.692
399.34	0.690
399.55	0.691
399.76	0.691
399.96	0.692
400.17	0.691
400.37	0.689
400.58	0.696
400.79	0.697
400.99	0.695
401.20	0.701
401.41	0.703
401.61	0.704
401.82	0.709
402.02	0.709
402.23	0.710
402.44	0.710
402.64	0.710
402.85	0.705
403.05	0.703
403.26	0.702
403.47	0.695
403.67	0.694
403.88	0.695
404.08	0.689
404.29	0.687
404.50	0.687
404.70	0.687
404.91	0.686
405.11	0.683
405.32	0.684
405.52	0.684
405.73	0.684
405.94	0.682
406.14	0.684
406.35	0.687
406.55	0.686
406.76	0.684
406.97	0.685
407.17	0.687
407.38	0.687
407.58	0.685
407.79	0.688
407.99	0.691
408.20	0.692
408.41	0.687
408.61	0.685
408.82	0.686
409.02	0.687
409.23	0.684
409.43	0.683
409.64	0.684
409.84	0.683
410.05	0.680
410.26	0.678
410.46	0.678
410.67	0.677
410.87	0.678
411.08	0.680
411.28	0.680
411.49	0.682
411.69	0.679
411.90	0.681
412.11	0.682
412.31	0.683
412.52	0.681
412.72	0.682
412.93	0.684
413.13	0.683
413.34	0.679
413.54	0.680
413.75	0.682
413.95	0.681
414.16	0.678
414.37	0.681
414.57	0.682
414.78	0.684
414.98	0.682
415.19	0.683
415.39	0.681
415.60	0.683
415.80	0.682
416.01	0.681
416.21	0.683
416.42	0.682
416.62	0.677
416.83	0.678
417.03	0.678
417.24	0.678
417.44	0.676
417.65	0.675
417.86	0.675
418.06	0.674
418.27	0.672
418.47	0.673
418.68	0.674
418.88	0.675
419.09	0.673
419.29	0.673
419.50	0.674
419.70	0.673
419.91	0.672
420.11	0.670
420.32	0.672
420.52	0.671
420.73	0.670
420.93	0.671
421.14	0.673
421.34	0.672
421.55	0.668
421.75	0.669
421.96	0.670
422.16	0.670
422.37	0.669
422.57	0.667
422.78	0.668
422.98	0.665
423.19	0.663
423.39	0.661
423.60	0.665
423.80	0.666
424.01	0.664
424.21	0.666
424.42	0.667
424.62	0.668
424.83	0.666
425.03	0.667
425.23	0.670
425.44	0.670
425.64	0.670
425.85	0.668
426.05	0.670
426.26	0.672
426.46	0.668
426.67	0.667
426.87	0.673
427.08	0.673
427.28	0.671
427.49	0.671
427.69	0.672
427.90	0.670
428.10	0.668
428.31	0.668
428.51	0.669
428.71	0.667
428.92	0.668
429.12	0.665
429.33	0.666
429.53	0.670
429.74	0.674
429.94	0.675
430.15	0.674
430.35	0.674
430.56	0.671
430.76	0.670
430.96	0.672
431.17	0.670
431.37	0.667
431.58	0.665
431.78	0.662
431.99	0.655
432.19	0.657
432.40	0.659
432.60	0.660
432.80	0.663
433.01	0.660
433.21	0.660
433.42	0.662
433.62	0.663
433.83	0.662
434.03	0.665
434.23	0.669
434.44	0.668
434.64	0.665
434.85	0.670
435.05	0.671
435.26	0.672
435.46	0.670
435.66	0.670
435.87	0.670
436.07	0.670
436.28	0.665
436.48	0.662
436.69	0.662
436.89	0.663
437.09	0.657
437.30	0.656
437.50	0.656
437.71	0.668
437.91	0.667
438.11	0.668
438.32	0.673
438.52	0.674
438.73	0.672
438.93	0.671
439.13	0.670
439.34	0.674
439.54	0.671
439.75	0.671
439.95	0.661
440.15	0.665
440.36	0.664
440.56	0.661
440.77	0.663
440.97	0.663
441.17	0.662
441.38	0.663
441.58	0.661
441.79	0.661
441.99	0.660
442.19	0.659
442.40	0.657
442.60	0.657
442.81	0.654
443.01	0.654
443.21	0.655
443.42	0.655
443.62	0.653
443.82	0.653
444.03	0.654
444.23	0.655
444.44	0.654
444.64	0.654
444.84	0.655
445.05	0.656
445.25	0.653
445.45	0.653
445.66	0.656
445.86	0.655
446.06	0.656
446.27	0.655
446.47	0.659
446.68	0.657
446.88	0.655
447.08	0.655
447.29	0.657
447.49	0.657
447.69	0.656
447.90	0.655
448.10	0.658
448.30	0.656
448.51	0.657
448.71	0.655
448.91	0.658
449.12	0.657
449.32	0.658
449.52	0.656
449.73	0.661
449.93	0.660
450.14	0.660
450.34	0.660
450.54	0.663
450.75	0.660
450.95	0.659
451.15	0.659
451.36	0.662
451.56	0.659
451.76	0.658
451.97	0.655
452.17	0.655
452.37	0.654
452.58	0.650
452.78	0.650
452.98	0.652
453.19	0.651
453.39	0.651
453.59	0.650
453.79	0.652
454.00	0.652
454.20	0.651
454.40	0.652
454.61	0.654
454.81	0.654
455.01	0.653
455.22	0.653
455.42	0.656
455.62	0.654
455.83	0.654
456.03	0.656
456.23	0.658
456.44	0.659
456.64	0.658
456.84	0.658
457.04	0.659
457.25	0.659
457.45	0.655
457.65	0.653
457.86	0.655
458.06	0.654
458.26	0.649
458.47	0.649
458.67	0.649
458.87	0.650
459.07	0.647
459.28	0.649
459.48	0.652
459.68	0.652
459.89	0.651
460.09	0.649
460.29	0.651
460.49	0.652
460.70	0.651
460.90	0.651
461.10	0.651
461.31	0.651
461.51	0.648
461.71	0.650
461.91	0.651
462.12	0.652
462.32	0.651
462.52	0.651
462.72	0.654
462.93	0.654
463.13	0.653
463.33	0.654
463.53	0.655
463.74	0.655
463.94	0.650
464.14	0.650
464.35	0.652
464.55	0.653
464.75	0.650
464.95	0.648
465.16	0.650
465.36	0.649
465.56	0.648
465.76	0.647
465.97	0.648
466.17	0.648
466.37	0.646
466.57	0.647
466.78	0.648
466.98	0.648
467.18	0.647
467.38	0.645
467.59	0.648
467.79	0.649
467.99	0.648
468.19	0.650
468.39	0.653
468.60	0.653
468.80	0.651
469.00	0.653
469.20	0.654
469.41	0.655
469.61	0.654
469.81	0.654
470.01	0.653
470.22	0.653
470.42	0.651
470.62	0.648
470.82	0.650
471.02	0.650
471.23	0.648
471.43	0.648
471.63	0.650
471.83	0.649
472.04	0.647
472.24	0.646
472.44	0.651
472.64	0.651
472.84	0.649
473.05	0.648
473.25	0.651
473.45	0.650
473.65	0.648
473.85	0.649
474.06	0.651
474.26	0.651
474.46	0.652
474.66	0.649
474.86	0.650
475.07	0.651
475.27	0.650
475.47	0.647
475.67	0.648
475.87	0.651
476.08	0.647
476.28	0.648
476.48	0.649
476.68	0.647
476.88	0.645
477.09	0.646
477.29	0.647
477.49	0.648
477.69	0.647
477.89	0.647
478.09	0.646
478.30	0.648
478.50	0.645
478.70	0.645
478.90	0.645
479.10	0.648
479.31	0.649
479.51	0.647
479.71	0.647
479.91	0.647
480.11	0.646
480.31	0.647
480.52	0.645
480.72	0.645
480.92	0.644
481.12	0.643
481.32	0.641
481.52	0.639
481.72	0.639
481.93	0.643
482.13	0.643
482.33	0.642
482.53	0.640
482.73	0.640
482.93	0.642
483.14	0.641
483.34	0.640
483.54	0.640
483.74	0.640
483.94	0.639
484.14	0.635
484.34	0.635
484.55	0.636
484.75	0.636
484.95	0.634
485.15	0.634
485.35	0.634
485.55	0.634
485.75	0.632
485.96	0.633
486.16	0.635
486.36	0.635
486.56	0.633
486.76	0.633
486.96	0.633
487.16	0.633
487.36	0.631
487.57	0.631
487.77	0.631
487.97	0.632
488.17	0.629
488.37	0.628
488.57	0.629
488.77	0.629
488.97	0.628
489.18	0.627
489.38	0.630
489.58	0.631
489.78	0.630
489.98	0.629
490.18	0.629
490.38	0.630
490.58	0.628
490.78	0.629
490.98	0.631
491.19	0.631
491.39	0.631
491.59	0.629
491.79	0.632
491.99	0.633
492.19	0.632
492.39	0.636
492.59	0.636
492.79	0.638
492.99	0.637
493.20	0.637
493.40	0.637
493.60	0.639
493.80	0.637
494.00	0.635
494.20	0.636
494.40	0.635
494.60	0.633
494.80	0.637
495.00	0.636
495.20	0.635
495.40	0.633
495.61	0.636
495.81	0.636
496.01	0.639
496.21	0.640
496.41	0.639
496.61	0.640
496.81	0.639
497.01	0.633
497.21	0.633
497.41	0.634
497.61	0.634
497.81	0.631
498.01	0.631
498.21	0.629
498.41	0.627
498.61	0.627
498.82	0.629
499.02	0.631
499.22	0.632
499.42	0.631
499.62	0.632
499.82	0.633
500.02	0.634
500.22	0.633
500.42	0.635
500.62	0.636
500.82	0.636
501.02	0.634
501.22	0.634
501.42	0.634
501.62	0.636
501.82	0.636
502.02	0.636
502.22	0.635
502.42	0.636
502.62	0.633
502.82	0.634
503.02	0.634
503.22	0.634
503.42	0.632
503.63	0.631
503.83	0.629
504.03	0.627
504.23	0.626
504.43	0.627
504.63	0.628
504.83	0.628
505.03	0.626
505.23	0.628
505.43	0.630
505.63	0.631
505.83	0.631
506.03	0.633
506.23	0.635
506.43	0.636
506.63	0.635
506.83	0.634
507.03	0.636
507.23	0.637
507.43	0.634
507.63	0.635
507.83	0.636
508.03	0.635
508.23	0.634
508.43	0.633
508.63	0.635
508.83	0.636
509.03	0.637
509.23	0.636
509.43	0.637
509.63	0.637
509.83	0.635
510.03	0.637
510.23	0.639
510.43	0.640
510.63	0.640
510.83	0.639
511.03	0.641
511.23	0.639
511.43	0.638
511.63	0.640
511.83	0.643
512.03	0.643
512.22	0.640
512.42	0.639
512.62	0.639
512.82	0.639
513.02	0.639
513.22	0.639
513.42	0.640
513.62	0.643
513.82	0.641
514.02	0.640
514.22	0.641
514.42	0.641
514.62	0.641
514.82	0.642
515.02	0.644
515.22	0.648
515.42	0.646
515.62	0.650
515.82	0.648
516.02	0.650
516.22	0.650
516.42	0.651
516.62	0.653
516.82	0.654
517.01	0.653
517.21	0.652
517.41	0.656
517.61	0.656
517.81	0.652
518.01	0.652
518.21	0.652
518.41	0.651
518.61	0.650
518.81	0.650
519.01	0.651
519.21	0.651
519.41	0.650
519.61	0.644
519.81	0.646
520.00	0.646
520.20	0.646
520.40	0.648
520.60	0.649
520.80	0.648
521.00	0.649
521.20	0.649
521.40	0.654
521.60	0.655
521.80	0.654
522.00	0.655
522.20	0.657
522.39	0.656
522.59	0.654
522.79	0.656
522.99	0.658
523.19	0.656
523.39	0.653
523.59	0.651
523.79	0.655
523.99	0.657
524.19	0.656
524.38	0.655
524.58	0.656
524.78	0.657
524.98	0.655
525.18	0.657
525.38	0.658
525.58	0.659
525.78	0.657
525.98	0.655
526.18	0.656
526.37	0.654
526.57	0.656
526.77	0.656
526.97	0.656
527.17	0.657
527.37	0.653
527.57	0.655
527.77	0.657
527.96	0.657
528.16	0.656
528.36	0.656
528.56	0.659
528.76	0.657
528.96	0.656
529.16	0.657
529.36	0.660
529.55	0.660
529.75	0.657
529.95	0.657
530.15	0.658
530.35	0.661
530.55	0.658
530.75	0.659
530.94	0.660
531.14	0.660
531.34	0.658
531.54	0.656
531.74	0.660
531.94	0.663
532.13	0.661
532.33	0.663
532.53	0.662
532.73	0.662
532.93	0.660
533.13	0.660
533.33	0.661
533.52	0.662
533.72	0.665
533.92	0.663
534.12	0.661
534.32	0.661
534.52	0.659
534.71	0.660
534.91	0.664
535.11	0.665
535.31	0.663
535.51	0.665
535.71	0.667
535.90	0.664
536.10	0.665
536.30	0.668
536.50	0.669
536.70	0.670
536.89	0.667
537.09	0.667
537.29	0.668
537.49	0.668
537.69	0.666
537.89	0.666
538.08	0.666
538.28	0.664
538.48	0.664
538.68	0.665
538.88	0.666
539.07	0.667
539.27	0.665
539.47	0.664
539.67	0.665
539.87	0.667
540.06	0.664
540.26	0.665
540.46	0.668
540.66	0.665
540.86	0.663
541.05	0.663
541.25	0.665
541.45	0.664
541.65	0.663
541.84	0.665
542.04	0.665
542.24	0.666
542.44	0.664
542.64	0.665
542.83	0.668
543.03	0.668
543.23	0.666
543.43	0.667
543.62	0.668
543.82	0.669
544.02	0.667
544.22	0.667
544.42	0.671
544.61	0.671
544.81	0.668
545.01	0.667
545.21	0.669
545.40	0.669
545.60	0.666
545.80	0.670
546.00	0.670
546.19	0.669
546.39	0.668
546.59	0.665
546.79	0.668
546.98	0.668
547.18	0.667
547.38	0.668
547.58	0.671
547.77	0.672
547.97	0.668
548.17	0.669
548.37	0.670
548.56	0.669
548.76	0.669
548.96	0.671
549.16	0.673
549.35	0.673
549.55	0.671
549.75	0.671
549.95	0.675
550.14	0.675
550.34	0.673
550.54	0.678
550.73	0.682
550.93	0.683
551.13	0.679
551.33	0.677
551.52	0.678
551.72	0.678
551.92	0.675
552.12	0.675
552.31	0.677
552.51	0.677
552.71	0.673
552.90	0.672
553.10	0.673
553.30	0.674
553.50	0.674
553.69	0.675
553.89	0.676
554.09	0.677
554.28	0.674
554.48	0.675
554.68	0.677
554.87	0.677
555.07	0.674
555.27	0.674
555.47	0.676
555.66	0.676
555.86	0.675
556.06	0.677
556.25	0.679
556.45	0.687
556.65	0.685
556.84	0.689
557.04	0.693
557.24	0.694
557.43	0.694
557.63	0.696
557.83	0.698
558.02	0.699
558.22	0.703
558.42	0.703
558.61	0.696
558.81	0.696
559.01	0.691
559.21	0.690
559.40	0.692
559.60	0.692
559.80	0.688
559.99	0.689
560.19	0.692
560.39	0.685
560.58	0.682
560.78	0.683
560.97	0.686
561.17	0.685
561.37	0.683
561.56	0.684
561.76	0.685
561.96	0.685
562.15	0.682
562.35	0.684
562.55	0.686
562.74	0.685
562.94	0.684
563.14	0.682
563.33	0.683
563.53	0.683
563.73	0.680
563.92	0.682
564.12	0.685
564.31	0.687
564.51	0.685
564.71	0.687
564.90	0.690
565.10	0.691
565.30	0.694
565.49	0.694
565.69	0.697
565.89	0.697
566.08	0.694
566.28	0.696
566.47	0.698
566.67	0.696
566.87	0.692
567.06	0.694
567.26	0.701
567.46	0.696
567.65	0.695
567.85	0.696
568.04	0.700
568.24	0.699
568.44	0.696
568.63	0.694
568.83	0.696
569.02	0.694
569.22	0.688
569.42	0.684
569.61	0.687
569.81	0.685
570.00	0.683
570.20	0.684
570.40	0.685
570.59	0.685
570.79	0.682
570.98	0.681
571.18	0.683
571.38	0.683
571.57	0.680
571.77	0.677
571.96	0.682
572.16	0.679
572.35	0.673
572.55	0.674
572.75	0.673
572.94	0.673
573.14	0.671
573.33	0.671
573.53	0.671
573.73	0.671
573.92	0.669
574.12	0.667
574.31	0.670
574.51	0.671
574.70	0.668
574.90	0.669
575.09	0.672
575.29	0.672
575.49	0.669
575.68	0.669
575.88	0.671
576.07	0.673
576.27	0.670
576.46	0.669
576.66	0.668
576.86	0.667
577.05	0.665
577.25	0.663
577.44	0.665
577.64	0.665
577.83	0.663
578.03	0.664
578.22	0.663
578.42	0.662
578.61	0.661
578.81	0.662
579.00	0.663
579.20	0.662
579.40	0.661
579.59	0.659
579.79	0.660
579.98	0.659
580.18	0.658
580.37	0.659
580.57	0.661
580.76	0.665
580.96	0.663
581.15	0.664
581.35	0.667
581.54	0.666
581.74	0.666
581.93	0.667
582.13	0.668
582.32	0.665
582.52	0.663
582.71	0.663
582.91	0.659
583.10	0.659
583.30	0.658
583.49	0.657
583.69	0.661
583.88	0.661
584.08	0.660
584.27	0.663
584.47	0.666
584.66	0.667
584.86	0.666
585.05	0.668
585.25	0.671
585.44	0.670
585.64	0.669
585.83	0.666
586.03	0.667
586.22	0.665
586.42	0.661
586.61	0.663
586.81	0.666
587.00	0.666
587.20	0.663
587.39	0.664
587.59	0.667
587.78	0.668
587.98	0.668
588.17	0.669
588.37	0.671
588.56	0.673
588.76	0.669
588.95	0.669
589.15	0.673
589.34	0.675
589.54	0.673
589.73	0.674
589.92	0.677
590.12	0.676
590.31	0.673
590.51	0.679
590.70	0.681
590.90	0.681
591.09	0.680
591.29	0.679
591.48	0.679
591.68	0.680
591.87	0.678
592.06	0.677
592.26	0.680
592.45	0.679
592.65	0.672
592.84	0.672
593.04	0.674
593.23	0.676
593.43	0.673
593.62	0.672
593.81	0.673
594.01	0.672
594.20	0.670
594.40	0.669
594.59	0.672
594.79	0.673
594.98	0.671
595.17	0.671
595.37	0.672
595.56	0.675
595.76	0.674
595.95	0.675
596.14	0.679
596.34	0.680
596.53	0.678
596.73	0.679
596.92	0.680
597.12	0.683
597.31	0.683
597.50	0.681
597.70	0.684
597.89	0.683
598.09	0.679
598.28	0.680
598.47	0.682
598.67	0.681
598.86	0.677
599.06	0.679
599.25	0.680
599.44	0.678
599.64	0.675
599.83	0.673
600.03	0.676
600.22	0.677
600.41	0.677
600.61	0.675
600.80	0.678
601.00	0.679
601.19	0.674
601.38	0.672
601.58	0.676
601.77	0.677
601.96	0.679
602.16	0.679
602.35	0.687
602.55	0.684
602.74	0.685
602.93	0.686
603.13	0.692
603.32	0.693
603.51	0.692
603.71	0.696
603.90	0.697
604.09	0.697
604.29	0.694
604.48	0.689
604.68	0.691
604.87	0.689
605.06	0.685
605.26	0.682
605.45	0.683
605.64	0.682
605.84	0.677
606.03	0.676
606.22	0.675
606.42	0.675
606.61	0.670
606.80	0.670
607.00	0.672
607.19	0.672
607.38	0.671
607.58	0.672
607.77	0.675
607.96	0.675
608.16	0.674
608.35	0.679
608.54	0.683
608.74	0.686
608.93	0.691
609.12	0.694
609.32	0.697
609.51	0.700
609.70	0.699
609.90	0.700
610.09	0.705
610.28	0.710
610.48	0.703
610.67	0.704
610.86	0.706
611.06	0.699
611.25	0.697
611.44	0.697
611.64	0.697
611.83	0.700
612.02	0.696
612.21	0.695
612.41	0.694
612.60	0.693
612.79	0.689
612.99	0.689
613.18	0.692
613.37	0.690
613.57	0.688
613.76	0.689
613.95	0.688
614.14	0.687
614.34	0.684
614.53	0.685
614.72	0.689
614.92	0.689
615.11	0.686
615.30	0.682
615.49	0.684
615.69	0.687
615.88	0.682
616.07	0.683
616.26	0.686
616.46	0.687
616.65	0.684
616.84	0.682
617.04	0.684
617.23	0.688
617.42	0.688
617.61	0.692
617.81	0.693
618.00	0.696
618.19	0.694
618.38	0.698
618.58	0.702
618.77	0.703
618.96	0.702
619.15	0.704
619.35	0.706
619.54	0.706
619.73	0.701
619.92	0.703
620.12	0.708
620.31	0.708
620.50	0.702
620.69	0.703
620.89	0.706
621.08	0.706
621.27	0.706
621.46	0.705
621.66	0.710
621.85	0.710
622.04	0.705
622.23	0.706
622.43	0.707
622.62	0.707
622.81	0.706
623.00	0.705
623.19	0.709
623.39	0.708
623.58	0.704
623.77	0.702
623.96	0.706
624.16	0.706
624.35	0.701
624.54	0.704
624.73	0.708
624.92	0.706
625.12	0.704
625.31	0.704
625.50	0.708
625.69	0.708
625.88	0.705
626.08	0.704
626.27	0.706
626.46	0.706
626.65	0.703
626.84	0.703
627.04	0.708
627.23	0.707
627.42	0.703
627.61	0.705
627.80	0.709
628.00	0.709
628.19	0.707
628.38	0.709
628.57	0.713
628.76	0.712
628.96	0.708
629.15	0.709
629.34	0.712
629.53	0.714
629.72	0.708
629.91	0.708
630.11	0.714
630.30	0.714
630.49	0.716
630.68	0.718
630.87	0.722
631.06	0.724
631.26	0.719
631.45	0.722
631.64	0.730
631.83	0.732
632.02	0.729
632.21	0.728
632.41	0.735
632.60	0.730
632.79	0.727
632.98	0.727
633.17	0.729
633.36	0.730
633.55	0.725
633.75	0.720
633.94	0.723
634.13	0.722
634.32	0.719
634.51	0.713
634.70	0.716
634.89	0.716
635.09	0.712
635.28	0.712
635.47	0.714
635.66	0.717
635.85	0.712
636.04	0.714
636.23	0.719
636.43	0.720
636.62	0.719
636.81	0.718
637.00	0.721
637.19	0.726
637.38	0.722
637.57	0.722
637.76	0.724
637.95	0.725
638.15	0.722
638.34	0.719
638.53	0.723
638.72	0.725
638.91	0.722
639.10	0.718
639.29	0.718
639.48	0.719
639.67	0.719
639.87	0.717
640.06	0.724
640.25	0.722
640.44	0.723
640.63	0.723
640.82	0.726
641.01	0.725
641.20	0.726
641.39	0.727
641.58	0.730
641.78	0.729
641.97	0.724
642.16	0.738
642.35	0.740
642.54	0.739
642.73	0.733
642.92	0.731
643.11	0.736
643.30	0.735
643.49	0.730
643.68	0.733
643.87	0.736
644.06	0.735
644.25	0.714
644.45	0.718
644.64	0.719
644.83	0.720
645.02	0.716
645.21	0.714
645.40	0.717
645.59	0.716
645.78	0.710
645.97	0.712
646.16	0.713
646.35	0.712
646.54	0.709
646.73	0.710
646.92	0.712
647.11	0.711
647.30	0.707
647.49	0.709
647.68	0.709
647.88	0.708
648.07	0.700
648.26	0.704
648.45	0.707
648.64	0.703
648.83	0.701
649.02	0.704
649.21	0.716
649.40	0.715
649.59	0.709
649.78	0.709
649.97	0.724
650.16	0.724
650.35	0.717
650.54	0.718
650.73	0.727
650.92	0.723
651.11	0.716
651.30	0.713
651.49	0.717
651.68	0.718
651.87	0.715
652.06	0.705
652.25	0.708
652.44	0.711
652.63	0.708
652.82	0.708
653.01	0.707
653.20	0.704
653.39	0.691
653.58	0.688
653.77	0.688
653.96	0.683
654.15	0.674
654.34	0.673
654.53	0.668
654.72	0.662
654.91	0.653
655.10	0.649
655.29	0.647
655.48	0.646
655.67	0.641
655.86	0.638
656.05	0.637
656.24	0.637
656.43	0.631
656.62	0.630
656.81	0.631
657.00	0.629
657.19	0.627
657.38	0.627
657.57	0.627
657.76	0.629
657.95	0.627
658.14	0.630
658.33	0.633
658.51	0.639
658.70	0.639
658.89	0.640
659.08	0.650
659.27	0.657
659.46	0.657
659.65	0.663
659.84	0.668
660.03	0.671
660.22	0.671
660.41	0.676
660.60	0.675
660.79	0.676
660.98	0.682
661.17	0.681
661.36	0.681
661.55	0.682
661.74	0.679
661.92	0.682
662.11	0.684
662.30	0.683
662.49	0.676
662.68	0.675
662.87	0.680
663.06	0.673
663.25	0.673
663.44	0.673
663.63	0.674
663.82	0.674
664.01	0.668
664.20	0.667
664.38	0.669
664.57	0.669
664.76	0.668
664.95	0.668
665.14	0.674
665.33	0.670
665.52	0.677
665.71	0.680
665.90	0.679
666.09	0.681
666.28	0.678
666.46	0.677
666.65	0.678
666.84	0.677
667.03	0.670
667.22	0.667
667.41	0.671
667.60	0.660
667.79	0.653
667.98	0.655
668.16	0.656
668.35	0.656
668.54	0.652
668.73	0.653
668.92	0.654
669.11	0.654
669.30	0.648
669.49	0.644
669.67	0.646
669.86	0.648
670.05	0.645
670.24	0.643
670.43	0.640
670.62	0.639
670.81	0.634
671.00	0.634
671.18	0.634
671.37	0.633
671.56	0.630
671.75	0.630
671.94	0.626
672.13	0.624
672.32	0.619
672.50	0.619
672.69	0.620
672.88	0.620
673.07	0.616
673.26	0.619
673.45	0.619
673.63	0.620
673.82	0.616
674.01	0.617
674.20	0.617
674.39	0.617
674.58	0.616
674.76	0.615
674.95	0.614
675.14	0.614
675.33	0.609
675.52	0.608
675.71	0.608
675.89	0.608
676.08	0.603
676.27	0.604
676.46	0.604
676.65	0.604
676.84	0.603
677.02	0.605
677.21	0.607
677.40	0.606
677.59	0.603
677.78	0.604
677.96	0.606
678.15	0.605
678.34	0.603
678.53	0.603
678.72	0.604
678.90	0.600
679.09	0.596
679.28	0.593
679.47	0.593
679.66	0.593
679.84	0.589
680.03	0.587
680.22	0.587
680.41	0.588
680.60	0.584
680.78	0.583
680.97	0.586
681.16	0.586
681.35	0.585
681.53	0.583
681.72	0.585
681.91	0.587
682.10	0.585
682.29	0.588
682.47	0.586
682.66	0.586
682.85	0.584
683.04	0.582
683.22	0.583
683.41	0.584
683.60	0.583
683.79	0.584
683.97	0.584
684.16	0.583
684.35	0.578
684.54	0.580
684.72	0.580
684.91	0.581
685.10	0.578
685.29	0.579
685.47	0.577
685.66	0.575
685.85	0.572
686.04	0.571
686.22	0.574
686.41	0.576
686.60	0.573
686.79	0.576
686.97	0.577
687.16	0.578
687.35	0.576
687.54	0.579
687.72	0.583
687.91	0.583
688.10	0.585
688.29	0.584
688.47	0.582
688.66	0.582
688.85	0.578
689.03	0.576
689.22	0.581
689.41	0.582
689.60	0.577
689.78	0.573
689.97	0.575
690.16	0.571
690.34	0.568
690.53	0.567
690.72	0.568
690.91	0.566
691.09	0.563
691.28	0.557
691.47	0.556
691.65	0.555
691.84	0.553
692.03	0.551
692.21	0.550
692.40	0.549
692.59	0.547
692.77	0.546
692.96	0.547
693.15	0.548
693.34	0.546
693.52	0.546
693.71	0.546
693.90	0.548
694.08	0.548
694.27	0.548
694.46	0.558
694.64	0.559
694.83	0.558
695.02	0.557
695.20	0.557
695.39	0.557
695.58	0.557
695.76	0.557
695.95	0.556
696.14	0.556
696.32	0.554
696.51	0.544
696.70	0.544
696.88	0.545
697.07	0.544
697.26	0.545
697.44	0.546
697.63	0.545
697.81	0.543
698.00	0.543
698.19	0.543
698.37	0.543
698.56	0.542
698.75	0.541
698.93	0.541
699.12	0.542
699.31	0.540
699.49	0.540
699.68	0.541
699.87	0.543
700.05	0.543
700.24	0.542
700.42	0.544
700.61	0.543
700.80	0.541
700.98	0.541
701.17	0.543
701.36	0.541
701.54	0.540
701.73	0.542
701.91	0.540
702.10	0.539
702.29	0.537
702.47	0.536
702.66	0.538
702.84	0.539
703.03	0.537
703.22	0.538
703.40	0.539
703.59	0.540
703.77	0.539
703.96	0.539
704.15	0.540
704.33	0.540
704.52	0.539
704.70	0.538
704.89	0.538
705.08	0.537
705.26	0.533
705.45	0.532
705.63	0.532
705.82	0.529
706.00	0.529
706.19	0.527
706.38	0.528
706.56	0.527
706.75	0.525
706.93	0.524
707.12	0.525
707.30	0.525
707.49	0.524
707.68	0.522
707.86	0.521
708.05	0.521
708.23	0.519
708.42	0.520
708.60	0.522
708.79	0.522
708.98	0.520
709.16	0.520
709.35	0.522
709.53	0.526
709.72	0.525
709.90	0.526
710.09	0.528
710.27	0.531
710.46	0.534
710.64	0.532
710.83	0.535
711.02	0.536
711.20	0.535
711.39	0.533
711.57	0.531
711.76	0.532
711.94	0.529
712.13	0.530
712.31	0.529
712.50	0.525
712.68	0.522
712.87	0.522
713.05	0.523
713.24	0.523
713.42	0.522
713.61	0.523
713.79	0.523
713.98	0.523
714.16	0.524
714.35	0.524
714.54	0.525
714.72	0.524
714.91	0.522
715.09	0.529
715.28	0.532
715.46	0.533
715.65	0.529
715.83	0.529
716.02	0.532
716.20	0.528
716.39	0.528
716.57	0.530
716.76	0.533
716.94	0.533
717.12	0.525
717.31	0.527
717.49	0.530
717.68	0.532
717.86	0.532
718.05	0.534
718.23	0.536
718.42	0.538
718.60	0.539
718.79	0.547
718.97	0.549
719.16	0.549
719.34	0.546
719.53	0.546
719.71	0.546
719.90	0.548
720.08	0.545
720.27	0.546
720.45	0.546
720.63	0.545
720.82	0.539
721.00	0.542
721.19	0.546
721.37	0.545
721.56	0.545
721.74	0.548
721.93	0.556
722.11	0.563
722.30	0.562
722.48	0.566
722.66	0.568
722.85	0.567
723.03	0.567
723.22	0.565
723.40	0.569
723.59	0.568
723.77	0.572
723.95	0.567
724.14	0.569
724.32	0.570
724.51	0.568
724.69	0.570
724.88	0.570
725.06	0.569
725.24	0.569
725.43	0.571
725.61	0.574
725.80	0.567
725.98	0.564
726.16	0.561
726.35	0.567
726.53	0.567
726.72	0.566
726.90	0.578
727.09	0.578
727.27	0.584
727.45	0.581
727.64	0.589
727.82	0.597
728.01	0.601
728.19	0.597
728.37	0.602
728.56	0.606
728.74	0.613
728.92	0.600
729.11	0.604
729.29	0.603
729.48	0.604
729.66	0.593
729.84	0.594
730.03	0.599
730.21	0.601
730.40	0.591
730.58	0.593
730.76	0.593
730.95	0.595
731.13	0.595
731.31	0.609
731.50	0.620
731.68	0.624
731.86	0.620
732.05	0.634
732.23	0.638
732.42	0.641
732.60	0.643
732.78	0.648
732.97	0.669
733.15	0.676
733.33	0.663
733.52	0.669
733.70	0.683
733.88	0.693
734.07	0.678
734.25	0.705
734.43	0.715
734.62	0.720
734.80	0.713
734.98	0.702
735.17	0.711
735.35	0.719
735.53	0.706
735.72	0.708
735.90	0.732
736.08	0.753
736.27	0.728
736.45	0.739
736.63	0.752
736.82	0.764
737.00	0.765
737.18	0.776
737.37	0.810
737.55	0.836
737.73	0.830
737.92	0.831
738.10	0.830
738.28	0.852
738.46	0.840
738.65	0.851
738.83	0.878
739.01	0.936
739.20	0.926
739.38	0.910
739.56	0.903
739.75	0.907
739.93	0.870
740.11	0.897
740.29	0.898
740.48	0.903
740.66	0.882
740.84	0.875
741.03	0.839
741.21	0.846
741.39	0.825
741.57	0.840
741.76	0.859
741.94	0.864
742.12	0.821
742.31	0.828
742.49	0.853
742.67	0.877
742.85	0.888
743.04	0.891
743.22	0.904
743.40	0.962
743.58	0.936
743.77	0.960
743.95	1.008
744.13	1.071
744.31	1.045
744.50	1.036
744.68	1.035
744.86	1.010
745.04	1.025
745.23	1.105
745.41	1.085
745.59	1.092
745.77	1.040
745.96	1.026
746.14	1.043
746.32	1.041
746.50	1.027
746.69	1.013
746.87	1.026
747.05	1.008
747.23	0.922
747.42	0.906
747.60	0.939
747.78	0.943
747.96	0.972
748.14	0.919
748.33	0.958
748.51	0.957
748.69	0.946
748.87	0.981
749.06	0.977
749.24	0.976
749.42	0.957
749.60	0.940
749.78	0.956
749.97	0.903
750.15	0.900
750.33	0.899
750.51	0.929
750.69	0.936
750.88	0.936
751.06	0.946
751.24	0.980
751.42	0.971
751.60	0.956
751.79	1.040
751.97	1.105
752.15	1.095
752.33	1.055
752.51	1.127
752.69	1.152
752.88	1.109
753.06	1.170
753.24	1.132
753.42	1.183
753.60	1.419
753.78	1.210
753.97	1.230
754.15	1.257
754.33	1.281
754.51	1.125
754.69	1.095
754.87	1.135
755.06	1.047
755.24	1.045
755.42	1.053
755.60	0.943
755.78	0.950
755.96	0.886
756.15	0.887
756.33	0.898
756.51	0.915
756.69	0.900
756.87	0.865
757.05	0.887
757.23	0.871
757.42	0.835
757.60	0.833
757.78	0.822
757.96	0.821
758.14	0.802
758.32	0.787
758.50	0.803
758.69	0.800
758.87	0.788
759.05	0.795
759.23	0.806
759.41	0.803
759.59	0.795
759.77	0.820
759.95	0.852
760.13	0.907
760.32	0.903
760.50	0.896
760.68	0.925
760.86	0.926
761.04	0.894
761.22	0.894
761.40	0.953
761.58	0.956
761.76	0.923
761.95	0.903
762.13	0.857
762.31	0.857
762.49	0.823
762.67	0.844
762.85	0.860
763.03	0.851
763.21	0.832
763.39	0.811
763.57	0.815
763.75	0.809
763.94	0.790
764.12	0.788
764.30	0.817
764.48	0.822
764.66	0.780
764.84	0.780
765.02	0.825
765.20	0.832
765.38	0.810
765.56	0.816
765.74	0.862
765.92	0.864
766.10	0.872
766.28	0.863
766.46	0.897
766.65	0.898
766.83	0.884
767.01	0.864
767.19	0.874
767.37	0.875
767.55	0.858
767.73	0.837
767.91	0.843
768.09	0.829
768.27	0.814
768.45	0.802
768.63	0.810
768.81	0.812
768.99	0.783
769.17	0.808
769.35	0.826
769.53	0.821
769.71	0.799
769.89	0.806
770.07	0.815
770.25	0.799
770.43	0.773
770.61	0.797
770.79	0.804
770.97	0.815
771.15	0.782
771.33	0.785
771.51	0.791
771.69	0.802
771.87	0.812
772.05	0.817
772.24	0.827
772.42	0.839
772.60	0.814
772.78	0.881
772.96	0.917
773.14	0.911
773.32	0.883
773.49	0.892
773.67	0.889
773.85	0.866
774.03	0.849
774.21	0.884
774.39	0.900
774.57	0.924
774.75	0.841
774.93	0.833
775.11	0.861
775.29	0.866
775.47	0.865
775.65	0.876
775.83	0.896
776.01	0.926
776.19	0.871
776.37	0.871
776.55	0.873
776.73	0.870
776.91	0.861
777.09	0.841
777.27	0.844
777.45	0.833
777.63	0.807
777.81	0.805
777.99	0.790
778.17	0.790
778.35	0.763
778.53	0.751
778.71	0.756
778.89	0.745
779.07	0.733
779.24	0.735
779.42	0.736
779.60	0.757
779.78	0.750
779.96	0.757
780.14	0.764
780.32	0.789
780.50	0.770
780.68	0.770
780.86	0.762
781.04	0.781
781.22	0.782
781.40	0.793
781.58	0.784
781.75	0.776
781.93	0.756
782.11	0.758
782.29	0.741
782.47	0.740
782.65	0.725
782.83	0.754
783.01	0.750
783.19	0.746
783.37	0.731
783.55	0.736
783.72	0.757
783.90	0.767
784.08	0.757
784.26	0.770
784.44	0.794
784.62	0.797
784.80	0.760
784.98	0.765
785.16	0.770
785.33	0.783
785.51	0.762
785.69	0.746
785.87	0.745
786.05	0.756
786.23	0.750
786.41	0.745
786.59	0.752
786.77	0.753
786.94	0.737
787.12	0.742
787.30	0.746
787.48	0.744
787.66	0.730
787.84	0.734
788.02	0.725
788.19	0.724
788.37	0.711
788.55	0.712
788.73	0.714
788.91	0.708
789.09	0.688
789.27	0.676
789.44	0.691
789.62	0.698
789.80	0.705
789.98	0.731
790.16	0.715
790.34	0.710
790.51	0.696
790.69	0.716
790.87	0.724
791.05	0.724
791.23	0.718
791.41	0.719
791.58	0.728
791.76	0.706
791.94	0.673
792.12	0.684
792.30	0.688
792.48	0.685
792.65	0.676
792.83	0.684
793.01	0.693
793.19	0.688
793.37	0.670
793.54	0.666
793.72	0.679
793.90	0.678
794.08	0.665
794.26	0.665
794.43	0.678
794.61	0.663
794.79	0.649
794.97	0.646
795.15	0.654
795.32	0.659
795.50	0.646
795.68	0.642
795.86	0.646
796.04	0.649
796.21	0.643
796.39	0.640
796.57	0.655
796.75	0.663
796.92	0.663
797.10	0.668
797.28	0.670
797.46	0.676
797.64	0.675
797.81	0.684
797.99	0.689
798.17	0.692
798.35	0.686
798.52	0.688
798.70	0.686
798.88	0.695
799.06	0.692
799.23	0.693
799.41	0.702
799.59	0.694
799.77	0.680
799.94	0.690
800.12	0.700
800.30	0.718
800.48	0.714
800.65	0.712
800.83	0.705
801.01	0.698
801.19	0.699
801.36	0.694
801.54	0.702
801.72	0.714
801.90	0.700
802.07	0.696
802.25	0.682
802.43	0.667
802.60	0.663
802.78	0.669
802.96	0.674
803.14	0.666
803.31	0.664
803.49	0.661
803.67	0.658
803.84	0.662
804.02	0.652
804.20	0.654
804.38	0.660
804.55	0.659
804.73	0.644
804.91	0.646
805.08	0.661
805.26	0.657
805.44	0.727
805.61	0.729
805.79	0.729
805.97	0.727
806.15	0.717
806.32	0.713
806.50	0.720
806.68	0.719
806.85	0.710
807.03	0.700
807.21	0.717
807.38	0.645
807.56	0.634
807.74	0.645
807.91	0.653
808.09	0.657
808.27	0.674
808.44	0.703
808.62	0.714
808.80	0.715
808.97	0.708
809.15	0.703
809.33	0.721
809.50	0.728
809.68	0.714
809.86	0.722
810.03	0.756
810.21	0.734
810.39	0.714
810.56	0.720
810.74	0.747
810.91	0.829
811.09	0.813
811.27	0.841
811.44	0.849
811.62	0.851
811.80	0.832
811.97	0.795
812.15	0.796
812.33	0.790
812.50	0.775
812.68	0.762
812.85	0.700
813.03	0.705
813.21	0.668
813.38	0.660
813.56	0.665
813.74	0.674
813.91	0.683
814.09	0.716
814.26	0.711
814.44	0.715
814.62	0.701
814.79	0.705
814.97	0.710
815.14	0.716
815.32	0.720
815.50	0.736
815.67	0.741
815.85	0.731
816.02	0.718
816.20	0.726
816.38	0.742
816.55	0.751
816.73	0.749
816.90	0.764
817.08	0.798
817.26	0.804
817.43	0.783
817.61	0.811
817.78	0.836
817.96	0.812
818.13	0.798
818.31	0.798
818.49	0.815
818.66	0.805
818.84	0.784
819.01	0.759
819.19	0.769
819.36	0.772
819.54	0.739
819.71	0.784
819.89	0.799
820.07	0.815
820.24	0.809
820.42	0.810
820.59	0.832
820.77	0.859
820.94	0.846
821.12	0.866
821.29	0.883
821.47	0.883
821.64	0.807
821.82	0.826
822.00	0.825
822.17	0.823
822.35	0.809
822.52	0.814
822.70	0.806
822.87	0.822
823.05	0.795
823.22	0.809
823.40	0.843
823.57	0.870
823.75	0.846
823.92	0.881
824.10	0.905
824.27	0.957
824.45	0.945
824.62	1.025
824.80	1.050
824.97	1.070
825.15	1.051
825.32	1.069
825.50	1.081
825.67	1.102
825.85	1.062
826.02	1.093
826.20	1.132
826.37	1.322
826.55	1.191
826.72	1.537
826.90	1.793
827.07	2.067
827.25	1.798
827.42	-0.000
827.60	-0.000
827.77	-0.000
827.95	-0.000
828.12	-0.000
828.30	-0.000
828.47	-0.000
828.65	1.789
828.82	2.063
829.00	-0.000
829.17	-0.000
829.34	-0.000
829.52	-0.000
829.69	-0.000
829.87	-0.000
830.04	-0.000
830.22	-0.000
830.39	-0.000
830.57	-0.000
830.74	-0.000
830.92	-0.000
831.09	-0.000
831.26	-0.000
831.44	-0.000
831.61	-0.000
831.79	-0.000
831.96	-0.000
832.14	-0.000
832.31	-0.000
832.49	-0.000
832.66	-0.000
832.83	-0.000
833.01	-0.000
833.18	-0.000
833.36	-0.000
833.53	-0.000
833.70	-0.000
833.88	-0.000
834.05	-0.000
834.23	-0.000
834.40	-0.000
834.58	-0.000
834.75	-0.000
834.92	-0.000
835.10	-0.000
835.27	-0.000
835.45	-0.000
835.62	-0.000
835.79	-0.000
835.97	-0.000
836.14	-0.000
836.32	-0.000
836.49	-0.000
836.66	-0.000
836.84	-0.000
837.01	-0.000
837.18	-0.000
837.36	-0.000
837.53	-0.000
837.71	-0.000
837.88	-0.000
838.05	-0.000
838.23	-0.000
838.40	-0.000
838.58	-0.000
838.75	-0.000
838.92	-0.000
839.10	-0.000
839.27	-0.000
839.44	-0.000
839.62	-0.000
839.79	-0.000
839.96	-0.000
840.14	-0.000
840.31	-0.000
840.48	-0.000
840.66	-0.000
840.83	-0.000
841.01	-0.000
841.18	-0.000
841.35	-0.000
841.53	-0.000
841.70	-0.000
841.87	-0.000
842.05	-0.000
842.22	-0.000
842.39	-0.000
842.57	-0.000
842.74	-0.000
842.91	-0.000
843.09	-0.000
843.26	-0.000
843.43	-0.000
843.60	-0.000
843.78	-0.000
843.95	-0.000
844.12	-0.000
844.30	-0.000
844.47	-0.000
844.64	-0.000
844.82	-0.000
844.99	-0.000
845.16	-0.000
845.34	-0.000
845.51	-0.000
845.68	-0.000
845.85	-0.000
846.03	-0.000
846.20	-0.000
846.37	-0.000
846.55	-0.000
846.72	-0.000
846.89	-0.000
847.06	-0.000
847.24	-0.000
847.41	-0.000
847.58	-0.000
847.76	-0.000
847.93	-0.000
848.10	-0.000
848.27	-0.000
848.45	-0.000
848.62	-0.000
848.79	-0.000
848.97	-0.000
849.14	-0.000
849.31	-0.000
849.48	-0.000
849.66	-0.000
849.83	-0.000
850.00	-0.000
850.17	-0.000
850.35	-0.000
850.52	-0.000
850.69	-0.000
850.86	-0.000
851.04	-0.000
851.21	-0.000
851.38	-0.000
851.55	-0.000
851.72	-0.000
851.90	-0.000
852.07	-0.000
852.24	-0.000
852.41	-0.000
852.59	-0.000
852.76	-0.000
852.93	-0.000
853.10	-0.000
853.28	-0.000
853.45	-0.000
853.62	-0.000
853.79	-0.000
853.96	-0.000
854.14	-0.000
854.31	-0.000
854.48	-0.000
854.65	-0.000
854.82	-0.000
855.00	-0.000
855.17	-0.000
855.34	-0.000
855.51	-0.000
855.68	-0.000
855.86	-0.000
856.03	-0.000
856.20	-0.000
856.37	-0.000
856.54	-0.000
856.72	-0.000
856.89	-0.000
857.06	-0.000
857.23	-0.000
857.40	-0.000
857.57	-0.000
857.75	-0.000
857.92	-0.000
858.09	-0.000
858.26	-0.000
858.43	-0.000
858.60	-0.000
858.78	-0.000
858.95	-0.000
859.12	-0.000
859.29	-0.000
859.46	-0.000
859.63	-0.000
859.81	-0.000
859.98	-0.000
860.15	-0.000
860.32	-0.000
860.49	-0.000
860.66	-0.000
860.83	-0.000
861.01	-0.000
861.18	-0.000
861.35	-0.000
861.52	-0.000
861.69	-0.000
861.86	-0.000
862.03	-0.000
862.21	-0.000
862.38	-0.000
862.55	-0.000
862.72	-0.000
862.89	-0.000
863.06	-0.000
863.23	-0.000
863.40	-0.000
863.58	-0.000
863.75	-0.000
863.92	-0.000
864.09	-0.000
864.26	-0.000
864.43	-0.000
864.60	-0.000
864.77	-0.000
864.94	-0.000
865.11	-0.000
865.29	-0.000
865.46	-0.000
865.63	-0.000
865.80	-0.000
865.97	-0.000
866.14	-0.000
866.31	-0.000
866.48	-0.000
866.65	-0.000
866.82	-0.000
866.99	-0.000
867.16	-0.000
867.34	-0.000
867.51	-0.000
867.68	-0.000
867.85	-0.000
868.02	-0.000
868.19	-0.000
868.36	-0.000
868.53	-0.000
868.70	-0.000
868.87	-0.000
869.04	-0.000
869.21	-0.000
869.38	-0.000
869.55	-0.000
869.72	-0.000
869.89	-0.000
870.06	-0.000
870.24	-0.000
870.41	-0.000
870.58	-0.000
870.75	-0.000
870.92	-0.000
871.09	-0.000
871.26	-0.000
871.43	-0.000
871.60	-0.000
871.77	-0.000
871.94	-0.000
872.11	-0.000
872.28	-0.000
872.45	-0.000
872.62	-0.000
872.79	-0.000
872.96	-0.000
873.13	-0.000
873.30	-0.000
873.47	-0.000
873.64	-0.000
873.81	-0.000
873.98	-0.000
874.15	-0.000
874.32	-0.000
874.49	-0.000
874.66	-0.000
874.83	-0.000
875.00	-0.000
875.17	-0.000
875.34	-0.000
875.51	-0.000
875.68	-0.000
875.85	-0.000
876.02	-0.000
876.19	-0.000
876.36	-0.000
876.53	-0.000
876.70	-0.000
876.87	-0.000
877.04	-0.000
877.21	-0.000
877.38	-0.000
877.55	-0.000
877.72	-0.000
877.89	-0.000
878.06	-0.000
878.23	-0.000
878.39	-0.000
878.56	-0.000
878.73	-0.000
878.90	-0.000
879.07	-0.000
879.24	-0.000
879.41	-0.000
879.58	-0.000
879.75	-0.000
879.92	-0.000
880.09	-0.000
880.26	-0.000
880.43	-0.000
880.60	-0.000
880.77	-0.000
880.94	-0.000
881.11	-0.000
881.27	-0.000
881.44	-0.000
881.61	-0.000
881.78	-0.000
881.95	-0.000
882.12	-0.000
882.29	-0.000
882.46	-0.000
882.63	-0.000
882.80	-0.000
882.97	-0.000
883.14	-0.000
883.30	-0.000
883.47	-0.000
883.64	-0.000
883.81	-0.000
883.98	-0.000
884.15	-0.000
884.32	-0.000
884.49	-0.000
884.66	-0.000
884.82	-0.000
884.99	-0.000
885.16	-0.000
885.33	-0.000
885.50	-0.000
885.67	-0.000
885.84	-0.000
886.01	-0.000
886.17	-0.000
886.34	-0.000
886.51	-0.000
886.68	-0.000
886.85	-0.000
887.02	-0.000
887.19	-0.000
887.36	-0.000
887.52	-0.000
887.69	-0.000
887.86	-0.000
888.03	-0.000
888.20	-0.000
888.37	-0.000
888.54	-0.000
888.70	-0.000
888.87	-0.000
889.04	-0.000
889.21	-0.000
889.38	-0.000
889.55	-0.000
889.71	-0.000
889.88	-0.000
890.05	-0.000
890.22	-0.000
890.39	-0.000
>>>>>End Processed Spectral Data<<<<<
