SpectraSuite Data File
++++++++++++++++++++++++++++++++++++
Date: Fri Jun 19 12:33:49 CEST 2015
User: introlabs
Dark Spectrum Present: Yes
Reference Spectrum Present: Yes
Number of Sampled Component Spectra: 1
Spectrometers: USB4H08886
Integration Time (usec): 745692 (USB4H08886)
Spectra Averaged: 5 (USB4H08886)
Boxcar Smoothing: 5 (USB4H08886)
Correct for Electrical Dark: Yes (USB4H08886)
Strobe/Lamp Enabled: No (USB4H08886)
Correct for Detector Non-linearity: Yes (USB4H08886)
Correct for Stray Light: Yes (USB4H08886)
Number of Pixels in Processed Spectrum: 3648
>>>>>Begin Processed Spectral Data<<<<<
178.14	-0.000
178.36	-0.000
178.57	-0.000
178.79	-0.000
179.01	-0.000
179.22	-0.000
179.44	-0.000
179.65	-0.000
179.87	-0.000
180.08	-0.000
180.30	-0.000
180.52	-0.000
180.73	-0.000
180.95	-0.000
181.16	-0.000
181.38	-0.000
181.59	-0.000
181.81	-0.000
182.03	-0.000
182.24	-0.000
182.46	-0.000
182.67	-0.000
182.89	-0.000
183.10	-0.000
183.32	-0.000
183.54	-0.000
183.75	-0.000
183.97	-0.000
184.18	-0.000
184.40	-0.000
184.61	-0.000
184.83	-0.000
185.04	-0.000
185.26	-0.000
185.48	-0.000
185.69	-0.000
185.91	-0.000
186.12	-0.000
186.34	-0.000
186.55	-0.000
186.77	-0.000
186.98	-0.000
187.20	-0.000
187.42	-0.000
187.63	-0.000
187.85	-0.000
188.06	-0.000
188.28	-0.000
188.49	-0.000
188.71	-0.000
188.92	-0.000
189.14	-0.000
189.36	-0.000
189.57	-0.000
189.79	-0.000
190.00	-0.000
190.22	-0.000
190.43	-0.000
190.65	-0.000
190.86	-0.000
191.08	-0.000
191.29	-0.000
191.51	-0.000
191.72	-0.000
191.94	-0.000
192.16	-0.000
192.37	-0.000
192.59	-0.000
192.80	-0.000
193.02	-0.000
193.23	-0.000
193.45	-0.000
193.66	-0.000
193.88	-0.000
194.09	-0.000
194.31	-0.000
194.52	-0.000
194.74	-0.000
194.95	-0.000
195.17	-0.000
195.38	-0.000
195.60	-0.000
195.81	-0.000
196.03	-0.000
196.25	-0.000
196.46	-0.000
196.68	-0.000
196.89	-0.000
197.11	-0.000
197.32	-0.000
197.54	-0.000
197.75	-0.000
197.97	-0.000
198.18	-0.000
198.40	-0.000
198.61	-0.000
198.83	-0.000
199.04	-0.000
199.26	-0.000
199.47	-0.000
199.69	-0.000
199.90	-0.000
200.12	-0.000
200.33	-0.000
200.55	-0.000
200.76	-0.000
200.98	-0.000
201.19	-0.000
201.41	-0.000
201.62	-0.000
201.84	-0.000
202.05	-0.000
202.27	-0.000
202.48	-0.000
202.70	-0.000
202.91	-0.000
203.13	-0.000
203.34	-0.000
203.56	-0.000
203.77	-0.000
203.99	-0.000
204.20	-0.000
204.42	-0.000
204.63	-0.000
204.85	-0.000
205.06	-0.000
205.28	-0.000
205.49	-0.000
205.71	-0.000
205.92	-0.000
206.14	-0.000
206.35	-0.000
206.56	-0.000
206.78	-0.000
206.99	-0.000
207.21	-0.000
207.42	-0.000
207.64	-0.000
207.85	-0.000
208.07	-0.000
208.28	-0.000
208.50	-0.000
208.71	-0.000
208.93	-0.000
209.14	-0.000
209.36	-0.000
209.57	-0.000
209.79	-0.000
210.00	-0.000
210.22	-0.000
210.43	-0.000
210.64	-0.000
210.86	-0.000
211.07	-0.000
211.29	-0.000
211.50	-0.000
211.72	-0.000
211.93	-0.000
212.15	-0.000
212.36	-0.000
212.58	-0.000
212.79	-0.000
213.01	-0.000
213.22	-0.000
213.43	-0.000
213.65	-0.000
213.86	-0.000
214.08	-0.000
214.29	-0.000
214.51	-0.000
214.72	-0.000
214.94	-0.000
215.15	-0.000
215.36	-0.000
215.58	-0.000
215.79	-0.000
216.01	-0.000
216.22	-0.000
216.44	-0.000
216.65	-0.000
216.87	-0.000
217.08	-0.000
217.29	-0.000
217.51	-0.000
217.72	-0.000
217.94	-0.000
218.15	-0.000
218.37	-0.000
218.58	-0.000
218.80	-0.000
219.01	-0.000
219.22	-0.000
219.44	-0.000
219.65	-0.000
219.87	-0.000
220.08	-0.000
220.30	-0.000
220.51	-0.000
220.72	-0.000
220.94	-0.000
221.15	-0.000
221.37	-0.000
221.58	-0.000
221.79	-0.000
222.01	-0.000
222.22	-0.000
222.44	-0.000
222.65	-0.000
222.87	-0.000
223.08	-0.000
223.29	-0.000
223.51	-0.000
223.72	-0.000
223.94	-0.000
224.15	-0.000
224.36	-0.000
224.58	-0.000
224.79	-0.000
225.01	-0.000
225.22	-0.000
225.44	-0.000
225.65	-0.000
225.86	-0.000
226.08	-0.000
226.29	-0.000
226.51	-0.000
226.72	-0.000
226.93	-0.000
227.15	-0.000
227.36	-0.000
227.58	-0.000
227.79	-0.000
228.00	-0.000
228.22	-0.000
228.43	-0.000
228.65	-0.000
228.86	-0.000
229.07	-0.000
229.29	-0.000
229.50	-0.000
229.72	-0.000
229.93	-0.000
230.14	-0.000
230.36	-0.000
230.57	-0.000
230.78	-0.000
231.00	-0.000
231.21	-0.000
231.43	-0.000
231.64	-0.000
231.85	-0.000
232.07	-0.000
232.28	-0.000
232.50	-0.000
232.71	-0.000
232.92	-0.000
233.14	-0.000
233.35	-0.000
233.56	-0.000
233.78	-0.000
233.99	-0.000
234.21	-0.000
234.42	-0.000
234.63	-0.000
234.85	-0.000
235.06	-0.000
235.27	-0.000
235.49	-0.000
235.70	-0.000
235.91	-0.000
236.13	-0.000
236.34	-0.000
236.56	-0.000
236.77	-0.000
236.98	-0.000
237.20	-0.000
237.41	-0.000
237.62	-0.000
237.84	-0.000
238.05	-0.000
238.26	-0.000
238.48	-0.000
238.69	-0.000
238.91	-0.000
239.12	-0.000
239.33	-0.000
239.55	-0.000
239.76	-0.000
239.97	-0.000
240.19	-0.000
240.40	-0.000
240.61	-0.000
240.83	-0.000
241.04	-0.000
241.25	-0.000
241.47	-0.000
241.68	-0.000
241.89	-0.000
242.11	-0.000
242.32	-0.000
242.53	-0.000
242.75	-0.000
242.96	-0.000
243.17	-0.000
243.39	-0.000
243.60	-0.000
243.81	-0.000
244.03	-0.000
244.24	-0.000
244.45	-0.000
244.67	-0.000
244.88	-0.000
245.09	-0.000
245.31	-0.000
245.52	-0.000
245.73	-0.000
245.95	-0.000
246.16	-0.000
246.37	-0.000
246.59	-0.000
246.80	-0.000
247.01	-0.000
247.23	-0.000
247.44	-0.000
247.65	-0.000
247.87	-0.000
248.08	-0.000
248.29	-0.000
248.51	-0.000
248.72	-0.000
248.93	-0.000
249.15	-0.000
249.36	-0.000
249.57	-0.000
249.78	-0.000
250.00	-0.000
250.21	-0.000
250.42	-0.000
250.64	-0.000
250.85	-0.000
251.06	-0.000
251.28	-0.000
251.49	-0.000
251.70	-0.000
251.92	-0.000
252.13	-0.000
252.34	-0.000
252.55	-0.000
252.77	-0.000
252.98	-0.000
253.19	-0.000
253.41	-0.000
253.62	-0.000
253.83	-0.000
254.05	-0.000
254.26	-0.000
254.47	-0.000
254.68	-0.000
254.90	-0.000
255.11	-0.000
255.32	-0.000
255.54	-0.000
255.75	-0.000
255.96	-0.000
256.17	-0.000
256.39	-0.000
256.60	-0.000
256.81	-0.000
257.03	-0.000
257.24	-0.000
257.45	-0.000
257.66	-0.000
257.88	-0.000
258.09	-0.000
258.30	-0.000
258.51	-0.000
258.73	-0.000
258.94	-0.000
259.15	-0.000
259.37	-0.000
259.58	-0.000
259.79	-0.000
260.00	-0.000
260.22	-0.000
260.43	-0.000
260.64	-0.000
260.85	-0.000
261.07	-0.000
261.28	-0.000
261.49	-0.000
261.71	-0.000
261.92	-0.000
262.13	-0.000
262.34	-0.000
262.56	-0.000
262.77	-0.000
262.98	-0.000
263.19	-0.000
263.41	-0.000
263.62	-0.000
263.83	-0.000
264.04	-0.000
264.26	-0.000
264.47	-0.000
264.68	-0.000
264.89	-0.000
265.11	-0.000
265.32	-0.000
265.53	-0.000
265.74	-0.000
265.96	-0.000
266.17	-0.000
266.38	-0.000
266.59	-0.000
266.81	-0.000
267.02	-0.000
267.23	-0.000
267.44	-0.000
267.65	-0.000
267.87	-0.000
268.08	-0.000
268.29	-0.000
268.50	-0.000
268.72	-0.000
268.93	-0.000
269.14	-0.000
269.35	-0.000
269.57	-0.000
269.78	-0.000
269.99	-0.000
270.20	-0.000
270.41	-0.000
270.63	-0.000
270.84	-0.000
271.05	-0.000
271.26	-0.000
271.48	-0.000
271.69	-0.000
271.90	-0.000
272.11	-0.000
272.32	-0.000
272.54	-0.000
272.75	-0.000
272.96	-0.000
273.17	-0.000
273.39	-0.000
273.60	-0.000
273.81	-0.000
274.02	-0.000
274.23	-0.000
274.45	-0.000
274.66	-0.000
274.87	-0.000
275.08	-0.000
275.29	-0.000
275.51	-0.000
275.72	-0.000
275.93	-0.000
276.14	-0.000
276.35	-0.000
276.57	-0.000
276.78	-0.000
276.99	-0.000
277.20	-0.000
277.41	-0.000
277.63	-0.000
277.84	-0.000
278.05	-0.000
278.26	-0.000
278.47	-0.000
278.69	-0.000
278.90	-0.000
279.11	-0.000
279.32	-0.000
279.53	-0.000
279.74	-0.000
279.96	-0.000
280.17	-0.000
280.38	-0.000
280.59	-0.000
280.80	-0.000
281.02	-0.000
281.23	-0.000
281.44	-0.000
281.65	-0.000
281.86	-0.000
282.07	-0.000
282.29	-0.000
282.50	-0.000
282.71	-0.000
282.92	-0.000
283.13	-0.000
283.35	-0.000
283.56	-0.000
283.77	-0.000
283.98	-0.000
284.19	-0.000
284.40	-0.000
284.62	-0.000
284.83	-0.000
285.04	-0.000
285.25	-0.000
285.46	-0.000
285.67	-0.000
285.88	-0.000
286.10	-0.000
286.31	-0.000
286.52	-0.000
286.73	-0.000
286.94	-0.000
287.15	-0.000
287.37	-0.000
287.58	-0.000
287.79	-0.000
288.00	-0.000
288.21	-0.000
288.42	-0.000
288.63	-0.000
288.85	-0.000
289.06	-0.000
289.27	-0.000
289.48	-0.000
289.69	-0.000
289.90	-0.000
290.11	-0.000
290.33	-0.000
290.54	-0.000
290.75	-0.000
290.96	-0.000
291.17	-0.000
291.38	-0.000
291.59	-0.000
291.81	-0.000
292.02	-0.000
292.23	-0.000
292.44	-0.000
292.65	-0.000
292.86	-0.000
293.07	-0.000
293.28	2.536
293.50	-0.000
293.71	-0.000
293.92	-0.000
294.13	-0.000
294.34	-0.000
294.55	-0.000
294.76	-0.000
294.97	-0.000
295.19	-0.000
295.40	-0.000
295.61	-0.000
295.82	2.713
296.03	2.155
296.24	2.323
296.45	1.784
296.66	1.554
296.87	1.561
297.09	1.625
297.30	1.742
297.51	1.515
297.72	1.493
297.93	1.567
298.14	1.532
298.35	1.496
298.56	1.477
298.77	1.580
298.99	1.560
299.20	1.527
299.41	1.510
299.62	1.485
299.83	1.475
300.04	1.415
300.25	1.407
300.46	1.450
300.67	1.425
300.88	1.377
301.10	1.380
301.31	1.440
301.52	1.392
301.73	1.343
301.94	1.339
302.15	1.355
302.36	1.321
302.57	1.267
302.78	1.277
302.99	1.314
303.20	1.328
303.41	1.253
303.63	1.240
303.84	1.251
304.05	1.248
304.26	1.200
304.47	1.207
304.68	1.216
304.89	1.209
305.10	1.167
305.31	1.155
305.52	1.188
305.73	1.181
305.94	1.147
306.15	1.141
306.37	1.166
306.58	1.172
306.79	1.142
307.00	1.157
307.21	1.191
307.42	1.184
307.63	1.152
307.84	1.127
308.05	1.159
308.26	1.160
308.47	1.136
308.68	1.130
308.89	1.133
309.10	1.134
309.31	1.097
309.52	1.093
309.73	1.109
309.95	1.106
310.16	1.079
310.37	1.069
310.58	1.085
310.79	1.082
311.00	1.075
311.21	1.075
311.42	1.078
311.63	1.075
311.84	1.054
312.05	1.053
312.26	1.074
312.47	1.085
312.68	1.062
312.89	1.049
313.10	1.061
313.31	1.038
313.52	1.036
313.73	1.039
313.94	1.044
314.15	1.030
314.36	1.009
314.57	1.000
314.78	0.991
314.99	0.988
315.21	0.975
315.42	0.977
315.63	0.992
315.84	0.973
316.05	0.959
316.26	0.965
316.47	0.981
316.68	0.979
316.89	0.962
317.10	0.978
317.31	0.984
317.52	0.984
317.73	0.964
317.94	0.962
318.15	0.999
318.36	0.996
318.57	0.980
318.78	0.969
318.99	0.999
319.20	0.995
319.41	0.966
319.62	0.969
319.83	0.982
320.04	0.978
320.25	0.966
320.46	0.938
320.67	0.944
320.88	0.941
321.09	0.929
321.30	0.916
321.51	0.930
321.72	0.929
321.93	0.912
322.14	0.906
322.35	0.930
322.56	0.930
322.77	0.917
322.98	0.927
323.19	0.937
323.40	0.942
323.61	0.923
323.82	0.921
324.03	0.926
324.24	0.924
324.45	0.910
324.66	0.894
324.87	0.892
325.08	0.893
325.29	0.874
325.50	0.867
325.71	0.872
325.92	0.880
326.13	0.865
326.34	0.864
326.55	0.873
326.76	0.874
326.97	0.863
327.18	0.858
327.39	0.881
327.60	0.882
327.80	0.881
328.01	0.880
328.22	0.880
328.43	0.885
328.64	0.875
328.85	0.877
329.06	0.880
329.27	0.881
329.48	0.875
329.69	0.857
329.90	0.867
330.11	0.861
330.32	0.853
330.53	0.848
330.74	0.847
330.95	0.846
331.16	0.832
331.37	0.839
331.58	0.841
331.79	0.842
332.00	0.832
332.21	0.827
332.42	0.833
332.63	0.825
332.83	0.820
333.04	0.823
333.25	0.835
333.46	0.834
333.67	0.820
333.88	0.823
334.09	0.832
334.30	0.830
334.51	0.821
334.72	0.817
334.93	0.821
335.14	0.821
335.35	0.814
335.56	0.811
335.77	0.819
335.98	0.818
336.18	0.810
336.39	0.803
336.60	0.807
336.81	0.805
337.02	0.804
337.23	0.807
337.44	0.810
337.65	0.811
337.86	0.801
338.07	0.797
338.28	0.803
338.49	0.802
338.70	0.794
338.91	0.801
339.11	0.809
339.32	0.805
339.53	0.794
339.74	0.791
339.95	0.789
340.16	0.788
340.37	0.779
340.58	0.777
340.79	0.783
341.00	0.783
341.21	0.772
341.41	0.774
341.62	0.776
341.83	0.777
342.04	0.772
342.25	0.782
342.46	0.788
342.67	0.787
342.88	0.779
343.09	0.778
343.30	0.786
343.50	0.788
343.71	0.778
343.92	0.777
344.13	0.784
344.34	0.783
344.55	0.768
344.76	0.766
344.97	0.771
345.18	0.771
345.38	0.768
345.59	0.763
345.80	0.764
346.01	0.762
346.22	0.758
346.43	0.752
346.64	0.762
346.85	0.762
347.06	0.755
347.26	0.756
347.47	0.760
347.68	0.755
347.89	0.751
348.10	0.747
348.31	0.754
348.52	0.753
348.73	0.749
348.93	0.745
349.14	0.747
349.35	0.748
349.56	0.741
349.77	0.736
349.98	0.743
350.19	0.741
350.39	0.736
350.60	0.731
350.81	0.746
351.02	0.745
351.23	0.740
351.44	0.743
351.65	0.746
351.86	0.744
352.06	0.743
352.27	0.743
352.48	0.745
352.69	0.744
352.90	0.739
353.11	0.728
353.31	0.735
353.52	0.731
353.73	0.723
353.94	0.724
354.15	0.731
354.36	0.730
354.57	0.721
354.77	0.723
354.98	0.725
355.19	0.725
355.40	0.724
355.61	0.730
355.82	0.736
356.02	0.735
356.23	0.729
356.44	0.731
356.65	0.735
356.86	0.736
357.07	0.730
357.27	0.732
357.48	0.736
357.69	0.732
357.90	0.717
358.11	0.714
358.32	0.719
358.52	0.721
358.73	0.712
358.94	0.714
359.15	0.719
359.36	0.719
359.56	0.714
359.77	0.710
359.98	0.718
360.19	0.718
360.40	0.714
360.61	0.714
360.81	0.714
361.02	0.714
361.23	0.705
361.44	0.705
361.65	0.706
361.85	0.706
362.06	0.703
362.27	0.706
362.48	0.706
362.69	0.708
362.89	0.702
363.10	0.704
363.31	0.709
363.52	0.712
363.73	0.706
363.93	0.706
364.14	0.710
364.35	0.712
364.56	0.701
364.77	0.703
364.97	0.707
365.18	0.707
365.39	0.701
365.60	0.698
365.81	0.700
366.01	0.700
366.22	0.697
366.43	0.697
366.64	0.700
366.84	0.705
367.05	0.701
367.26	0.700
367.47	0.703
367.68	0.703
367.88	0.699
368.09	0.697
368.30	0.701
368.51	0.700
368.71	0.697
368.92	0.701
369.13	0.700
369.34	0.700
369.55	0.700
369.75	0.699
369.96	0.707
370.17	0.708
370.38	0.703
370.58	0.703
370.79	0.709
371.00	0.708
371.21	0.700
371.41	0.706
371.62	0.710
371.83	0.705
372.04	0.702
372.24	0.695
372.45	0.697
372.66	0.698
372.87	0.695
373.07	0.692
373.28	0.693
373.49	0.696
373.70	0.687
373.90	0.686
374.11	0.695
374.32	0.694
374.53	0.693
374.73	0.694
374.94	0.697
375.15	0.697
375.36	0.693
375.56	0.702
375.77	0.702
375.98	0.702
376.19	0.700
376.39	0.693
376.60	0.697
376.81	0.697
377.02	0.694
377.22	0.693
377.43	0.693
377.64	0.693
377.84	0.684
378.05	0.688
378.26	0.695
378.47	0.693
378.67	0.690
378.88	0.688
379.09	0.689
379.30	0.689
379.50	0.686
379.71	0.689
379.92	0.692
380.12	0.692
380.33	0.682
380.54	0.679
380.75	0.686
380.95	0.686
381.16	0.683
381.37	0.684
381.57	0.687
381.78	0.687
381.99	0.687
382.20	0.687
382.40	0.689
382.61	0.691
382.82	0.686
383.02	0.680
383.23	0.683
383.44	0.684
383.64	0.681
383.85	0.683
384.06	0.686
384.27	0.683
384.47	0.680
384.68	0.680
384.89	0.687
385.09	0.686
385.30	0.685
385.51	0.684
385.71	0.687
385.92	0.687
386.13	0.685
386.33	0.686
386.54	0.688
386.75	0.687
386.95	0.682
387.16	0.677
387.37	0.680
387.58	0.680
387.78	0.677
387.99	0.674
388.20	0.677
388.40	0.674
388.61	0.670
388.82	0.672
389.02	0.674
389.23	0.675
389.44	0.673
389.64	0.673
389.85	0.684
390.06	0.683
390.26	0.683
390.47	0.682
390.68	0.685
390.88	0.683
391.09	0.679
391.30	0.678
391.50	0.679
391.71	0.678
391.92	0.675
392.12	0.667
392.33	0.668
392.53	0.668
392.74	0.668
392.95	0.667
393.15	0.671
393.36	0.672
393.57	0.669
393.77	0.672
393.98	0.675
394.19	0.675
394.39	0.674
394.60	0.675
394.81	0.677
395.01	0.675
395.22	0.672
395.43	0.673
395.63	0.678
395.84	0.679
396.04	0.674
396.25	0.676
396.46	0.679
396.66	0.676
396.87	0.673
397.08	0.670
397.28	0.673
397.49	0.674
397.69	0.669
397.90	0.665
398.11	0.666
398.31	0.666
398.52	0.662
398.73	0.662
398.93	0.662
399.14	0.661
399.34	0.659
399.55	0.660
399.76	0.660
399.96	0.661
400.17	0.660
400.37	0.658
400.58	0.665
400.79	0.666
400.99	0.664
401.20	0.669
401.41	0.672
401.61	0.673
401.82	0.677
402.02	0.677
402.23	0.678
402.44	0.677
402.64	0.677
402.85	0.671
403.05	0.670
403.26	0.669
403.47	0.662
403.67	0.661
403.88	0.662
404.08	0.656
404.29	0.654
404.50	0.654
404.70	0.655
404.91	0.654
405.11	0.651
405.32	0.652
405.52	0.653
405.73	0.653
405.94	0.651
406.14	0.653
406.35	0.656
406.55	0.656
406.76	0.653
406.97	0.653
407.17	0.656
407.38	0.655
407.58	0.653
407.79	0.655
407.99	0.657
408.20	0.658
408.41	0.653
408.61	0.651
408.82	0.652
409.02	0.652
409.23	0.649
409.43	0.649
409.64	0.650
409.84	0.649
410.05	0.646
410.26	0.645
410.46	0.645
410.67	0.644
410.87	0.646
411.08	0.647
411.28	0.649
411.49	0.650
411.69	0.647
411.90	0.649
412.11	0.650
412.31	0.651
412.52	0.649
412.72	0.650
412.93	0.652
413.13	0.650
413.34	0.646
413.54	0.646
413.75	0.648
413.95	0.648
414.16	0.644
414.37	0.647
414.57	0.648
414.78	0.651
414.98	0.648
415.19	0.650
415.39	0.648
415.60	0.650
415.80	0.650
416.01	0.649
416.21	0.651
416.42	0.651
416.62	0.646
416.83	0.646
417.03	0.646
417.24	0.646
417.44	0.643
417.65	0.642
417.86	0.643
418.06	0.641
418.27	0.639
418.47	0.640
418.68	0.642
418.88	0.642
419.09	0.640
419.29	0.640
419.50	0.642
419.70	0.641
419.91	0.640
420.11	0.638
420.32	0.641
420.52	0.641
420.73	0.639
420.93	0.640
421.14	0.642
421.34	0.641
421.55	0.638
421.75	0.638
421.96	0.639
422.16	0.639
422.37	0.638
422.57	0.636
422.78	0.637
422.98	0.634
423.19	0.632
423.39	0.631
423.60	0.635
423.80	0.637
424.01	0.635
424.21	0.638
424.42	0.639
424.62	0.638
424.83	0.637
425.03	0.638
425.23	0.641
425.44	0.642
425.64	0.642
425.85	0.641
426.05	0.642
426.26	0.643
426.46	0.639
426.67	0.638
426.87	0.643
427.08	0.644
427.28	0.641
427.49	0.642
427.69	0.642
427.90	0.641
428.10	0.637
428.31	0.637
428.51	0.639
428.71	0.638
428.92	0.639
429.12	0.637
429.33	0.638
429.53	0.642
429.74	0.646
429.94	0.646
430.15	0.646
430.35	0.646
430.56	0.644
430.76	0.644
430.96	0.645
431.17	0.643
431.37	0.640
431.58	0.639
431.78	0.636
431.99	0.629
432.19	0.631
432.40	0.633
432.60	0.634
432.80	0.636
433.01	0.634
433.21	0.634
433.42	0.637
433.62	0.638
433.83	0.637
434.03	0.639
434.23	0.642
434.44	0.642
434.64	0.639
434.85	0.644
435.05	0.646
435.26	0.647
435.46	0.645
435.66	0.644
435.87	0.644
436.07	0.644
436.28	0.640
436.48	0.637
436.69	0.637
436.89	0.637
437.09	0.631
437.30	0.630
437.50	0.632
437.71	0.643
437.91	0.642
438.11	0.644
438.32	0.648
438.52	0.649
438.73	0.648
438.93	0.645
439.13	0.646
439.34	0.649
439.54	0.646
439.75	0.646
439.95	0.637
440.15	0.641
440.36	0.639
440.56	0.638
440.77	0.639
440.97	0.639
441.17	0.637
441.38	0.639
441.58	0.637
441.79	0.636
441.99	0.635
442.19	0.633
442.40	0.631
442.60	0.631
442.81	0.629
443.01	0.629
443.21	0.630
443.42	0.630
443.62	0.629
443.82	0.629
444.03	0.632
444.23	0.631
444.44	0.632
444.64	0.631
444.84	0.633
445.05	0.633
445.25	0.631
445.45	0.631
445.66	0.634
445.86	0.633
446.06	0.633
446.27	0.633
446.47	0.637
446.68	0.635
446.88	0.634
447.08	0.633
447.29	0.636
447.49	0.636
447.69	0.636
447.90	0.634
448.10	0.638
448.30	0.636
448.51	0.636
448.71	0.634
448.91	0.637
449.12	0.636
449.32	0.637
449.52	0.636
449.73	0.640
449.93	0.639
450.14	0.640
450.34	0.639
450.54	0.642
450.75	0.640
450.95	0.639
451.15	0.639
451.36	0.641
451.56	0.638
451.76	0.636
451.97	0.634
452.17	0.635
452.37	0.633
452.58	0.630
452.78	0.629
452.98	0.632
453.19	0.631
453.39	0.632
453.59	0.631
453.79	0.633
454.00	0.633
454.20	0.632
454.40	0.632
454.61	0.635
454.81	0.636
455.01	0.634
455.22	0.635
455.42	0.637
455.62	0.635
455.83	0.634
456.03	0.637
456.23	0.639
456.44	0.640
456.64	0.638
456.84	0.638
457.04	0.640
457.25	0.638
457.45	0.635
457.65	0.634
457.86	0.636
458.06	0.634
458.26	0.629
458.47	0.629
458.67	0.630
458.87	0.631
459.07	0.628
459.28	0.630
459.48	0.633
459.68	0.633
459.89	0.631
460.09	0.631
460.29	0.633
460.49	0.634
460.70	0.633
460.90	0.634
461.10	0.635
461.31	0.635
461.51	0.631
461.71	0.633
461.91	0.635
462.12	0.635
462.32	0.633
462.52	0.634
462.72	0.637
462.93	0.637
463.13	0.635
463.33	0.636
463.53	0.638
463.74	0.637
463.94	0.633
464.14	0.634
464.35	0.635
464.55	0.634
464.75	0.632
464.95	0.630
465.16	0.632
465.36	0.631
465.56	0.630
465.76	0.629
465.97	0.630
466.17	0.631
466.37	0.629
466.57	0.630
466.78	0.631
466.98	0.632
467.18	0.629
467.38	0.628
467.59	0.630
467.79	0.632
467.99	0.630
468.19	0.632
468.39	0.635
468.60	0.635
468.80	0.633
469.00	0.635
469.20	0.636
469.41	0.636
469.61	0.636
469.81	0.636
470.01	0.635
470.22	0.636
470.42	0.633
470.62	0.631
470.82	0.633
471.02	0.632
471.23	0.630
471.43	0.630
471.63	0.633
471.83	0.632
472.04	0.630
472.24	0.629
472.44	0.634
472.64	0.634
472.84	0.632
473.05	0.632
473.25	0.635
473.45	0.634
473.65	0.631
473.85	0.632
474.06	0.634
474.26	0.634
474.46	0.635
474.66	0.631
474.86	0.633
475.07	0.632
475.27	0.630
475.47	0.628
475.67	0.629
475.87	0.632
476.08	0.628
476.28	0.630
476.48	0.631
476.68	0.629
476.88	0.626
477.09	0.628
477.29	0.631
477.49	0.630
477.69	0.629
477.89	0.629
478.09	0.629
478.30	0.631
478.50	0.628
478.70	0.628
478.90	0.628
479.10	0.632
479.31	0.632
479.51	0.630
479.71	0.631
479.91	0.631
480.11	0.630
480.31	0.630
480.52	0.630
480.72	0.629
480.92	0.628
481.12	0.627
481.32	0.625
481.52	0.623
481.72	0.623
481.93	0.627
482.13	0.628
482.33	0.627
482.53	0.624
482.73	0.624
482.93	0.626
483.14	0.625
483.34	0.624
483.54	0.624
483.74	0.624
483.94	0.623
484.14	0.619
484.34	0.618
484.55	0.619
484.75	0.620
484.95	0.618
485.15	0.618
485.35	0.619
485.55	0.619
485.75	0.617
485.96	0.618
486.16	0.620
486.36	0.620
486.56	0.618
486.76	0.619
486.96	0.619
487.16	0.618
487.36	0.617
487.57	0.616
487.77	0.617
487.97	0.618
488.17	0.616
488.37	0.615
488.57	0.616
488.77	0.616
488.97	0.614
489.18	0.614
489.38	0.616
489.58	0.617
489.78	0.616
489.98	0.615
490.18	0.616
490.38	0.616
490.58	0.614
490.78	0.615
490.98	0.616
491.19	0.617
491.39	0.616
491.59	0.615
491.79	0.618
491.99	0.619
492.19	0.618
492.39	0.622
492.59	0.622
492.79	0.624
492.99	0.624
493.20	0.624
493.40	0.624
493.60	0.626
493.80	0.624
494.00	0.621
494.20	0.622
494.40	0.622
494.60	0.619
494.80	0.623
495.00	0.622
495.20	0.620
495.40	0.619
495.61	0.621
495.81	0.621
496.01	0.625
496.21	0.625
496.41	0.624
496.61	0.625
496.81	0.624
497.01	0.619
497.21	0.619
497.41	0.621
497.61	0.620
497.81	0.618
498.01	0.618
498.21	0.617
498.41	0.615
498.61	0.615
498.82	0.616
499.02	0.619
499.22	0.619
499.42	0.618
499.62	0.619
499.82	0.620
500.02	0.621
500.22	0.619
500.42	0.621
500.62	0.622
500.82	0.622
501.02	0.620
501.22	0.620
501.42	0.621
501.62	0.623
501.82	0.622
502.02	0.622
502.22	0.622
502.42	0.624
502.62	0.620
502.82	0.621
503.02	0.622
503.22	0.621
503.42	0.619
503.63	0.619
503.83	0.617
504.03	0.616
504.23	0.614
504.43	0.615
504.63	0.617
504.83	0.617
505.03	0.616
505.23	0.617
505.43	0.619
505.63	0.620
505.83	0.619
506.03	0.621
506.23	0.624
506.43	0.624
506.63	0.622
506.83	0.621
507.03	0.623
507.23	0.623
507.43	0.621
507.63	0.621
507.83	0.622
508.03	0.622
508.23	0.621
508.43	0.619
508.63	0.622
508.83	0.622
509.03	0.623
509.23	0.622
509.43	0.624
509.63	0.625
509.83	0.623
510.03	0.625
510.23	0.627
510.43	0.628
510.63	0.628
510.83	0.627
511.03	0.629
511.23	0.626
511.43	0.626
511.63	0.627
511.83	0.630
512.03	0.630
512.22	0.627
512.42	0.627
512.62	0.628
512.82	0.628
513.02	0.627
513.22	0.627
513.42	0.629
513.62	0.632
513.82	0.630
514.02	0.629
514.22	0.631
514.42	0.631
514.62	0.630
514.82	0.631
515.02	0.633
515.22	0.636
515.42	0.634
515.62	0.636
515.82	0.636
516.02	0.637
516.22	0.637
516.42	0.638
516.62	0.640
516.82	0.641
517.01	0.639
517.21	0.638
517.41	0.642
517.61	0.643
517.81	0.638
518.01	0.637
518.21	0.637
518.41	0.637
518.61	0.635
518.81	0.636
519.01	0.637
519.21	0.637
519.41	0.636
519.61	0.631
519.81	0.634
520.00	0.635
520.20	0.635
520.40	0.638
520.60	0.640
520.80	0.638
521.00	0.638
521.20	0.639
521.40	0.644
521.60	0.645
521.80	0.643
522.00	0.643
522.20	0.646
522.39	0.645
522.59	0.641
522.79	0.643
522.99	0.647
523.19	0.644
523.39	0.642
523.59	0.640
523.79	0.643
523.99	0.646
524.19	0.644
524.38	0.643
524.58	0.645
524.78	0.646
524.98	0.643
525.18	0.644
525.38	0.646
525.58	0.647
525.78	0.644
525.98	0.642
526.18	0.643
526.37	0.642
526.57	0.644
526.77	0.644
526.97	0.645
527.17	0.645
527.37	0.641
527.57	0.644
527.77	0.646
527.96	0.647
528.16	0.646
528.36	0.646
528.56	0.649
528.76	0.646
528.96	0.645
529.16	0.646
529.36	0.650
529.55	0.650
529.75	0.646
529.95	0.646
530.15	0.648
530.35	0.650
530.55	0.647
530.75	0.648
530.94	0.649
531.14	0.649
531.34	0.647
531.54	0.645
531.74	0.649
531.94	0.651
532.13	0.649
532.33	0.650
532.53	0.650
532.73	0.650
532.93	0.647
533.13	0.649
533.33	0.649
533.52	0.650
533.72	0.653
533.92	0.651
534.12	0.649
534.32	0.650
534.52	0.648
534.71	0.649
534.91	0.653
535.11	0.655
535.31	0.653
535.51	0.655
535.71	0.657
535.90	0.655
536.10	0.656
536.30	0.658
536.50	0.659
536.70	0.659
536.89	0.656
537.09	0.655
537.29	0.657
537.49	0.658
537.69	0.655
537.89	0.656
538.08	0.656
538.28	0.654
538.48	0.653
538.68	0.654
538.88	0.657
539.07	0.657
539.27	0.655
539.47	0.654
539.67	0.655
539.87	0.657
540.06	0.654
540.26	0.655
540.46	0.658
540.66	0.656
540.86	0.653
541.05	0.653
541.25	0.655
541.45	0.655
541.65	0.652
541.84	0.654
542.04	0.655
542.24	0.656
542.44	0.654
542.64	0.654
542.83	0.658
543.03	0.659
543.23	0.656
543.43	0.657
543.62	0.659
543.82	0.659
544.02	0.657
544.22	0.657
544.42	0.661
544.61	0.662
544.81	0.659
545.01	0.657
545.21	0.661
545.40	0.661
545.60	0.659
545.80	0.662
546.00	0.663
546.19	0.663
546.39	0.661
546.59	0.659
546.79	0.660
546.98	0.661
547.18	0.660
547.38	0.660
547.58	0.664
547.77	0.665
547.97	0.660
548.17	0.662
548.37	0.663
548.56	0.663
548.76	0.661
548.96	0.664
549.16	0.667
549.35	0.666
549.55	0.663
549.75	0.664
549.95	0.667
550.14	0.667
550.34	0.664
550.54	0.669
550.73	0.673
550.93	0.673
551.13	0.669
551.33	0.667
551.52	0.669
551.72	0.669
551.92	0.667
552.12	0.667
552.31	0.669
552.51	0.669
552.71	0.663
552.90	0.663
553.10	0.666
553.30	0.667
553.50	0.665
553.69	0.667
553.89	0.668
554.09	0.668
554.28	0.665
554.48	0.667
554.68	0.669
554.87	0.670
555.07	0.666
555.27	0.666
555.47	0.669
555.66	0.669
555.86	0.667
556.06	0.669
556.25	0.671
556.45	0.679
556.65	0.677
556.84	0.680
557.04	0.684
557.24	0.685
557.43	0.684
557.63	0.686
557.83	0.689
558.02	0.689
558.22	0.691
558.42	0.691
558.61	0.684
558.81	0.684
559.01	0.680
559.21	0.679
559.40	0.681
559.60	0.681
559.80	0.677
559.99	0.678
560.19	0.681
560.39	0.675
560.58	0.673
560.78	0.673
560.97	0.677
561.17	0.676
561.37	0.673
561.56	0.674
561.76	0.676
561.96	0.676
562.15	0.672
562.35	0.676
562.55	0.678
562.74	0.678
562.94	0.676
563.14	0.674
563.33	0.675
563.53	0.675
563.73	0.673
563.92	0.674
564.12	0.678
564.31	0.681
564.51	0.679
564.71	0.681
564.90	0.684
565.10	0.685
565.30	0.687
565.49	0.688
565.69	0.691
565.89	0.691
566.08	0.687
566.28	0.688
566.47	0.690
566.67	0.687
566.87	0.683
567.06	0.684
567.26	0.691
567.46	0.686
567.65	0.684
567.85	0.686
568.04	0.689
568.24	0.688
568.44	0.684
568.63	0.682
568.83	0.684
569.02	0.682
569.22	0.677
569.42	0.674
569.61	0.677
569.81	0.675
570.00	0.673
570.20	0.675
570.40	0.677
570.59	0.676
570.79	0.674
570.98	0.672
571.18	0.674
571.38	0.674
571.57	0.670
571.77	0.668
571.96	0.672
572.16	0.669
572.35	0.663
572.55	0.664
572.75	0.663
572.94	0.664
573.14	0.662
573.33	0.663
573.53	0.664
573.73	0.663
573.92	0.661
574.12	0.659
574.31	0.662
574.51	0.663
574.70	0.660
574.90	0.660
575.09	0.663
575.29	0.663
575.49	0.660
575.68	0.660
575.88	0.663
576.07	0.664
576.27	0.662
576.46	0.660
576.66	0.660
576.86	0.660
577.05	0.657
577.25	0.655
577.44	0.657
577.64	0.657
577.83	0.654
578.03	0.655
578.22	0.654
578.42	0.653
578.61	0.651
578.81	0.652
579.00	0.653
579.20	0.653
579.40	0.652
579.59	0.651
579.79	0.652
579.98	0.651
580.18	0.651
580.37	0.652
580.57	0.654
580.76	0.658
580.96	0.656
581.15	0.657
581.35	0.659
581.54	0.658
581.74	0.657
581.93	0.659
582.13	0.661
582.32	0.658
582.52	0.656
582.71	0.656
582.91	0.653
583.10	0.653
583.30	0.652
583.49	0.650
583.69	0.655
583.88	0.657
584.08	0.655
584.27	0.657
584.47	0.660
584.66	0.661
584.86	0.659
585.05	0.661
585.25	0.664
585.44	0.663
585.64	0.662
585.83	0.658
586.03	0.660
586.22	0.658
586.42	0.655
586.61	0.657
586.81	0.660
587.00	0.660
587.20	0.658
587.39	0.659
587.59	0.662
587.78	0.663
587.98	0.663
588.17	0.664
588.37	0.667
588.56	0.668
588.76	0.663
588.95	0.663
589.15	0.667
589.34	0.669
589.54	0.666
589.73	0.667
589.92	0.670
590.12	0.669
590.31	0.666
590.51	0.671
590.70	0.673
590.90	0.673
591.09	0.670
591.29	0.669
591.48	0.669
591.68	0.671
591.87	0.668
592.06	0.668
592.26	0.671
592.45	0.671
592.65	0.664
592.84	0.664
593.04	0.668
593.23	0.671
593.43	0.668
593.62	0.667
593.81	0.669
594.01	0.669
594.20	0.665
594.40	0.665
594.59	0.668
594.79	0.669
594.98	0.667
595.17	0.666
595.37	0.667
595.56	0.668
595.76	0.667
595.95	0.668
596.14	0.671
596.34	0.672
596.53	0.669
596.73	0.670
596.92	0.671
597.12	0.673
597.31	0.671
597.50	0.670
597.70	0.673
597.89	0.673
598.09	0.668
598.28	0.670
598.47	0.673
598.67	0.672
598.86	0.668
599.06	0.670
599.25	0.672
599.44	0.670
599.64	0.668
599.83	0.666
600.03	0.670
600.22	0.671
600.41	0.671
600.61	0.669
600.80	0.672
601.00	0.672
601.19	0.668
601.38	0.666
601.58	0.669
601.77	0.670
601.96	0.671
602.16	0.671
602.35	0.680
602.55	0.677
602.74	0.677
602.93	0.678
603.13	0.683
603.32	0.684
603.51	0.683
603.71	0.686
603.90	0.688
604.09	0.689
604.29	0.685
604.48	0.679
604.68	0.681
604.87	0.680
605.06	0.676
605.26	0.673
605.45	0.675
605.64	0.673
605.84	0.668
606.03	0.668
606.22	0.667
606.42	0.667
606.61	0.663
606.80	0.663
607.00	0.666
607.19	0.667
607.38	0.665
607.58	0.667
607.77	0.670
607.96	0.671
608.16	0.668
608.35	0.674
608.54	0.678
608.74	0.681
608.93	0.686
609.12	0.688
609.32	0.691
609.51	0.695
609.70	0.693
609.90	0.694
610.09	0.699
610.28	0.704
610.48	0.696
610.67	0.698
610.86	0.699
611.06	0.693
611.25	0.691
611.44	0.691
611.64	0.692
611.83	0.695
612.02	0.690
612.21	0.689
612.41	0.689
612.60	0.688
612.79	0.683
612.99	0.683
613.18	0.685
613.37	0.683
613.57	0.680
613.76	0.681
613.95	0.680
614.14	0.679
614.34	0.676
614.53	0.677
614.72	0.681
614.92	0.682
615.11	0.678
615.30	0.676
615.49	0.678
615.69	0.681
615.88	0.678
616.07	0.680
616.26	0.683
616.46	0.685
616.65	0.681
616.84	0.680
617.04	0.682
617.23	0.686
617.42	0.686
617.61	0.690
617.81	0.691
618.00	0.692
618.19	0.689
618.38	0.692
618.58	0.696
618.77	0.697
618.96	0.695
619.15	0.697
619.35	0.699
619.54	0.699
619.73	0.693
619.92	0.695
620.12	0.700
620.31	0.700
620.50	0.695
620.69	0.696
620.89	0.700
621.08	0.700
621.27	0.700
621.46	0.699
621.66	0.705
621.85	0.705
622.04	0.700
622.23	0.701
622.43	0.702
622.62	0.701
622.81	0.699
623.00	0.699
623.19	0.704
623.39	0.702
623.58	0.698
623.77	0.696
623.96	0.700
624.16	0.700
624.35	0.694
624.54	0.698
624.73	0.704
624.92	0.702
625.12	0.699
625.31	0.699
625.50	0.703
625.69	0.705
625.88	0.700
626.08	0.701
626.27	0.704
626.46	0.705
626.65	0.700
626.84	0.700
627.04	0.706
627.23	0.706
627.42	0.700
627.61	0.702
627.80	0.706
628.00	0.706
628.19	0.703
628.38	0.707
628.57	0.710
628.76	0.709
628.96	0.704
629.15	0.706
629.34	0.710
629.53	0.710
629.72	0.703
629.91	0.703
630.11	0.710
630.30	0.710
630.49	0.712
630.68	0.713
630.87	0.717
631.06	0.720
631.26	0.713
631.45	0.715
631.64	0.725
631.83	0.727
632.02	0.724
632.21	0.723
632.41	0.731
632.60	0.724
632.79	0.720
632.98	0.722
633.17	0.723
633.36	0.724
633.55	0.720
633.75	0.717
633.94	0.720
634.13	0.719
634.32	0.715
634.51	0.709
634.70	0.713
634.89	0.714
635.09	0.709
635.28	0.710
635.47	0.713
635.66	0.716
635.85	0.710
636.04	0.711
636.23	0.718
636.43	0.719
636.62	0.718
636.81	0.717
637.00	0.720
637.19	0.723
637.38	0.719
637.57	0.718
637.76	0.720
637.95	0.722
638.15	0.717
638.34	0.714
638.53	0.718
638.72	0.720
638.91	0.716
639.10	0.714
639.29	0.716
639.48	0.717
639.67	0.716
639.87	0.715
640.06	0.722
640.25	0.721
640.44	0.721
640.63	0.721
640.82	0.725
641.01	0.725
641.20	0.724
641.39	0.726
641.58	0.730
641.78	0.728
641.97	0.723
642.16	0.737
642.35	0.740
642.54	0.738
642.73	0.732
642.92	0.730
643.11	0.735
643.30	0.734
643.49	0.728
643.68	0.730
643.87	0.734
644.06	0.734
644.25	0.712
644.45	0.715
644.64	0.718
644.83	0.719
645.02	0.713
645.21	0.712
645.40	0.714
645.59	0.714
645.78	0.707
645.97	0.708
646.16	0.710
646.35	0.709
646.54	0.706
646.73	0.706
646.92	0.708
647.11	0.708
647.30	0.703
647.49	0.705
647.68	0.706
647.88	0.704
648.07	0.696
648.26	0.699
648.45	0.703
648.64	0.699
648.83	0.697
649.02	0.700
649.21	0.711
649.40	0.710
649.59	0.704
649.78	0.705
649.97	0.721
650.16	0.721
650.35	0.714
650.54	0.716
650.73	0.726
650.92	0.722
651.11	0.713
651.30	0.711
651.49	0.716
651.68	0.717
651.87	0.712
652.06	0.701
652.25	0.705
652.44	0.707
652.63	0.700
652.82	0.698
653.01	0.696
653.20	0.693
653.39	0.680
653.58	0.677
653.77	0.676
653.96	0.672
654.15	0.663
654.34	0.662
654.53	0.658
654.72	0.654
654.91	0.645
655.10	0.642
655.29	0.642
655.48	0.640
655.67	0.635
655.86	0.632
656.05	0.632
656.24	0.632
656.43	0.626
656.62	0.626
656.81	0.628
657.00	0.628
657.19	0.626
657.38	0.627
657.57	0.628
657.76	0.632
657.95	0.630
658.14	0.635
658.33	0.638
658.51	0.644
658.70	0.645
658.89	0.645
659.08	0.652
659.27	0.659
659.46	0.657
659.65	0.663
659.84	0.667
660.03	0.670
660.22	0.670
660.41	0.674
660.60	0.674
660.79	0.675
660.98	0.679
661.17	0.678
661.36	0.678
661.55	0.678
661.74	0.674
661.92	0.677
662.11	0.680
662.30	0.678
662.49	0.671
662.68	0.671
662.87	0.676
663.06	0.671
663.25	0.672
663.44	0.672
663.63	0.674
663.82	0.672
664.01	0.666
664.20	0.665
664.38	0.667
664.57	0.668
664.76	0.667
664.95	0.666
665.14	0.672
665.33	0.667
665.52	0.674
665.71	0.678
665.90	0.679
666.09	0.681
666.28	0.678
666.46	0.676
666.65	0.677
666.84	0.676
667.03	0.669
667.22	0.667
667.41	0.670
667.60	0.659
667.79	0.652
667.98	0.653
668.16	0.655
668.35	0.654
668.54	0.649
668.73	0.650
668.92	0.652
669.11	0.651
669.30	0.643
669.49	0.640
669.67	0.642
669.86	0.644
670.05	0.641
670.24	0.638
670.43	0.636
670.62	0.636
670.81	0.629
671.00	0.630
671.18	0.631
671.37	0.631
671.56	0.628
671.75	0.628
671.94	0.625
672.13	0.622
672.32	0.618
672.50	0.617
672.69	0.617
672.88	0.618
673.07	0.613
673.26	0.615
673.45	0.617
673.63	0.617
673.82	0.613
674.01	0.615
674.20	0.615
674.39	0.614
674.58	0.613
674.76	0.613
674.95	0.612
675.14	0.611
675.33	0.606
675.52	0.604
675.71	0.604
675.89	0.604
676.08	0.599
676.27	0.599
676.46	0.600
676.65	0.600
676.84	0.599
677.02	0.601
677.21	0.604
677.40	0.603
677.59	0.599
677.78	0.600
677.96	0.604
678.15	0.603
678.34	0.600
678.53	0.601
678.72	0.602
678.90	0.598
679.09	0.594
679.28	0.590
679.47	0.591
679.66	0.591
679.84	0.586
680.03	0.584
680.22	0.583
680.41	0.585
680.60	0.581
680.78	0.580
680.97	0.584
681.16	0.584
681.35	0.582
681.53	0.580
681.72	0.582
681.91	0.585
682.10	0.582
682.29	0.585
682.47	0.582
682.66	0.582
682.85	0.581
683.04	0.578
683.22	0.579
683.41	0.580
683.60	0.579
683.79	0.579
683.97	0.578
684.16	0.576
684.35	0.572
684.54	0.574
684.72	0.575
684.91	0.575
685.10	0.573
685.29	0.574
685.47	0.572
685.66	0.571
685.85	0.568
686.04	0.567
686.22	0.571
686.41	0.573
686.60	0.569
686.79	0.572
686.97	0.574
687.16	0.576
687.35	0.572
687.54	0.576
687.72	0.581
687.91	0.580
688.10	0.581
688.29	0.581
688.47	0.579
688.66	0.579
688.85	0.574
689.03	0.571
689.22	0.576
689.41	0.576
689.60	0.570
689.78	0.568
689.97	0.570
690.16	0.567
690.34	0.563
690.53	0.562
690.72	0.563
690.91	0.561
691.09	0.558
691.28	0.552
691.47	0.552
691.65	0.551
691.84	0.548
692.03	0.546
692.21	0.545
692.40	0.545
692.59	0.542
692.77	0.542
692.96	0.544
693.15	0.545
693.34	0.542
693.52	0.543
693.71	0.544
693.90	0.545
694.08	0.545
694.27	0.546
694.46	0.556
694.64	0.557
694.83	0.556
695.02	0.555
695.20	0.555
695.39	0.554
695.58	0.553
695.76	0.554
695.95	0.554
696.14	0.552
696.32	0.550
696.51	0.540
696.70	0.540
696.88	0.541
697.07	0.539
697.26	0.541
697.44	0.542
697.63	0.541
697.81	0.538
698.00	0.538
698.19	0.539
698.37	0.539
698.56	0.538
698.75	0.538
698.93	0.538
699.12	0.538
699.31	0.536
699.49	0.535
699.68	0.537
699.87	0.540
700.05	0.539
700.24	0.538
700.42	0.540
700.61	0.539
700.80	0.537
700.98	0.537
701.17	0.539
701.36	0.538
701.54	0.537
701.73	0.538
701.91	0.536
702.10	0.536
702.29	0.534
702.47	0.533
702.66	0.535
702.84	0.536
703.03	0.535
703.22	0.536
703.40	0.536
703.59	0.538
703.77	0.538
703.96	0.538
704.15	0.539
704.33	0.540
704.52	0.538
704.70	0.537
704.89	0.537
705.08	0.535
705.26	0.530
705.45	0.529
705.63	0.529
705.82	0.525
706.00	0.523
706.19	0.523
706.38	0.522
706.56	0.522
706.75	0.519
706.93	0.519
707.12	0.521
707.30	0.521
707.49	0.519
707.68	0.517
707.86	0.517
708.05	0.517
708.23	0.515
708.42	0.515
708.60	0.519
708.79	0.519
708.98	0.517
709.16	0.516
709.35	0.519
709.53	0.523
709.72	0.521
709.90	0.523
710.09	0.525
710.27	0.527
710.46	0.530
710.64	0.528
710.83	0.530
711.02	0.532
711.20	0.529
711.39	0.527
711.57	0.526
711.76	0.526
711.94	0.523
712.13	0.523
712.31	0.524
712.50	0.519
712.68	0.516
712.87	0.517
713.05	0.517
713.24	0.518
713.42	0.516
713.61	0.517
713.79	0.518
713.98	0.518
714.16	0.518
714.35	0.518
714.54	0.519
714.72	0.519
714.91	0.516
715.09	0.523
715.28	0.526
715.46	0.527
715.65	0.524
715.83	0.524
716.02	0.528
716.20	0.525
716.39	0.524
716.57	0.525
716.76	0.528
716.94	0.528
717.12	0.520
717.31	0.521
717.49	0.524
717.68	0.526
717.86	0.524
718.05	0.526
718.23	0.530
718.42	0.532
718.60	0.532
718.79	0.540
718.97	0.543
719.16	0.543
719.34	0.540
719.53	0.540
719.71	0.540
719.90	0.542
720.08	0.539
720.27	0.539
720.45	0.539
720.63	0.537
720.82	0.530
721.00	0.533
721.19	0.538
721.37	0.537
721.56	0.537
721.74	0.540
721.93	0.549
722.11	0.554
722.30	0.553
722.48	0.559
722.66	0.560
722.85	0.560
723.03	0.560
723.22	0.558
723.40	0.562
723.59	0.560
723.77	0.563
723.95	0.557
724.14	0.561
724.32	0.562
724.51	0.560
724.69	0.561
724.88	0.562
725.06	0.561
725.24	0.562
725.43	0.563
725.61	0.566
725.80	0.560
725.98	0.557
726.16	0.554
726.35	0.561
726.53	0.560
726.72	0.558
726.90	0.569
727.09	0.569
727.27	0.574
727.45	0.570
727.64	0.580
727.82	0.590
728.01	0.594
728.19	0.591
728.37	0.596
728.56	0.600
728.74	0.607
728.92	0.593
729.11	0.596
729.29	0.597
729.48	0.599
729.66	0.587
729.84	0.587
730.03	0.592
730.21	0.593
730.40	0.583
730.58	0.584
730.76	0.586
730.95	0.589
731.13	0.588
731.31	0.600
731.50	0.612
731.68	0.615
731.86	0.607
732.05	0.623
732.23	0.627
732.42	0.630
732.60	0.634
732.78	0.638
732.97	0.660
733.15	0.666
733.33	0.654
733.52	0.660
733.70	0.673
733.88	0.684
734.07	0.668
734.25	0.695
734.43	0.708
734.62	0.708
734.80	0.700
734.98	0.689
735.17	0.699
735.35	0.706
735.53	0.692
735.72	0.695
735.90	0.722
736.08	0.743
736.27	0.715
736.45	0.723
736.63	0.741
736.82	0.753
737.00	0.751
737.18	0.759
737.37	0.795
737.55	0.824
737.73	0.816
737.92	0.817
738.10	0.815
738.28	0.837
738.46	0.822
738.65	0.834
738.83	0.861
739.01	0.920
739.20	0.911
739.38	0.895
739.56	0.882
739.75	0.888
739.93	0.847
740.11	0.878
740.29	0.886
740.48	0.893
740.66	0.865
740.84	0.861
741.03	0.828
741.21	0.840
741.39	0.812
741.57	0.830
741.76	0.853
741.94	0.860
742.12	0.818
742.31	0.820
742.49	0.849
742.67	0.876
742.85	0.885
743.04	0.887
743.22	0.906
743.40	0.967
743.58	0.939
743.77	0.956
743.95	0.999
744.13	1.057
744.31	1.026
744.50	1.013
744.68	1.024
744.86	0.994
745.04	1.004
745.23	1.068
745.41	1.059
745.59	1.067
745.77	1.019
745.96	1.011
746.14	1.034
746.32	1.038
746.50	1.021
746.69	1.003
746.87	1.027
747.05	1.006
747.23	0.919
747.42	0.903
747.60	0.948
747.78	0.956
747.96	0.985
748.14	0.926
748.33	0.966
748.51	0.966
748.69	0.950
748.87	0.984
749.06	0.986
749.24	0.986
749.42	0.959
749.60	0.931
749.78	0.946
749.97	0.896
750.15	0.884
750.33	0.889
750.51	0.922
750.69	0.927
750.88	0.922
751.06	0.939
751.24	0.979
751.42	0.967
751.60	0.952
751.79	1.036
751.97	1.099
752.15	1.098
752.33	1.043
752.51	1.125
752.69	1.163
752.88	1.116
753.06	1.159
753.24	1.123
753.42	1.182
753.60	1.430
753.78	1.209
753.97	1.235
754.15	1.272
754.33	1.305
754.51	1.117
754.69	1.093
754.87	1.143
755.06	1.048
755.24	1.044
755.42	1.049
755.60	0.940
755.78	0.945
755.96	0.878
756.15	0.880
756.33	0.896
756.51	0.919
756.69	0.896
756.87	0.858
757.05	0.888
757.23	0.866
757.42	0.827
757.60	0.823
757.78	0.817
757.96	0.816
758.14	0.794
758.32	0.779
758.50	0.796
758.69	0.796
758.87	0.783
759.05	0.789
759.23	0.807
759.41	0.811
759.59	0.799
759.77	0.826
759.95	0.860
760.13	0.913
760.32	0.906
760.50	0.901
760.68	0.934
760.86	0.937
761.04	0.898
761.22	0.900
761.40	0.957
761.58	0.962
761.76	0.922
761.95	0.901
762.13	0.858
762.31	0.856
762.49	0.817
762.67	0.839
762.85	0.859
763.03	0.855
763.21	0.830
763.39	0.810
763.57	0.817
763.75	0.811
763.94	0.792
764.12	0.791
764.30	0.823
764.48	0.829
764.66	0.783
764.84	0.777
765.02	0.822
765.20	0.829
765.38	0.803
765.56	0.808
765.74	0.860
765.92	0.859
766.10	0.869
766.28	0.861
766.46	0.897
766.65	0.898
766.83	0.880
767.01	0.863
767.19	0.877
767.37	0.876
767.55	0.858
767.73	0.835
767.91	0.843
768.09	0.828
768.27	0.811
768.45	0.801
768.63	0.808
768.81	0.810
768.99	0.777
769.17	0.802
769.35	0.826
769.53	0.823
769.71	0.797
769.89	0.809
770.07	0.820
770.25	0.800
770.43	0.773
770.61	0.803
770.79	0.814
770.97	0.826
771.15	0.789
771.33	0.790
771.51	0.796
771.69	0.808
771.87	0.812
772.05	0.816
772.24	0.831
772.42	0.837
772.60	0.806
772.78	0.874
772.96	0.908
773.14	0.903
773.32	0.875
773.49	0.879
773.67	0.876
773.85	0.852
774.03	0.835
774.21	0.871
774.39	0.894
774.57	0.922
774.75	0.836
774.93	0.831
775.11	0.856
775.29	0.865
775.47	0.867
775.65	0.884
775.83	0.912
776.01	0.940
776.19	0.875
776.37	0.876
776.55	0.876
776.73	0.871
776.91	0.863
777.09	0.848
777.27	0.850
777.45	0.837
777.63	0.811
777.81	0.804
777.99	0.794
778.17	0.798
778.35	0.771
778.53	0.759
778.71	0.769
778.89	0.752
779.07	0.735
779.24	0.740
779.42	0.743
779.60	0.762
779.78	0.754
779.96	0.761
780.14	0.771
780.32	0.793
780.50	0.775
780.68	0.775
780.86	0.769
781.04	0.789
781.22	0.791
781.40	0.806
781.58	0.799
781.75	0.791
781.93	0.766
782.11	0.768
782.29	0.756
782.47	0.755
782.65	0.739
782.83	0.773
783.01	0.768
783.19	0.760
783.37	0.738
783.55	0.740
783.72	0.764
783.90	0.775
784.08	0.759
784.26	0.773
784.44	0.796
784.62	0.797
784.80	0.757
784.98	0.763
785.16	0.771
785.33	0.784
785.51	0.766
785.69	0.748
785.87	0.752
786.05	0.766
786.23	0.756
786.41	0.753
786.59	0.765
786.77	0.764
786.94	0.746
787.12	0.751
787.30	0.758
787.48	0.755
787.66	0.742
787.84	0.742
788.02	0.732
788.19	0.730
788.37	0.713
788.55	0.713
788.73	0.715
788.91	0.709
789.09	0.690
789.27	0.677
789.44	0.690
789.62	0.696
789.80	0.702
789.98	0.731
790.16	0.716
790.34	0.714
790.51	0.697
790.69	0.718
790.87	0.728
791.05	0.725
791.23	0.717
791.41	0.720
791.58	0.731
791.76	0.711
791.94	0.677
792.12	0.689
792.30	0.693
792.48	0.691
792.65	0.682
792.83	0.691
793.01	0.702
793.19	0.700
793.37	0.680
793.54	0.676
793.72	0.690
793.90	0.687
794.08	0.674
794.26	0.675
794.43	0.687
794.61	0.669
794.79	0.651
794.97	0.647
795.15	0.656
795.32	0.660
795.50	0.647
795.68	0.641
795.86	0.648
796.04	0.648
796.21	0.641
796.39	0.638
796.57	0.658
796.75	0.668
796.92	0.670
797.10	0.675
797.28	0.679
797.46	0.682
797.64	0.682
797.81	0.691
797.99	0.698
798.17	0.700
798.35	0.692
798.52	0.693
798.70	0.689
798.88	0.697
799.06	0.694
799.23	0.698
799.41	0.709
799.59	0.701
799.77	0.688
799.94	0.701
800.12	0.713
800.30	0.733
800.48	0.729
800.65	0.733
800.83	0.724
801.01	0.715
801.19	0.712
801.36	0.708
801.54	0.714
801.72	0.722
801.90	0.702
802.07	0.698
802.25	0.685
802.43	0.668
802.60	0.660
802.78	0.668
802.96	0.676
803.14	0.668
803.31	0.663
803.49	0.664
803.67	0.663
803.84	0.667
804.02	0.656
804.20	0.659
804.38	0.667
804.55	0.666
804.73	0.647
804.91	0.647
805.08	0.663
805.26	0.658
805.44	0.719
805.61	0.725
805.79	0.730
805.97	0.725
806.15	0.714
806.32	0.708
806.50	0.716
806.68	0.717
806.85	0.706
807.03	0.696
807.21	0.720
807.38	0.652
807.56	0.636
807.74	0.645
807.91	0.657
808.09	0.658
808.27	0.674
808.44	0.703
808.62	0.715
808.80	0.716
808.97	0.707
809.15	0.698
809.33	0.719
809.50	0.728
809.68	0.709
809.86	0.717
810.03	0.755
810.21	0.733
810.39	0.710
810.56	0.716
810.74	0.745
810.91	0.826
811.09	0.813
811.27	0.837
811.44	0.848
811.62	0.850
811.80	0.830
811.97	0.793
812.15	0.795
812.33	0.790
812.50	0.771
812.68	0.759
812.85	0.700
813.03	0.703
813.21	0.666
813.38	0.658
813.56	0.665
813.74	0.676
813.91	0.683
814.09	0.718
814.26	0.714
814.44	0.720
814.62	0.706
814.79	0.710
814.97	0.717
815.14	0.722
815.32	0.724
815.50	0.743
815.67	0.747
815.85	0.738
816.02	0.723
816.20	0.731
816.38	0.749
816.55	0.756
816.73	0.753
816.90	0.764
817.08	0.802
817.26	0.809
817.43	0.780
817.61	0.811
817.78	0.837
817.96	0.812
818.13	0.795
818.31	0.797
818.49	0.814
818.66	0.803
818.84	0.784
819.01	0.762
819.19	0.774
819.36	0.776
819.54	0.739
819.71	0.787
819.89	0.810
820.07	0.826
820.24	0.815
820.42	0.818
820.59	0.846
820.77	0.871
820.94	0.854
821.12	0.876
821.29	0.905
821.47	0.902
821.64	0.820
821.82	0.835
822.00	0.835
822.17	0.833
822.35	0.816
822.52	0.818
822.70	0.809
822.87	0.822
823.05	0.795
823.22	0.809
823.40	0.848
823.57	0.875
823.75	0.846
823.92	0.885
824.10	0.914
824.27	0.968
824.45	0.947
824.62	1.040
824.80	1.059
824.97	1.072
825.15	1.049
825.32	1.067
825.50	1.082
825.67	1.095
825.85	1.050
826.02	1.072
826.20	1.121
826.37	1.323
826.55	1.179
826.72	1.555
826.90	1.870
827.07	2.148
827.25	1.831
827.42	-0.000
827.60	-0.000
827.77	-0.000
827.95	-0.000
828.12	-0.000
828.30	-0.000
828.47	-0.000
828.65	1.916
828.82	2.305
829.00	-0.000
829.17	-0.000
829.34	-0.000
829.52	-0.000
829.69	-0.000
829.87	-0.000
830.04	-0.000
830.22	-0.000
830.39	-0.000
830.57	-0.000
830.74	-0.000
830.92	-0.000
831.09	-0.000
831.26	-0.000
831.44	-0.000
831.61	-0.000
831.79	-0.000
831.96	-0.000
832.14	-0.000
832.31	-0.000
832.49	-0.000
832.66	-0.000
832.83	-0.000
833.01	-0.000
833.18	-0.000
833.36	-0.000
833.53	-0.000
833.70	-0.000
833.88	-0.000
834.05	-0.000
834.23	-0.000
834.40	-0.000
834.58	-0.000
834.75	-0.000
834.92	-0.000
835.10	-0.000
835.27	-0.000
835.45	-0.000
835.62	-0.000
835.79	-0.000
835.97	-0.000
836.14	-0.000
836.32	-0.000
836.49	-0.000
836.66	-0.000
836.84	-0.000
837.01	-0.000
837.18	-0.000
837.36	-0.000
837.53	-0.000
837.71	-0.000
837.88	-0.000
838.05	-0.000
838.23	-0.000
838.40	-0.000
838.58	-0.000
838.75	-0.000
838.92	-0.000
839.10	-0.000
839.27	-0.000
839.44	-0.000
839.62	-0.000
839.79	-0.000
839.96	-0.000
840.14	-0.000
840.31	-0.000
840.48	-0.000
840.66	-0.000
840.83	-0.000
841.01	-0.000
841.18	-0.000
841.35	-0.000
841.53	-0.000
841.70	-0.000
841.87	-0.000
842.05	-0.000
842.22	-0.000
842.39	-0.000
842.57	-0.000
842.74	-0.000
842.91	-0.000
843.09	-0.000
843.26	-0.000
843.43	-0.000
843.60	-0.000
843.78	-0.000
843.95	-0.000
844.12	-0.000
844.30	-0.000
844.47	-0.000
844.64	-0.000
844.82	-0.000
844.99	-0.000
845.16	-0.000
845.34	-0.000
845.51	-0.000
845.68	-0.000
845.85	-0.000
846.03	-0.000
846.20	-0.000
846.37	-0.000
846.55	-0.000
846.72	-0.000
846.89	-0.000
847.06	-0.000
847.24	-0.000
847.41	-0.000
847.58	-0.000
847.76	-0.000
847.93	-0.000
848.10	-0.000
848.27	-0.000
848.45	-0.000
848.62	-0.000
848.79	-0.000
848.97	-0.000
849.14	-0.000
849.31	-0.000
849.48	-0.000
849.66	-0.000
849.83	-0.000
850.00	-0.000
850.17	-0.000
850.35	-0.000
850.52	-0.000
850.69	-0.000
850.86	-0.000
851.04	-0.000
851.21	-0.000
851.38	-0.000
851.55	-0.000
851.72	-0.000
851.90	-0.000
852.07	-0.000
852.24	-0.000
852.41	-0.000
852.59	-0.000
852.76	-0.000
852.93	-0.000
853.10	-0.000
853.28	-0.000
853.45	-0.000
853.62	-0.000
853.79	-0.000
853.96	-0.000
854.14	-0.000
854.31	-0.000
854.48	-0.000
854.65	-0.000
854.82	-0.000
855.00	-0.000
855.17	-0.000
855.34	-0.000
855.51	-0.000
855.68	-0.000
855.86	-0.000
856.03	-0.000
856.20	-0.000
856.37	-0.000
856.54	-0.000
856.72	-0.000
856.89	-0.000
857.06	-0.000
857.23	-0.000
857.40	-0.000
857.57	-0.000
857.75	-0.000
857.92	-0.000
858.09	-0.000
858.26	-0.000
858.43	-0.000
858.60	-0.000
858.78	-0.000
858.95	-0.000
859.12	-0.000
859.29	-0.000
859.46	-0.000
859.63	-0.000
859.81	-0.000
859.98	-0.000
860.15	-0.000
860.32	-0.000
860.49	-0.000
860.66	-0.000
860.83	-0.000
861.01	-0.000
861.18	-0.000
861.35	-0.000
861.52	-0.000
861.69	-0.000
861.86	-0.000
862.03	-0.000
862.21	-0.000
862.38	-0.000
862.55	-0.000
862.72	-0.000
862.89	-0.000
863.06	-0.000
863.23	-0.000
863.40	-0.000
863.58	-0.000
863.75	-0.000
863.92	-0.000
864.09	-0.000
864.26	-0.000
864.43	-0.000
864.60	-0.000
864.77	-0.000
864.94	-0.000
865.11	-0.000
865.29	-0.000
865.46	-0.000
865.63	-0.000
865.80	-0.000
865.97	-0.000
866.14	-0.000
866.31	-0.000
866.48	-0.000
866.65	-0.000
866.82	-0.000
866.99	-0.000
867.16	-0.000
867.34	-0.000
867.51	-0.000
867.68	-0.000
867.85	-0.000
868.02	-0.000
868.19	-0.000
868.36	-0.000
868.53	-0.000
868.70	-0.000
868.87	-0.000
869.04	-0.000
869.21	-0.000
869.38	-0.000
869.55	-0.000
869.72	-0.000
869.89	-0.000
870.06	-0.000
870.24	-0.000
870.41	-0.000
870.58	-0.000
870.75	-0.000
870.92	-0.000
871.09	-0.000
871.26	-0.000
871.43	-0.000
871.60	-0.000
871.77	-0.000
871.94	-0.000
872.11	-0.000
872.28	-0.000
872.45	-0.000
872.62	-0.000
872.79	-0.000
872.96	-0.000
873.13	-0.000
873.30	-0.000
873.47	-0.000
873.64	-0.000
873.81	-0.000
873.98	-0.000
874.15	-0.000
874.32	-0.000
874.49	-0.000
874.66	-0.000
874.83	-0.000
875.00	-0.000
875.17	-0.000
875.34	-0.000
875.51	-0.000
875.68	-0.000
875.85	-0.000
876.02	-0.000
876.19	-0.000
876.36	-0.000
876.53	-0.000
876.70	-0.000
876.87	-0.000
877.04	-0.000
877.21	-0.000
877.38	-0.000
877.55	-0.000
877.72	-0.000
877.89	-0.000
878.06	-0.000
878.23	-0.000
878.39	-0.000
878.56	-0.000
878.73	-0.000
878.90	-0.000
879.07	-0.000
879.24	-0.000
879.41	-0.000
879.58	-0.000
879.75	-0.000
879.92	-0.000
880.09	-0.000
880.26	-0.000
880.43	-0.000
880.60	-0.000
880.77	-0.000
880.94	-0.000
881.11	-0.000
881.27	-0.000
881.44	-0.000
881.61	-0.000
881.78	-0.000
881.95	-0.000
882.12	-0.000
882.29	-0.000
882.46	-0.000
882.63	-0.000
882.80	-0.000
882.97	-0.000
883.14	-0.000
883.30	-0.000
883.47	-0.000
883.64	-0.000
883.81	-0.000
883.98	-0.000
884.15	-0.000
884.32	-0.000
884.49	-0.000
884.66	-0.000
884.82	-0.000
884.99	-0.000
885.16	-0.000
885.33	-0.000
885.50	-0.000
885.67	-0.000
885.84	-0.000
886.01	-0.000
886.17	-0.000
886.34	-0.000
886.51	-0.000
886.68	-0.000
886.85	-0.000
887.02	-0.000
887.19	-0.000
887.36	-0.000
887.52	-0.000
887.69	-0.000
887.86	-0.000
888.03	-0.000
888.20	-0.000
888.37	-0.000
888.54	-0.000
888.70	-0.000
888.87	-0.000
889.04	-0.000
889.21	-0.000
889.38	-0.000
889.55	-0.000
889.71	-0.000
889.88	-0.000
890.05	-0.000
890.22	-0.000
890.39	-0.000
>>>>>End Processed Spectral Data<<<<<
