SpectraSuite Data File
++++++++++++++++++++++++++++++++++++
Date: Fri Jun 19 13:19:36 CEST 2015
User: introlabs
Dark Spectrum Present: Yes
Reference Spectrum Present: Yes
Number of Sampled Component Spectra: 1
Spectrometers: USB4H08886
Integration Time (usec): 745692 (USB4H08886)
Spectra Averaged: 5 (USB4H08886)
Boxcar Smoothing: 5 (USB4H08886)
Correct for Electrical Dark: Yes (USB4H08886)
Strobe/Lamp Enabled: No (USB4H08886)
Correct for Detector Non-linearity: Yes (USB4H08886)
Correct for Stray Light: Yes (USB4H08886)
Number of Pixels in Processed Spectrum: 3648
>>>>>Begin Processed Spectral Data<<<<<
178.14	-0.000
178.36	-0.000
178.57	-0.000
178.79	-0.000
179.01	-0.000
179.22	-0.000
179.44	-0.000
179.65	-0.000
179.87	-0.000
180.08	-0.000
180.30	-0.000
180.52	-0.000
180.73	-0.000
180.95	-0.000
181.16	-0.000
181.38	-0.000
181.59	-0.000
181.81	-0.000
182.03	-0.000
182.24	-0.000
182.46	-0.000
182.67	-0.000
182.89	-0.000
183.10	-0.000
183.32	-0.000
183.54	-0.000
183.75	-0.000
183.97	-0.000
184.18	-0.000
184.40	-0.000
184.61	-0.000
184.83	-0.000
185.04	-0.000
185.26	-0.000
185.48	-0.000
185.69	-0.000
185.91	-0.000
186.12	-0.000
186.34	-0.000
186.55	-0.000
186.77	-0.000
186.98	-0.000
187.20	-0.000
187.42	-0.000
187.63	-0.000
187.85	-0.000
188.06	-0.000
188.28	-0.000
188.49	-0.000
188.71	-0.000
188.92	-0.000
189.14	-0.000
189.36	-0.000
189.57	-0.000
189.79	-0.000
190.00	-0.000
190.22	-0.000
190.43	-0.000
190.65	-0.000
190.86	-0.000
191.08	-0.000
191.29	-0.000
191.51	-0.000
191.72	-0.000
191.94	-0.000
192.16	-0.000
192.37	-0.000
192.59	-0.000
192.80	-0.000
193.02	-0.000
193.23	-0.000
193.45	-0.000
193.66	-0.000
193.88	-0.000
194.09	-0.000
194.31	-0.000
194.52	-0.000
194.74	-0.000
194.95	-0.000
195.17	-0.000
195.38	-0.000
195.60	-0.000
195.81	-0.000
196.03	-0.000
196.25	-0.000
196.46	-0.000
196.68	-0.000
196.89	-0.000
197.11	-0.000
197.32	-0.000
197.54	-0.000
197.75	-0.000
197.97	-0.000
198.18	-0.000
198.40	-0.000
198.61	-0.000
198.83	-0.000
199.04	-0.000
199.26	-0.000
199.47	-0.000
199.69	-0.000
199.90	-0.000
200.12	-0.000
200.33	-0.000
200.55	-0.000
200.76	-0.000
200.98	-0.000
201.19	-0.000
201.41	-0.000
201.62	-0.000
201.84	-0.000
202.05	-0.000
202.27	-0.000
202.48	-0.000
202.70	-0.000
202.91	-0.000
203.13	-0.000
203.34	-0.000
203.56	-0.000
203.77	-0.000
203.99	-0.000
204.20	-0.000
204.42	-0.000
204.63	-0.000
204.85	-0.000
205.06	-0.000
205.28	-0.000
205.49	-0.000
205.71	-0.000
205.92	-0.000
206.14	-0.000
206.35	-0.000
206.56	-0.000
206.78	-0.000
206.99	-0.000
207.21	-0.000
207.42	-0.000
207.64	-0.000
207.85	-0.000
208.07	-0.000
208.28	-0.000
208.50	-0.000
208.71	-0.000
208.93	-0.000
209.14	-0.000
209.36	-0.000
209.57	-0.000
209.79	-0.000
210.00	-0.000
210.22	-0.000
210.43	-0.000
210.64	-0.000
210.86	-0.000
211.07	-0.000
211.29	-0.000
211.50	-0.000
211.72	-0.000
211.93	-0.000
212.15	-0.000
212.36	-0.000
212.58	-0.000
212.79	-0.000
213.01	-0.000
213.22	-0.000
213.43	-0.000
213.65	-0.000
213.86	-0.000
214.08	-0.000
214.29	-0.000
214.51	-0.000
214.72	-0.000
214.94	-0.000
215.15	-0.000
215.36	-0.000
215.58	-0.000
215.79	-0.000
216.01	-0.000
216.22	-0.000
216.44	-0.000
216.65	-0.000
216.87	-0.000
217.08	-0.000
217.29	-0.000
217.51	-0.000
217.72	-0.000
217.94	-0.000
218.15	-0.000
218.37	-0.000
218.58	-0.000
218.80	-0.000
219.01	-0.000
219.22	-0.000
219.44	-0.000
219.65	-0.000
219.87	-0.000
220.08	-0.000
220.30	-0.000
220.51	-0.000
220.72	-0.000
220.94	-0.000
221.15	-0.000
221.37	-0.000
221.58	-0.000
221.79	-0.000
222.01	-0.000
222.22	-0.000
222.44	-0.000
222.65	-0.000
222.87	-0.000
223.08	-0.000
223.29	-0.000
223.51	-0.000
223.72	-0.000
223.94	-0.000
224.15	-0.000
224.36	-0.000
224.58	-0.000
224.79	-0.000
225.01	-0.000
225.22	-0.000
225.44	-0.000
225.65	-0.000
225.86	-0.000
226.08	-0.000
226.29	-0.000
226.51	-0.000
226.72	-0.000
226.93	-0.000
227.15	-0.000
227.36	-0.000
227.58	-0.000
227.79	-0.000
228.00	-0.000
228.22	-0.000
228.43	-0.000
228.65	-0.000
228.86	-0.000
229.07	-0.000
229.29	-0.000
229.50	-0.000
229.72	-0.000
229.93	-0.000
230.14	-0.000
230.36	-0.000
230.57	-0.000
230.78	-0.000
231.00	-0.000
231.21	-0.000
231.43	-0.000
231.64	-0.000
231.85	-0.000
232.07	-0.000
232.28	-0.000
232.50	-0.000
232.71	-0.000
232.92	-0.000
233.14	-0.000
233.35	-0.000
233.56	-0.000
233.78	-0.000
233.99	-0.000
234.21	-0.000
234.42	-0.000
234.63	-0.000
234.85	-0.000
235.06	-0.000
235.27	-0.000
235.49	-0.000
235.70	-0.000
235.91	-0.000
236.13	-0.000
236.34	-0.000
236.56	-0.000
236.77	-0.000
236.98	-0.000
237.20	-0.000
237.41	-0.000
237.62	-0.000
237.84	-0.000
238.05	-0.000
238.26	-0.000
238.48	-0.000
238.69	-0.000
238.91	-0.000
239.12	-0.000
239.33	-0.000
239.55	-0.000
239.76	-0.000
239.97	-0.000
240.19	-0.000
240.40	-0.000
240.61	-0.000
240.83	-0.000
241.04	-0.000
241.25	-0.000
241.47	-0.000
241.68	-0.000
241.89	-0.000
242.11	-0.000
242.32	-0.000
242.53	-0.000
242.75	-0.000
242.96	-0.000
243.17	-0.000
243.39	-0.000
243.60	-0.000
243.81	-0.000
244.03	-0.000
244.24	-0.000
244.45	-0.000
244.67	-0.000
244.88	-0.000
245.09	-0.000
245.31	-0.000
245.52	-0.000
245.73	-0.000
245.95	-0.000
246.16	-0.000
246.37	-0.000
246.59	-0.000
246.80	-0.000
247.01	-0.000
247.23	-0.000
247.44	-0.000
247.65	-0.000
247.87	-0.000
248.08	-0.000
248.29	-0.000
248.51	-0.000
248.72	-0.000
248.93	-0.000
249.15	-0.000
249.36	-0.000
249.57	-0.000
249.78	-0.000
250.00	-0.000
250.21	-0.000
250.42	-0.000
250.64	-0.000
250.85	-0.000
251.06	-0.000
251.28	-0.000
251.49	-0.000
251.70	-0.000
251.92	-0.000
252.13	-0.000
252.34	-0.000
252.55	-0.000
252.77	-0.000
252.98	-0.000
253.19	-0.000
253.41	-0.000
253.62	-0.000
253.83	-0.000
254.05	-0.000
254.26	-0.000
254.47	-0.000
254.68	-0.000
254.90	-0.000
255.11	-0.000
255.32	-0.000
255.54	-0.000
255.75	-0.000
255.96	-0.000
256.17	-0.000
256.39	-0.000
256.60	-0.000
256.81	-0.000
257.03	-0.000
257.24	-0.000
257.45	-0.000
257.66	-0.000
257.88	-0.000
258.09	-0.000
258.30	-0.000
258.51	-0.000
258.73	-0.000
258.94	-0.000
259.15	-0.000
259.37	-0.000
259.58	-0.000
259.79	-0.000
260.00	-0.000
260.22	-0.000
260.43	-0.000
260.64	-0.000
260.85	-0.000
261.07	-0.000
261.28	-0.000
261.49	-0.000
261.71	-0.000
261.92	-0.000
262.13	-0.000
262.34	-0.000
262.56	-0.000
262.77	-0.000
262.98	-0.000
263.19	-0.000
263.41	-0.000
263.62	-0.000
263.83	-0.000
264.04	-0.000
264.26	-0.000
264.47	-0.000
264.68	-0.000
264.89	-0.000
265.11	-0.000
265.32	-0.000
265.53	-0.000
265.74	-0.000
265.96	-0.000
266.17	-0.000
266.38	-0.000
266.59	-0.000
266.81	-0.000
267.02	-0.000
267.23	-0.000
267.44	-0.000
267.65	-0.000
267.87	-0.000
268.08	-0.000
268.29	-0.000
268.50	-0.000
268.72	-0.000
268.93	-0.000
269.14	-0.000
269.35	-0.000
269.57	-0.000
269.78	-0.000
269.99	-0.000
270.20	-0.000
270.41	-0.000
270.63	-0.000
270.84	-0.000
271.05	-0.000
271.26	-0.000
271.48	-0.000
271.69	-0.000
271.90	-0.000
272.11	-0.000
272.32	-0.000
272.54	-0.000
272.75	-0.000
272.96	-0.000
273.17	-0.000
273.39	-0.000
273.60	-0.000
273.81	-0.000
274.02	-0.000
274.23	-0.000
274.45	-0.000
274.66	-0.000
274.87	-0.000
275.08	-0.000
275.29	-0.000
275.51	-0.000
275.72	-0.000
275.93	-0.000
276.14	-0.000
276.35	-0.000
276.57	-0.000
276.78	-0.000
276.99	-0.000
277.20	-0.000
277.41	-0.000
277.63	-0.000
277.84	-0.000
278.05	-0.000
278.26	-0.000
278.47	-0.000
278.69	-0.000
278.90	-0.000
279.11	-0.000
279.32	-0.000
279.53	-0.000
279.74	-0.000
279.96	-0.000
280.17	-0.000
280.38	-0.000
280.59	-0.000
280.80	-0.000
281.02	-0.000
281.23	-0.000
281.44	-0.000
281.65	-0.000
281.86	-0.000
282.07	-0.000
282.29	-0.000
282.50	-0.000
282.71	-0.000
282.92	-0.000
283.13	-0.000
283.35	-0.000
283.56	-0.000
283.77	-0.000
283.98	-0.000
284.19	-0.000
284.40	-0.000
284.62	-0.000
284.83	-0.000
285.04	-0.000
285.25	-0.000
285.46	-0.000
285.67	-0.000
285.88	-0.000
286.10	-0.000
286.31	-0.000
286.52	-0.000
286.73	-0.000
286.94	-0.000
287.15	-0.000
287.37	-0.000
287.58	-0.000
287.79	-0.000
288.00	-0.000
288.21	-0.000
288.42	-0.000
288.63	-0.000
288.85	-0.000
289.06	-0.000
289.27	-0.000
289.48	-0.000
289.69	-0.000
289.90	-0.000
290.11	-0.000
290.33	-0.000
290.54	-0.000
290.75	-0.000
290.96	-0.000
291.17	-0.000
291.38	-0.000
291.59	-0.000
291.81	-0.000
292.02	-0.000
292.23	-0.000
292.44	-0.000
292.65	-0.000
292.86	-0.000
293.07	-0.000
293.28	-0.000
293.50	-0.000
293.71	-0.000
293.92	-0.000
294.13	-0.000
294.34	-0.000
294.55	-0.000
294.76	-0.000
294.97	-0.000
295.19	-0.000
295.40	-0.000
295.61	-0.000
295.82	-0.000
296.03	-0.000
296.24	-0.000
296.45	-0.000
296.66	-0.000
296.87	-0.000
297.09	-0.000
297.30	-0.000
297.51	2.672
297.72	2.425
297.93	-0.000
298.14	2.880
298.35	2.442
298.56	2.301
298.77	-0.000
298.99	-0.000
299.20	2.798
299.41	2.509
299.62	2.343
299.83	2.289
300.04	2.042
300.25	2.024
300.46	2.142
300.67	2.042
300.88	1.890
301.10	1.883
301.31	2.068
301.52	1.910
301.73	1.779
301.94	1.775
302.15	1.806
302.36	1.715
302.57	1.601
302.78	1.615
302.99	1.693
303.20	1.731
303.41	1.583
303.63	1.555
303.84	1.569
304.05	1.570
304.26	1.478
304.47	1.487
304.68	1.497
304.89	1.483
305.10	1.419
305.31	1.397
305.52	1.456
305.73	1.444
305.94	1.389
306.15	1.380
306.37	1.407
306.58	1.422
306.79	1.375
307.00	1.400
307.21	1.461
307.42	1.451
307.63	1.401
307.84	1.354
308.05	1.402
308.26	1.401
308.47	1.368
308.68	1.359
308.89	1.356
309.10	1.352
309.31	1.301
309.52	1.286
309.73	1.304
309.95	1.295
310.16	1.262
310.37	1.247
310.58	1.266
310.79	1.263
311.00	1.258
311.21	1.259
311.42	1.266
311.63	1.258
311.84	1.235
312.05	1.233
312.26	1.262
312.47	1.272
312.68	1.244
312.89	1.225
313.10	1.234
313.31	1.203
313.52	1.204
313.73	1.201
313.94	1.206
314.15	1.185
314.36	1.157
314.57	1.147
314.78	1.136
314.99	1.129
315.21	1.114
315.42	1.118
315.63	1.132
315.84	1.105
316.05	1.090
316.26	1.097
316.47	1.118
316.68	1.113
316.89	1.093
317.10	1.115
317.31	1.123
317.52	1.125
317.73	1.102
317.94	1.101
318.15	1.150
318.36	1.149
318.57	1.130
318.78	1.116
318.99	1.159
319.20	1.154
319.41	1.113
319.62	1.113
319.83	1.127
320.04	1.120
320.25	1.104
320.46	1.066
320.67	1.072
320.88	1.066
321.09	1.050
321.30	1.032
321.51	1.050
321.72	1.048
321.93	1.028
322.14	1.020
322.35	1.050
322.56	1.052
322.77	1.039
322.98	1.050
323.19	1.059
323.40	1.066
323.61	1.042
323.82	1.036
324.03	1.041
324.24	1.039
324.45	1.024
324.66	1.002
324.87	0.999
325.08	0.999
325.29	0.977
325.50	0.969
325.71	0.975
325.92	0.983
326.13	0.968
326.34	0.970
326.55	0.978
326.76	0.977
326.97	0.967
327.18	0.961
327.39	0.988
327.60	0.989
327.80	0.989
328.01	0.987
328.22	0.987
328.43	0.990
328.64	0.977
328.85	0.982
329.06	0.983
329.27	0.983
329.48	0.978
329.69	0.958
329.90	0.969
330.11	0.962
330.32	0.953
330.53	0.946
330.74	0.947
330.95	0.945
331.16	0.929
331.37	0.938
331.58	0.938
331.79	0.937
332.00	0.928
332.21	0.922
332.42	0.927
332.63	0.918
332.83	0.912
333.04	0.914
333.25	0.928
333.46	0.926
333.67	0.910
333.88	0.913
334.09	0.923
334.30	0.919
334.51	0.908
334.72	0.903
334.93	0.907
335.14	0.906
335.35	0.898
335.56	0.892
335.77	0.901
335.98	0.899
336.18	0.891
336.39	0.885
336.60	0.888
336.81	0.886
337.02	0.885
337.23	0.889
337.44	0.892
337.65	0.894
337.86	0.884
338.07	0.879
338.28	0.886
338.49	0.883
338.70	0.875
338.91	0.884
339.11	0.892
339.32	0.888
339.53	0.875
339.74	0.872
339.95	0.870
340.16	0.867
340.37	0.859
340.58	0.857
340.79	0.861
341.00	0.862
341.21	0.850
341.41	0.851
341.62	0.853
341.83	0.855
342.04	0.850
342.25	0.862
342.46	0.867
342.67	0.866
342.88	0.858
343.09	0.858
343.30	0.865
343.50	0.868
343.71	0.856
343.92	0.854
344.13	0.859
344.34	0.858
344.55	0.840
344.76	0.838
344.97	0.843
345.18	0.842
345.38	0.838
345.59	0.833
345.80	0.832
346.01	0.831
346.22	0.826
346.43	0.819
346.64	0.829
346.85	0.827
347.06	0.820
347.26	0.821
347.47	0.825
347.68	0.820
347.89	0.816
348.10	0.812
348.31	0.818
348.52	0.817
348.73	0.815
348.93	0.810
349.14	0.814
349.35	0.813
349.56	0.806
349.77	0.801
349.98	0.807
350.19	0.804
350.39	0.799
350.60	0.795
350.81	0.812
351.02	0.810
351.23	0.807
351.44	0.810
351.65	0.814
351.86	0.811
352.06	0.811
352.27	0.811
352.48	0.812
352.69	0.811
352.90	0.805
353.11	0.792
353.31	0.799
353.52	0.795
353.73	0.786
353.94	0.786
354.15	0.792
354.36	0.792
354.57	0.783
354.77	0.785
354.98	0.785
355.19	0.784
355.40	0.783
355.61	0.788
355.82	0.793
356.02	0.792
356.23	0.786
356.44	0.788
356.65	0.791
356.86	0.791
357.07	0.785
357.27	0.788
357.48	0.791
357.69	0.787
357.90	0.771
358.11	0.767
358.32	0.771
358.52	0.774
358.73	0.764
358.94	0.766
359.15	0.772
359.36	0.773
359.56	0.767
359.77	0.764
359.98	0.771
360.19	0.772
360.40	0.769
360.61	0.770
360.81	0.769
361.02	0.769
361.23	0.761
361.44	0.758
361.65	0.758
361.85	0.759
362.06	0.757
362.27	0.758
362.48	0.759
362.69	0.761
362.89	0.754
363.10	0.755
363.31	0.760
363.52	0.763
363.73	0.757
363.93	0.758
364.14	0.760
364.35	0.761
364.56	0.751
364.77	0.753
364.97	0.755
365.18	0.756
365.39	0.751
365.60	0.748
365.81	0.750
366.01	0.750
366.22	0.747
366.43	0.745
366.64	0.748
366.84	0.754
367.05	0.750
367.26	0.749
367.47	0.751
367.68	0.750
367.88	0.747
368.09	0.745
368.30	0.747
368.51	0.746
368.71	0.745
368.92	0.749
369.13	0.748
369.34	0.747
369.55	0.746
369.75	0.746
369.96	0.754
370.17	0.754
370.38	0.750
370.58	0.750
370.79	0.756
371.00	0.755
371.21	0.745
371.41	0.750
371.62	0.754
371.83	0.749
372.04	0.747
372.24	0.739
372.45	0.741
372.66	0.741
372.87	0.739
373.07	0.735
373.28	0.736
373.49	0.740
373.70	0.730
373.90	0.729
374.11	0.739
374.32	0.738
374.53	0.737
374.73	0.737
374.94	0.740
375.15	0.740
375.36	0.736
375.56	0.746
375.77	0.746
375.98	0.746
376.19	0.744
376.39	0.738
376.60	0.743
376.81	0.743
377.02	0.740
377.22	0.739
377.43	0.738
377.64	0.739
377.84	0.729
378.05	0.732
378.26	0.738
378.47	0.736
378.67	0.732
378.88	0.729
379.09	0.729
379.30	0.730
379.50	0.727
379.71	0.730
379.92	0.732
380.12	0.732
380.33	0.724
380.54	0.721
380.75	0.728
380.95	0.728
381.16	0.726
381.37	0.727
381.57	0.728
381.78	0.729
381.99	0.728
382.20	0.727
382.40	0.729
382.61	0.730
382.82	0.726
383.02	0.718
383.23	0.722
383.44	0.721
383.64	0.720
383.85	0.722
384.06	0.725
384.27	0.723
384.47	0.721
384.68	0.722
384.89	0.728
385.09	0.728
385.30	0.727
385.51	0.726
385.71	0.730
385.92	0.730
386.13	0.728
386.33	0.729
386.54	0.730
386.75	0.729
386.95	0.724
387.16	0.719
387.37	0.721
387.58	0.721
387.78	0.719
387.99	0.717
388.20	0.719
388.40	0.716
388.61	0.712
388.82	0.715
389.02	0.717
389.23	0.717
389.44	0.715
389.64	0.715
389.85	0.727
390.06	0.726
390.26	0.726
390.47	0.725
390.68	0.728
390.88	0.726
391.09	0.721
391.30	0.721
391.50	0.721
391.71	0.721
391.92	0.718
392.12	0.709
392.33	0.711
392.53	0.710
392.74	0.710
392.95	0.709
393.15	0.712
393.36	0.713
393.57	0.711
393.77	0.715
393.98	0.716
394.19	0.715
394.39	0.715
394.60	0.716
394.81	0.717
395.01	0.715
395.22	0.713
395.43	0.715
395.63	0.720
395.84	0.720
396.04	0.716
396.25	0.718
396.46	0.720
396.66	0.718
396.87	0.714
397.08	0.711
397.28	0.713
397.49	0.714
397.69	0.710
397.90	0.705
398.11	0.707
398.31	0.707
398.52	0.703
398.73	0.704
398.93	0.704
399.14	0.703
399.34	0.703
399.55	0.703
399.76	0.704
399.96	0.704
400.17	0.703
400.37	0.700
400.58	0.707
400.79	0.709
400.99	0.707
401.20	0.712
401.41	0.714
401.61	0.715
401.82	0.720
402.02	0.720
402.23	0.721
402.44	0.720
402.64	0.721
402.85	0.715
403.05	0.714
403.26	0.712
403.47	0.706
403.67	0.705
403.88	0.705
404.08	0.699
404.29	0.696
404.50	0.696
404.70	0.696
404.91	0.695
405.11	0.692
405.32	0.692
405.52	0.692
405.73	0.692
405.94	0.690
406.14	0.693
406.35	0.695
406.55	0.696
406.76	0.693
406.97	0.694
407.17	0.696
407.38	0.696
407.58	0.694
407.79	0.697
407.99	0.700
408.20	0.701
408.41	0.697
408.61	0.695
408.82	0.696
409.02	0.696
409.23	0.694
409.43	0.693
409.64	0.694
409.84	0.693
410.05	0.690
410.26	0.688
410.46	0.687
410.67	0.686
410.87	0.687
411.08	0.689
411.28	0.690
411.49	0.692
411.69	0.689
411.90	0.690
412.11	0.692
412.31	0.694
412.52	0.692
412.72	0.692
412.93	0.694
413.13	0.693
413.34	0.689
413.54	0.691
413.75	0.693
413.95	0.692
414.16	0.689
414.37	0.692
414.57	0.692
414.78	0.695
414.98	0.693
415.19	0.694
415.39	0.692
415.60	0.694
415.80	0.694
416.01	0.691
416.21	0.693
416.42	0.693
416.62	0.688
416.83	0.688
417.03	0.688
417.24	0.688
417.44	0.685
417.65	0.684
417.86	0.684
418.06	0.682
418.27	0.680
418.47	0.682
418.68	0.683
418.88	0.684
419.09	0.682
419.29	0.683
419.50	0.683
419.70	0.683
419.91	0.681
420.11	0.679
420.32	0.682
420.52	0.682
420.73	0.680
420.93	0.681
421.14	0.682
421.34	0.682
421.55	0.678
421.75	0.678
421.96	0.679
422.16	0.679
422.37	0.678
422.57	0.675
422.78	0.677
422.98	0.674
423.19	0.672
423.39	0.671
423.60	0.675
423.80	0.676
424.01	0.675
424.21	0.678
424.42	0.679
424.62	0.679
424.83	0.678
425.03	0.678
425.23	0.681
425.44	0.681
425.64	0.681
425.85	0.680
426.05	0.681
426.26	0.680
426.46	0.676
426.67	0.675
426.87	0.680
427.08	0.680
427.28	0.678
427.49	0.680
427.69	0.681
427.90	0.680
428.10	0.677
428.31	0.677
428.51	0.679
428.71	0.678
428.92	0.679
429.12	0.676
429.33	0.677
429.53	0.681
429.74	0.685
429.94	0.685
430.15	0.684
430.35	0.684
430.56	0.681
430.76	0.680
430.96	0.681
431.17	0.678
431.37	0.675
431.58	0.673
431.78	0.670
431.99	0.663
432.19	0.665
432.40	0.667
432.60	0.667
432.80	0.670
433.01	0.668
433.21	0.669
433.42	0.671
433.62	0.672
433.83	0.672
434.03	0.674
434.23	0.677
434.44	0.676
434.64	0.674
434.85	0.679
435.05	0.680
435.26	0.681
435.46	0.679
435.66	0.679
435.87	0.678
436.07	0.679
436.28	0.675
436.48	0.671
436.69	0.671
436.89	0.671
437.09	0.664
437.30	0.663
437.50	0.663
437.71	0.674
437.91	0.674
438.11	0.675
438.32	0.680
438.52	0.681
438.73	0.680
438.93	0.678
439.13	0.678
439.34	0.682
439.54	0.680
439.75	0.680
439.95	0.670
440.15	0.675
440.36	0.673
440.56	0.670
440.77	0.672
440.97	0.672
441.17	0.671
441.38	0.673
441.58	0.670
441.79	0.670
441.99	0.669
442.19	0.668
442.40	0.665
442.60	0.665
442.81	0.662
443.01	0.662
443.21	0.663
443.42	0.663
443.62	0.661
443.82	0.660
444.03	0.662
444.23	0.662
444.44	0.662
444.64	0.661
444.84	0.663
445.05	0.663
445.25	0.660
445.45	0.661
445.66	0.664
445.86	0.663
446.06	0.664
446.27	0.664
446.47	0.667
446.68	0.665
446.88	0.664
447.08	0.663
447.29	0.665
447.49	0.666
447.69	0.665
447.90	0.663
448.10	0.668
448.30	0.665
448.51	0.666
448.71	0.663
448.91	0.666
449.12	0.665
449.32	0.666
449.52	0.665
449.73	0.669
449.93	0.668
450.14	0.668
450.34	0.667
450.54	0.670
450.75	0.667
450.95	0.667
451.15	0.666
451.36	0.669
451.56	0.665
451.76	0.664
451.97	0.661
452.17	0.662
452.37	0.660
452.58	0.657
452.78	0.657
452.98	0.659
453.19	0.659
453.39	0.659
453.59	0.658
453.79	0.660
454.00	0.661
454.20	0.660
454.40	0.660
454.61	0.663
454.81	0.663
455.01	0.662
455.22	0.663
455.42	0.664
455.62	0.662
455.83	0.662
456.03	0.665
456.23	0.666
456.44	0.667
456.64	0.666
456.84	0.666
457.04	0.667
457.25	0.666
457.45	0.662
457.65	0.661
457.86	0.662
458.06	0.661
458.26	0.656
458.47	0.656
458.67	0.657
458.87	0.657
459.07	0.655
459.28	0.657
459.48	0.660
459.68	0.660
459.89	0.659
460.09	0.658
460.29	0.659
460.49	0.661
460.70	0.659
460.90	0.659
461.10	0.660
461.31	0.659
461.51	0.656
461.71	0.657
461.91	0.659
462.12	0.659
462.32	0.658
462.52	0.659
462.72	0.662
462.93	0.662
463.13	0.661
463.33	0.662
463.53	0.664
463.74	0.663
463.94	0.658
464.14	0.658
464.35	0.659
464.55	0.659
464.75	0.656
464.95	0.654
465.16	0.656
465.36	0.654
465.56	0.653
465.76	0.652
465.97	0.653
466.17	0.654
466.37	0.652
466.57	0.653
466.78	0.654
466.98	0.655
467.18	0.653
467.38	0.652
467.59	0.654
467.79	0.655
467.99	0.654
468.19	0.656
468.39	0.659
468.60	0.660
468.80	0.658
469.00	0.659
469.20	0.660
469.41	0.661
469.61	0.660
469.81	0.660
470.01	0.660
470.22	0.660
470.42	0.657
470.62	0.655
470.82	0.656
471.02	0.656
471.23	0.653
471.43	0.654
471.63	0.656
471.83	0.656
472.04	0.654
472.24	0.653
472.44	0.658
472.64	0.658
472.84	0.656
473.05	0.655
473.25	0.658
473.45	0.658
473.65	0.656
473.85	0.657
474.06	0.659
474.26	0.659
474.46	0.660
474.66	0.656
474.86	0.657
475.07	0.658
475.27	0.655
475.47	0.653
475.67	0.653
475.87	0.655
476.08	0.651
476.28	0.652
476.48	0.654
476.68	0.652
476.88	0.650
477.09	0.651
477.29	0.653
477.49	0.653
477.69	0.653
477.89	0.653
478.09	0.652
478.30	0.654
478.50	0.651
478.70	0.651
478.90	0.652
479.10	0.655
479.31	0.655
479.51	0.653
479.71	0.654
479.91	0.655
480.11	0.653
480.31	0.654
480.52	0.653
480.72	0.652
480.92	0.651
481.12	0.650
481.32	0.647
481.52	0.645
481.72	0.645
481.93	0.649
482.13	0.649
482.33	0.649
482.53	0.647
482.73	0.648
482.93	0.649
483.14	0.648
483.34	0.648
483.54	0.649
483.74	0.648
483.94	0.647
484.14	0.642
484.34	0.642
484.55	0.643
484.75	0.642
484.95	0.641
485.15	0.640
485.35	0.641
485.55	0.640
485.75	0.638
485.96	0.639
486.16	0.640
486.36	0.640
486.56	0.638
486.76	0.638
486.96	0.639
487.16	0.638
487.36	0.636
487.57	0.636
487.77	0.637
487.97	0.637
488.17	0.635
488.37	0.634
488.57	0.634
488.77	0.635
488.97	0.633
489.18	0.632
489.38	0.635
489.58	0.636
489.78	0.635
489.98	0.635
490.18	0.635
490.38	0.636
490.58	0.634
490.78	0.635
490.98	0.637
491.19	0.638
491.39	0.637
491.59	0.635
491.79	0.638
491.99	0.639
492.19	0.638
492.39	0.641
492.59	0.641
492.79	0.644
492.99	0.644
493.20	0.644
493.40	0.644
493.60	0.646
493.80	0.644
494.00	0.642
494.20	0.642
494.40	0.641
494.60	0.638
494.80	0.643
495.00	0.642
495.20	0.640
495.40	0.639
495.61	0.641
495.81	0.641
496.01	0.645
496.21	0.646
496.41	0.645
496.61	0.646
496.81	0.645
497.01	0.640
497.21	0.639
497.41	0.640
497.61	0.640
497.81	0.637
498.01	0.637
498.21	0.635
498.41	0.632
498.61	0.632
498.82	0.634
499.02	0.636
499.22	0.637
499.42	0.636
499.62	0.637
499.82	0.638
500.02	0.640
500.22	0.638
500.42	0.640
500.62	0.641
500.82	0.642
501.02	0.639
501.22	0.639
501.42	0.639
501.62	0.641
501.82	0.640
502.02	0.641
502.22	0.640
502.42	0.642
502.62	0.639
502.82	0.640
503.02	0.640
503.22	0.640
503.42	0.638
503.63	0.638
503.83	0.636
504.03	0.635
504.23	0.634
504.43	0.634
504.63	0.636
504.83	0.635
505.03	0.634
505.23	0.636
505.43	0.638
505.63	0.639
505.83	0.638
506.03	0.640
506.23	0.643
506.43	0.643
506.63	0.642
506.83	0.641
507.03	0.643
507.23	0.643
507.43	0.640
507.63	0.641
507.83	0.642
508.03	0.642
508.23	0.641
508.43	0.640
508.63	0.641
508.83	0.642
509.03	0.642
509.23	0.641
509.43	0.642
509.63	0.642
509.83	0.641
510.03	0.643
510.23	0.645
510.43	0.646
510.63	0.646
510.83	0.646
511.03	0.648
511.23	0.645
511.43	0.645
511.63	0.646
511.83	0.648
512.03	0.648
512.22	0.645
512.42	0.644
512.62	0.645
512.82	0.644
513.02	0.642
513.22	0.642
513.42	0.644
513.62	0.647
513.82	0.646
514.02	0.645
514.22	0.646
514.42	0.647
514.62	0.646
514.82	0.646
515.02	0.649
515.22	0.653
515.42	0.652
515.62	0.654
515.82	0.652
516.02	0.653
516.22	0.653
516.42	0.655
516.62	0.657
516.82	0.658
517.01	0.656
517.21	0.655
517.41	0.660
517.61	0.660
517.81	0.656
518.01	0.656
518.21	0.656
518.41	0.655
518.61	0.655
518.81	0.655
519.01	0.656
519.21	0.656
519.41	0.654
519.61	0.649
519.81	0.651
520.00	0.652
520.20	0.651
520.40	0.654
520.60	0.655
520.80	0.653
521.00	0.653
521.20	0.655
521.40	0.660
521.60	0.661
521.80	0.660
522.00	0.660
522.20	0.663
522.39	0.662
522.59	0.659
522.79	0.661
522.99	0.663
523.19	0.662
523.39	0.659
523.59	0.657
523.79	0.661
523.99	0.663
524.19	0.661
524.38	0.659
524.58	0.661
524.78	0.662
524.98	0.660
525.18	0.662
525.38	0.663
525.58	0.663
525.78	0.661
525.98	0.659
526.18	0.659
526.37	0.659
526.57	0.661
526.77	0.660
526.97	0.661
527.17	0.661
527.37	0.657
527.57	0.660
527.77	0.662
527.96	0.663
528.16	0.661
528.36	0.662
528.56	0.664
528.76	0.661
528.96	0.661
529.16	0.662
529.36	0.665
529.55	0.665
529.75	0.662
529.95	0.662
530.15	0.663
530.35	0.666
530.55	0.663
530.75	0.663
530.94	0.665
531.14	0.665
531.34	0.663
531.54	0.661
531.74	0.664
531.94	0.667
532.13	0.665
532.33	0.667
532.53	0.666
532.73	0.665
532.93	0.663
533.13	0.665
533.33	0.666
533.52	0.666
533.72	0.670
533.92	0.667
534.12	0.665
534.32	0.665
534.52	0.664
534.71	0.666
534.91	0.669
535.11	0.671
535.31	0.669
535.51	0.670
535.71	0.672
535.90	0.670
536.10	0.671
536.30	0.672
536.50	0.673
536.70	0.673
536.89	0.670
537.09	0.670
537.29	0.671
537.49	0.672
537.69	0.670
537.89	0.671
538.08	0.671
538.28	0.669
538.48	0.670
538.68	0.672
538.88	0.674
539.07	0.674
539.27	0.672
539.47	0.671
539.67	0.672
539.87	0.673
540.06	0.670
540.26	0.671
540.46	0.673
540.66	0.670
540.86	0.668
541.05	0.667
541.25	0.669
541.45	0.669
541.65	0.667
541.84	0.669
542.04	0.670
542.24	0.670
542.44	0.669
542.64	0.671
542.83	0.673
543.03	0.674
543.23	0.671
543.43	0.672
543.62	0.673
543.82	0.673
544.02	0.672
544.22	0.672
544.42	0.676
544.61	0.676
544.81	0.673
545.01	0.671
545.21	0.674
545.40	0.674
545.60	0.672
545.80	0.675
546.00	0.675
546.19	0.674
546.39	0.673
546.59	0.670
546.79	0.672
546.98	0.672
547.18	0.672
547.38	0.672
547.58	0.675
547.77	0.675
547.97	0.672
548.17	0.673
548.37	0.674
548.56	0.675
548.76	0.674
548.96	0.676
549.16	0.679
549.35	0.679
549.55	0.676
549.75	0.677
549.95	0.681
550.14	0.681
550.34	0.679
550.54	0.684
550.73	0.688
550.93	0.689
551.13	0.685
551.33	0.684
551.52	0.685
551.72	0.685
551.92	0.683
552.12	0.684
552.31	0.685
552.51	0.685
552.71	0.679
552.90	0.679
553.10	0.681
553.30	0.681
553.50	0.680
553.69	0.682
553.89	0.683
554.09	0.683
554.28	0.680
554.48	0.682
554.68	0.684
554.87	0.684
555.07	0.680
555.27	0.680
555.47	0.682
555.66	0.682
555.86	0.681
556.06	0.683
556.25	0.684
556.45	0.691
556.65	0.689
556.84	0.692
557.04	0.696
557.24	0.697
557.43	0.696
557.63	0.700
557.83	0.701
558.02	0.702
558.22	0.705
558.42	0.706
558.61	0.699
558.81	0.699
559.01	0.695
559.21	0.695
559.40	0.696
559.60	0.697
559.80	0.692
559.99	0.694
560.19	0.695
560.39	0.689
560.58	0.686
560.78	0.687
560.97	0.690
561.17	0.689
561.37	0.686
561.56	0.687
561.76	0.689
561.96	0.689
562.15	0.685
562.35	0.688
562.55	0.689
562.74	0.689
562.94	0.688
563.14	0.686
563.33	0.688
563.53	0.688
563.73	0.685
563.92	0.687
564.12	0.690
564.31	0.693
564.51	0.691
564.71	0.693
564.90	0.696
565.10	0.697
565.30	0.699
565.49	0.699
565.69	0.701
565.89	0.702
566.08	0.699
566.28	0.700
566.47	0.701
566.67	0.699
566.87	0.696
567.06	0.697
567.26	0.704
567.46	0.699
567.65	0.698
567.85	0.700
568.04	0.703
568.24	0.702
568.44	0.699
568.63	0.697
568.83	0.699
569.02	0.698
569.22	0.694
569.42	0.690
569.61	0.693
569.81	0.691
570.00	0.689
570.20	0.690
570.40	0.692
570.59	0.692
570.79	0.690
570.98	0.688
571.18	0.689
571.38	0.689
571.57	0.686
571.77	0.683
571.96	0.687
572.16	0.684
572.35	0.679
572.55	0.679
572.75	0.677
572.94	0.677
573.14	0.675
573.33	0.675
573.53	0.676
573.73	0.675
573.92	0.673
574.12	0.671
574.31	0.674
574.51	0.675
574.70	0.672
574.90	0.673
575.09	0.675
575.29	0.676
575.49	0.672
575.68	0.673
575.88	0.675
576.07	0.677
576.27	0.675
576.46	0.673
576.66	0.673
576.86	0.672
577.05	0.670
577.25	0.668
577.44	0.670
577.64	0.670
577.83	0.668
578.03	0.669
578.22	0.668
578.42	0.668
578.61	0.666
578.81	0.667
579.00	0.667
579.20	0.667
579.40	0.665
579.59	0.664
579.79	0.664
579.98	0.663
580.18	0.662
580.37	0.663
580.57	0.665
580.76	0.670
580.96	0.668
581.15	0.668
581.35	0.670
581.54	0.670
581.74	0.669
581.93	0.671
582.13	0.673
582.32	0.669
582.52	0.667
582.71	0.667
582.91	0.663
583.10	0.663
583.30	0.662
583.49	0.661
583.69	0.665
583.88	0.667
584.08	0.665
584.27	0.668
584.47	0.671
584.66	0.672
584.86	0.671
585.05	0.673
585.25	0.675
585.44	0.675
585.64	0.673
585.83	0.670
586.03	0.671
586.22	0.669
586.42	0.665
586.61	0.667
586.81	0.669
587.00	0.669
587.20	0.667
587.39	0.667
587.59	0.669
587.78	0.671
587.98	0.671
588.17	0.672
588.37	0.675
588.56	0.677
588.76	0.672
588.95	0.672
589.15	0.676
589.34	0.679
589.54	0.677
589.73	0.678
589.92	0.681
590.12	0.680
590.31	0.678
590.51	0.683
590.70	0.685
590.90	0.685
591.09	0.684
591.29	0.682
591.48	0.683
591.68	0.684
591.87	0.682
592.06	0.682
592.26	0.685
592.45	0.684
592.65	0.678
592.84	0.677
593.04	0.680
593.23	0.682
593.43	0.679
593.62	0.678
593.81	0.679
594.01	0.678
594.20	0.676
594.40	0.675
594.59	0.677
594.79	0.678
594.98	0.676
595.17	0.675
595.37	0.676
595.56	0.677
595.76	0.677
595.95	0.679
596.14	0.682
596.34	0.683
596.53	0.681
596.73	0.683
596.92	0.684
597.12	0.687
597.31	0.687
597.50	0.687
597.70	0.690
597.89	0.689
598.09	0.685
598.28	0.686
598.47	0.689
598.67	0.687
598.86	0.683
599.06	0.685
599.25	0.685
599.44	0.683
599.64	0.680
599.83	0.677
600.03	0.680
600.22	0.680
600.41	0.680
600.61	0.677
600.80	0.680
601.00	0.681
601.19	0.677
601.38	0.675
601.58	0.678
601.77	0.678
601.96	0.681
602.16	0.682
602.35	0.691
602.55	0.689
602.74	0.690
602.93	0.691
603.13	0.697
603.32	0.698
603.51	0.698
603.71	0.701
603.90	0.703
604.09	0.703
604.29	0.700
604.48	0.693
604.68	0.695
604.87	0.693
605.06	0.689
605.26	0.686
605.45	0.687
605.64	0.685
605.84	0.680
606.03	0.679
606.22	0.679
606.42	0.678
606.61	0.675
606.80	0.675
607.00	0.678
607.19	0.678
607.38	0.677
607.58	0.678
607.77	0.681
607.96	0.682
608.16	0.680
608.35	0.685
608.54	0.688
608.74	0.691
608.93	0.696
609.12	0.699
609.32	0.702
609.51	0.705
609.70	0.704
609.90	0.706
610.09	0.710
610.28	0.715
610.48	0.708
610.67	0.710
610.86	0.710
611.06	0.704
611.25	0.701
611.44	0.702
611.64	0.702
611.83	0.704
612.02	0.701
612.21	0.699
612.41	0.699
612.60	0.698
612.79	0.695
612.99	0.695
613.18	0.697
613.37	0.695
613.57	0.692
613.76	0.694
613.95	0.693
614.14	0.692
614.34	0.689
614.53	0.689
614.72	0.693
614.92	0.693
615.11	0.690
615.30	0.687
615.49	0.689
615.69	0.692
615.88	0.687
616.07	0.689
616.26	0.691
616.46	0.692
616.65	0.689
616.84	0.688
617.04	0.689
617.23	0.692
617.42	0.692
617.61	0.696
617.81	0.697
618.00	0.699
618.19	0.697
618.38	0.701
618.58	0.705
618.77	0.706
618.96	0.704
619.15	0.706
619.35	0.708
619.54	0.709
619.73	0.704
619.92	0.706
620.12	0.711
620.31	0.712
620.50	0.707
620.69	0.707
620.89	0.711
621.08	0.711
621.27	0.711
621.46	0.710
621.66	0.715
621.85	0.715
622.04	0.711
622.23	0.712
622.43	0.714
622.62	0.713
622.81	0.712
623.00	0.711
623.19	0.715
623.39	0.713
623.58	0.710
623.77	0.708
623.96	0.712
624.16	0.711
624.35	0.705
624.54	0.708
624.73	0.712
624.92	0.710
625.12	0.707
625.31	0.708
625.50	0.711
625.69	0.713
625.88	0.709
626.08	0.708
626.27	0.710
626.46	0.711
626.65	0.708
626.84	0.708
627.04	0.714
627.23	0.714
627.42	0.709
627.61	0.711
627.80	0.714
628.00	0.714
628.19	0.712
628.38	0.715
628.57	0.716
628.76	0.716
628.96	0.713
629.15	0.713
629.34	0.716
629.53	0.716
629.72	0.711
629.91	0.711
630.11	0.716
630.30	0.717
630.49	0.719
630.68	0.721
630.87	0.725
631.06	0.727
631.26	0.721
631.45	0.722
631.64	0.731
631.83	0.734
632.02	0.731
632.21	0.731
632.41	0.738
632.60	0.732
632.79	0.730
632.98	0.730
633.17	0.732
633.36	0.734
633.55	0.731
633.75	0.726
633.94	0.728
634.13	0.728
634.32	0.725
634.51	0.718
634.70	0.721
634.89	0.720
635.09	0.716
635.28	0.717
635.47	0.719
635.66	0.721
635.85	0.717
636.04	0.719
636.23	0.724
636.43	0.725
636.62	0.725
636.81	0.724
637.00	0.728
637.19	0.730
637.38	0.726
637.57	0.726
637.76	0.727
637.95	0.728
638.15	0.724
638.34	0.721
638.53	0.725
638.72	0.727
638.91	0.723
639.10	0.720
639.29	0.720
639.48	0.722
639.67	0.721
639.87	0.721
640.06	0.727
640.25	0.726
640.44	0.727
640.63	0.726
640.82	0.729
641.01	0.729
641.20	0.730
641.39	0.732
641.58	0.734
641.78	0.733
641.97	0.728
642.16	0.743
642.35	0.745
642.54	0.743
642.73	0.737
642.92	0.735
643.11	0.739
643.30	0.738
643.49	0.732
643.68	0.735
643.87	0.737
644.06	0.737
644.25	0.715
644.45	0.717
644.64	0.719
644.83	0.719
645.02	0.716
645.21	0.715
645.40	0.718
645.59	0.718
645.78	0.712
645.97	0.714
646.16	0.716
646.35	0.715
646.54	0.713
646.73	0.715
646.92	0.716
647.11	0.716
647.30	0.711
647.49	0.713
647.68	0.713
647.88	0.711
648.07	0.703
648.26	0.708
648.45	0.709
648.64	0.705
648.83	0.703
649.02	0.706
649.21	0.716
649.40	0.715
649.59	0.710
649.78	0.711
649.97	0.726
650.16	0.725
650.35	0.717
650.54	0.720
650.73	0.729
650.92	0.725
651.11	0.718
651.30	0.716
651.49	0.720
651.68	0.720
651.87	0.717
652.06	0.707
652.25	0.711
652.44	0.715
652.63	0.712
652.82	0.712
653.01	0.712
653.20	0.709
653.39	0.697
653.58	0.695
653.77	0.694
653.96	0.689
654.15	0.681
654.34	0.679
654.53	0.674
654.72	0.668
654.91	0.658
655.10	0.654
655.29	0.652
655.48	0.650
655.67	0.644
655.86	0.642
656.05	0.641
656.24	0.640
656.43	0.635
656.62	0.634
656.81	0.634
657.00	0.632
657.19	0.630
657.38	0.630
657.57	0.630
657.76	0.632
657.95	0.630
658.14	0.633
658.33	0.636
658.51	0.642
658.70	0.643
658.89	0.644
659.08	0.654
659.27	0.661
659.46	0.661
659.65	0.668
659.84	0.671
660.03	0.675
660.22	0.676
660.41	0.680
660.60	0.680
660.79	0.681
660.98	0.688
661.17	0.687
661.36	0.686
661.55	0.686
661.74	0.683
661.92	0.686
662.11	0.689
662.30	0.687
662.49	0.679
662.68	0.677
662.87	0.682
663.06	0.675
663.25	0.675
663.44	0.675
663.63	0.677
663.82	0.675
664.01	0.670
664.20	0.669
664.38	0.671
664.57	0.672
664.76	0.671
664.95	0.671
665.14	0.677
665.33	0.673
665.52	0.680
665.71	0.684
665.90	0.684
666.09	0.685
666.28	0.683
666.46	0.682
666.65	0.683
666.84	0.681
667.03	0.675
667.22	0.673
667.41	0.675
667.60	0.664
667.79	0.657
667.98	0.659
668.16	0.660
668.35	0.659
668.54	0.656
668.73	0.657
668.92	0.658
669.11	0.657
669.30	0.651
669.49	0.647
669.67	0.650
669.86	0.652
670.05	0.649
670.24	0.647
670.43	0.644
670.62	0.643
670.81	0.638
671.00	0.639
671.18	0.639
671.37	0.639
671.56	0.636
671.75	0.635
671.94	0.633
672.13	0.630
672.32	0.625
672.50	0.625
672.69	0.625
672.88	0.626
673.07	0.621
673.26	0.623
673.45	0.625
673.63	0.625
673.82	0.621
674.01	0.622
674.20	0.622
674.39	0.622
674.58	0.621
674.76	0.621
674.95	0.619
675.14	0.619
675.33	0.614
675.52	0.612
675.71	0.612
675.89	0.612
676.08	0.607
676.27	0.606
676.46	0.607
676.65	0.607
676.84	0.606
677.02	0.607
677.21	0.610
677.40	0.609
677.59	0.607
677.78	0.608
677.96	0.610
678.15	0.610
678.34	0.608
678.53	0.609
678.72	0.609
678.90	0.605
679.09	0.601
679.28	0.598
679.47	0.598
679.66	0.597
679.84	0.593
680.03	0.590
680.22	0.589
680.41	0.591
680.60	0.587
680.78	0.587
680.97	0.589
681.16	0.590
681.35	0.589
681.53	0.588
681.72	0.589
681.91	0.592
682.10	0.591
682.29	0.594
682.47	0.591
682.66	0.591
682.85	0.589
683.04	0.587
683.22	0.587
683.41	0.588
683.60	0.587
683.79	0.588
683.97	0.586
684.16	0.585
684.35	0.580
684.54	0.582
684.72	0.582
684.91	0.584
685.10	0.582
685.29	0.583
685.47	0.581
685.66	0.580
685.85	0.576
686.04	0.576
686.22	0.579
686.41	0.581
686.60	0.578
686.79	0.581
686.97	0.581
687.16	0.583
687.35	0.580
687.54	0.584
687.72	0.587
687.91	0.587
688.10	0.589
688.29	0.588
688.47	0.586
688.66	0.586
688.85	0.582
689.03	0.580
689.22	0.584
689.41	0.585
689.60	0.580
689.78	0.577
689.97	0.577
690.16	0.574
690.34	0.570
690.53	0.570
690.72	0.571
690.91	0.569
691.09	0.567
691.28	0.562
691.47	0.560
691.65	0.559
691.84	0.556
692.03	0.555
692.21	0.554
692.40	0.554
692.59	0.551
692.77	0.550
692.96	0.551
693.15	0.551
693.34	0.549
693.52	0.548
693.71	0.550
693.90	0.551
694.08	0.552
694.27	0.553
694.46	0.562
694.64	0.564
694.83	0.562
695.02	0.561
695.20	0.562
695.39	0.561
695.58	0.561
695.76	0.561
695.95	0.561
696.14	0.560
696.32	0.557
696.51	0.547
696.70	0.547
696.88	0.548
697.07	0.547
697.26	0.548
697.44	0.550
697.63	0.548
697.81	0.546
698.00	0.546
698.19	0.545
698.37	0.546
698.56	0.546
698.75	0.546
698.93	0.546
699.12	0.545
699.31	0.544
699.49	0.543
699.68	0.544
699.87	0.547
700.05	0.547
700.24	0.545
700.42	0.547
700.61	0.546
700.80	0.544
700.98	0.544
701.17	0.545
701.36	0.545
701.54	0.543
701.73	0.544
701.91	0.542
702.10	0.542
702.29	0.540
702.47	0.539
702.66	0.541
702.84	0.543
703.03	0.541
703.22	0.543
703.40	0.543
703.59	0.545
703.77	0.544
703.96	0.543
704.15	0.544
704.33	0.544
704.52	0.543
704.70	0.543
704.89	0.542
705.08	0.541
705.26	0.536
705.45	0.536
705.63	0.536
705.82	0.533
706.00	0.531
706.19	0.531
706.38	0.531
706.56	0.530
706.75	0.527
706.93	0.526
707.12	0.528
707.30	0.529
707.49	0.526
707.68	0.524
707.86	0.523
708.05	0.524
708.23	0.521
708.42	0.521
708.60	0.524
708.79	0.525
708.98	0.523
709.16	0.522
709.35	0.524
709.53	0.528
709.72	0.526
709.90	0.528
710.09	0.530
710.27	0.532
710.46	0.536
710.64	0.534
710.83	0.536
711.02	0.538
711.20	0.536
711.39	0.534
711.57	0.532
711.76	0.534
711.94	0.531
712.13	0.533
712.31	0.533
712.50	0.528
712.68	0.524
712.87	0.525
713.05	0.526
713.24	0.527
713.42	0.526
713.61	0.526
713.79	0.527
713.98	0.528
714.16	0.527
714.35	0.527
714.54	0.529
714.72	0.529
714.91	0.526
715.09	0.533
715.28	0.536
715.46	0.537
715.65	0.534
715.83	0.534
716.02	0.537
716.20	0.534
716.39	0.532
716.57	0.533
716.76	0.536
716.94	0.536
717.12	0.528
717.31	0.529
717.49	0.533
717.68	0.535
717.86	0.534
718.05	0.536
718.23	0.538
718.42	0.541
718.60	0.542
718.79	0.549
718.97	0.552
719.16	0.552
719.34	0.549
719.53	0.549
719.71	0.549
719.90	0.551
720.08	0.548
720.27	0.548
720.45	0.548
720.63	0.547
720.82	0.542
721.00	0.544
721.19	0.548
721.37	0.547
721.56	0.546
721.74	0.551
721.93	0.559
722.11	0.566
722.30	0.565
722.48	0.570
722.66	0.572
722.85	0.570
723.03	0.570
723.22	0.569
723.40	0.572
723.59	0.572
723.77	0.576
723.95	0.569
724.14	0.570
724.32	0.572
724.51	0.572
724.69	0.572
724.88	0.574
725.06	0.572
725.24	0.573
725.43	0.574
725.61	0.577
725.80	0.571
725.98	0.569
726.16	0.566
726.35	0.573
726.53	0.571
726.72	0.570
726.90	0.581
727.09	0.581
727.27	0.587
727.45	0.584
727.64	0.594
727.82	0.604
728.01	0.608
728.19	0.605
728.37	0.609
728.56	0.614
728.74	0.621
728.92	0.607
729.11	0.610
729.29	0.610
729.48	0.613
729.66	0.601
729.84	0.600
730.03	0.604
730.21	0.606
730.40	0.595
730.58	0.597
730.76	0.598
730.95	0.601
731.13	0.600
731.31	0.614
731.50	0.624
731.68	0.628
731.86	0.623
732.05	0.638
732.23	0.641
732.42	0.646
732.60	0.649
732.78	0.654
732.97	0.674
733.15	0.679
733.33	0.664
733.52	0.672
733.70	0.684
733.88	0.692
734.07	0.678
734.25	0.706
734.43	0.716
734.62	0.719
734.80	0.714
734.98	0.704
735.17	0.714
735.35	0.723
735.53	0.711
735.72	0.716
735.90	0.741
736.08	0.763
736.27	0.738
736.45	0.747
736.63	0.761
736.82	0.771
737.00	0.769
737.18	0.782
737.37	0.816
737.55	0.840
737.73	0.831
737.92	0.834
738.10	0.830
738.28	0.854
738.46	0.840
738.65	0.857
738.83	0.883
739.01	0.946
739.20	0.931
739.38	0.913
739.56	0.901
739.75	0.908
739.93	0.871
740.11	0.902
740.29	0.904
740.48	0.914
740.66	0.886
740.84	0.879
741.03	0.842
741.21	0.854
741.39	0.834
741.57	0.853
741.76	0.874
741.94	0.881
742.12	0.835
742.31	0.838
742.49	0.861
742.67	0.887
742.85	0.902
743.04	0.904
743.22	0.922
743.40	0.983
743.58	0.959
743.77	0.976
743.95	1.020
744.13	1.085
744.31	1.062
744.50	1.055
744.68	1.059
744.86	1.022
745.04	1.040
745.23	1.118
745.41	1.101
745.59	1.113
745.77	1.073
745.96	1.059
746.14	1.078
746.32	1.080
746.50	1.069
746.69	1.055
746.87	1.075
747.05	1.059
747.23	0.960
747.42	0.945
747.60	0.976
747.78	0.978
747.96	1.015
748.14	0.958
748.33	0.991
748.51	0.982
748.69	0.964
748.87	1.005
749.06	0.999
749.24	0.998
749.42	0.978
749.60	0.958
749.78	0.973
749.97	0.916
750.15	0.909
750.33	0.910
750.51	0.944
750.69	0.950
750.88	0.950
751.06	0.968
751.24	1.006
751.42	0.993
751.60	0.982
751.79	1.070
751.97	1.132
752.15	1.134
752.33	1.090
752.51	1.174
752.69	1.201
752.88	1.149
753.06	1.197
753.24	1.162
753.42	1.208
753.60	1.457
753.78	1.227
753.97	1.253
754.15	1.270
754.33	1.309
754.51	1.140
754.69	1.118
754.87	1.164
755.06	1.073
755.24	1.071
755.42	1.084
755.60	0.961
755.78	0.971
755.96	0.907
756.15	0.909
756.33	0.915
756.51	0.934
756.69	0.918
756.87	0.877
757.05	0.900
757.23	0.882
757.42	0.843
757.60	0.845
757.78	0.835
757.96	0.833
758.14	0.814
758.32	0.799
758.50	0.813
758.69	0.813
758.87	0.803
759.05	0.807
759.23	0.819
759.41	0.820
759.59	0.810
759.77	0.833
759.95	0.864
760.13	0.915
760.32	0.912
760.50	0.908
760.68	0.935
760.86	0.939
761.04	0.908
761.22	0.910
761.40	0.966
761.58	0.971
761.76	0.939
761.95	0.918
762.13	0.873
762.31	0.869
762.49	0.834
762.67	0.855
762.85	0.869
763.03	0.861
763.21	0.840
763.39	0.819
763.57	0.821
763.75	0.815
763.94	0.799
764.12	0.798
764.30	0.828
764.48	0.831
764.66	0.790
764.84	0.788
765.02	0.833
765.20	0.840
765.38	0.815
765.56	0.822
765.74	0.867
765.92	0.869
766.10	0.876
766.28	0.867
766.46	0.900
766.65	0.902
766.83	0.885
767.01	0.864
767.19	0.876
767.37	0.879
767.55	0.861
767.73	0.839
767.91	0.842
768.09	0.830
768.27	0.815
768.45	0.805
768.63	0.812
768.81	0.816
768.99	0.787
769.17	0.810
769.35	0.827
769.53	0.825
769.71	0.804
769.89	0.815
770.07	0.822
770.25	0.805
770.43	0.781
770.61	0.807
770.79	0.815
770.97	0.829
771.15	0.793
771.33	0.796
771.51	0.801
771.69	0.812
771.87	0.820
772.05	0.828
772.24	0.838
772.42	0.847
772.60	0.820
772.78	0.886
772.96	0.920
773.14	0.914
773.32	0.887
773.49	0.893
773.67	0.891
773.85	0.867
774.03	0.851
774.21	0.885
774.39	0.898
774.57	0.923
774.75	0.840
774.93	0.833
775.11	0.864
775.29	0.869
775.47	0.867
775.65	0.878
775.83	0.897
776.01	0.921
776.19	0.869
776.37	0.872
776.55	0.869
776.73	0.864
776.91	0.857
777.09	0.837
777.27	0.839
777.45	0.828
777.63	0.805
777.81	0.803
777.99	0.794
778.17	0.795
778.35	0.770
778.53	0.761
778.71	0.770
778.89	0.756
779.07	0.741
779.24	0.748
779.42	0.750
779.60	0.769
779.78	0.763
779.96	0.767
780.14	0.777
780.32	0.802
780.50	0.780
780.68	0.779
780.86	0.770
781.04	0.792
781.22	0.795
781.40	0.806
781.58	0.798
781.75	0.791
781.93	0.769
782.11	0.769
782.29	0.752
782.47	0.754
782.65	0.741
782.83	0.774
783.01	0.765
783.19	0.755
783.37	0.736
783.55	0.739
783.72	0.757
783.90	0.769
784.08	0.758
784.26	0.772
784.44	0.792
784.62	0.795
784.80	0.756
784.98	0.761
785.16	0.771
785.33	0.788
785.51	0.772
785.69	0.759
785.87	0.759
786.05	0.770
786.23	0.763
786.41	0.762
786.59	0.769
786.77	0.768
786.94	0.753
787.12	0.755
787.30	0.758
787.48	0.755
787.66	0.741
787.84	0.740
788.02	0.731
788.19	0.728
788.37	0.713
788.55	0.715
788.73	0.718
788.91	0.712
789.09	0.695
789.27	0.685
789.44	0.697
789.62	0.703
789.80	0.712
789.98	0.740
790.16	0.726
790.34	0.722
790.51	0.706
790.69	0.725
790.87	0.733
791.05	0.730
791.23	0.722
791.41	0.724
791.58	0.734
791.76	0.711
791.94	0.677
792.12	0.687
792.30	0.691
792.48	0.691
792.65	0.683
792.83	0.692
793.01	0.701
793.19	0.698
793.37	0.679
793.54	0.675
793.72	0.689
793.90	0.687
794.08	0.674
794.26	0.676
794.43	0.685
794.61	0.668
794.79	0.655
794.97	0.652
795.15	0.659
795.32	0.665
795.50	0.653
795.68	0.647
795.86	0.653
796.04	0.656
796.21	0.649
796.39	0.646
796.57	0.663
796.75	0.672
796.92	0.673
797.10	0.679
797.28	0.680
797.46	0.684
797.64	0.684
797.81	0.694
797.99	0.698
798.17	0.703
798.35	0.697
798.52	0.700
798.70	0.694
798.88	0.703
799.06	0.701
799.23	0.706
799.41	0.717
799.59	0.708
799.77	0.695
799.94	0.703
800.12	0.713
800.30	0.729
800.48	0.729
800.65	0.731
800.83	0.720
801.01	0.713
801.19	0.711
801.36	0.705
801.54	0.711
801.72	0.720
801.90	0.707
802.07	0.703
802.25	0.688
802.43	0.668
802.60	0.663
802.78	0.670
802.96	0.673
803.14	0.667
803.31	0.664
803.49	0.665
803.67	0.662
803.84	0.666
804.02	0.656
804.20	0.662
804.38	0.669
804.55	0.666
804.73	0.651
804.91	0.653
805.08	0.667
805.26	0.662
805.44	0.731
805.61	0.735
805.79	0.735
805.97	0.734
806.15	0.721
806.32	0.716
806.50	0.725
806.68	0.725
806.85	0.714
807.03	0.704
807.21	0.721
807.38	0.649
807.56	0.638
807.74	0.649
807.91	0.656
808.09	0.661
808.27	0.680
808.44	0.708
808.62	0.721
808.80	0.725
808.97	0.717
809.15	0.713
809.33	0.732
809.50	0.737
809.68	0.717
809.86	0.727
810.03	0.762
810.21	0.741
810.39	0.720
810.56	0.723
810.74	0.751
810.91	0.831
811.09	0.813
811.27	0.835
811.44	0.847
811.62	0.854
811.80	0.833
811.97	0.799
812.15	0.798
812.33	0.794
812.50	0.775
812.68	0.759
812.85	0.702
813.03	0.707
813.21	0.673
813.38	0.666
813.56	0.670
813.74	0.678
813.91	0.685
814.09	0.718
814.26	0.712
814.44	0.718
814.62	0.709
814.79	0.710
814.97	0.719
815.14	0.723
815.32	0.725
815.50	0.743
815.67	0.751
815.85	0.741
816.02	0.728
816.20	0.736
816.38	0.753
816.55	0.760
816.73	0.762
816.90	0.771
817.08	0.807
817.26	0.814
817.43	0.791
817.61	0.817
817.78	0.842
817.96	0.817
818.13	0.802
818.31	0.803
818.49	0.819
818.66	0.806
818.84	0.789
819.01	0.768
819.19	0.779
819.36	0.782
819.54	0.748
819.71	0.794
819.89	0.811
820.07	0.827
820.24	0.818
820.42	0.815
820.59	0.841
820.77	0.865
820.94	0.850
821.12	0.872
821.29	0.894
821.47	0.894
821.64	0.819
821.82	0.836
822.00	0.833
822.17	0.832
822.35	0.825
822.52	0.825
822.70	0.817
822.87	0.828
823.05	0.800
823.22	0.811
823.40	0.845
823.57	0.871
823.75	0.849
823.92	0.881
824.10	0.905
824.27	0.954
824.45	0.942
824.62	1.025
824.80	1.054
824.97	1.081
825.15	1.068
825.32	1.083
825.50	1.086
825.67	1.101
825.85	1.072
826.02	1.100
826.20	1.146
826.37	1.367
826.55	1.224
826.72	1.627
826.90	1.880
827.07	2.255
827.25	1.919
827.42	-0.000
827.60	-0.000
827.77	-0.000
827.95	-0.000
828.12	-0.000
828.30	-0.000
828.47	-0.000
828.65	1.949
828.82	2.585
829.00	-0.000
829.17	-0.000
829.34	-0.000
829.52	-0.000
829.69	-0.000
829.87	-0.000
830.04	-0.000
830.22	-0.000
830.39	-0.000
830.57	-0.000
830.74	-0.000
830.92	-0.000
831.09	-0.000
831.26	-0.000
831.44	-0.000
831.61	-0.000
831.79	-0.000
831.96	-0.000
832.14	-0.000
832.31	-0.000
832.49	-0.000
832.66	-0.000
832.83	-0.000
833.01	-0.000
833.18	-0.000
833.36	-0.000
833.53	-0.000
833.70	-0.000
833.88	-0.000
834.05	-0.000
834.23	-0.000
834.40	-0.000
834.58	-0.000
834.75	-0.000
834.92	-0.000
835.10	-0.000
835.27	-0.000
835.45	-0.000
835.62	-0.000
835.79	-0.000
835.97	-0.000
836.14	-0.000
836.32	-0.000
836.49	-0.000
836.66	-0.000
836.84	-0.000
837.01	-0.000
837.18	-0.000
837.36	-0.000
837.53	-0.000
837.71	-0.000
837.88	-0.000
838.05	-0.000
838.23	-0.000
838.40	-0.000
838.58	-0.000
838.75	-0.000
838.92	-0.000
839.10	-0.000
839.27	-0.000
839.44	-0.000
839.62	-0.000
839.79	-0.000
839.96	-0.000
840.14	-0.000
840.31	-0.000
840.48	-0.000
840.66	-0.000
840.83	-0.000
841.01	-0.000
841.18	-0.000
841.35	-0.000
841.53	-0.000
841.70	-0.000
841.87	-0.000
842.05	-0.000
842.22	-0.000
842.39	-0.000
842.57	-0.000
842.74	-0.000
842.91	-0.000
843.09	-0.000
843.26	-0.000
843.43	-0.000
843.60	-0.000
843.78	-0.000
843.95	-0.000
844.12	-0.000
844.30	-0.000
844.47	-0.000
844.64	-0.000
844.82	-0.000
844.99	-0.000
845.16	-0.000
845.34	-0.000
845.51	-0.000
845.68	-0.000
845.85	-0.000
846.03	-0.000
846.20	-0.000
846.37	-0.000
846.55	-0.000
846.72	-0.000
846.89	-0.000
847.06	-0.000
847.24	-0.000
847.41	-0.000
847.58	-0.000
847.76	-0.000
847.93	-0.000
848.10	-0.000
848.27	-0.000
848.45	-0.000
848.62	-0.000
848.79	-0.000
848.97	-0.000
849.14	-0.000
849.31	-0.000
849.48	-0.000
849.66	-0.000
849.83	-0.000
850.00	-0.000
850.17	-0.000
850.35	-0.000
850.52	-0.000
850.69	-0.000
850.86	-0.000
851.04	-0.000
851.21	-0.000
851.38	-0.000
851.55	-0.000
851.72	-0.000
851.90	-0.000
852.07	-0.000
852.24	-0.000
852.41	-0.000
852.59	-0.000
852.76	-0.000
852.93	-0.000
853.10	-0.000
853.28	-0.000
853.45	-0.000
853.62	-0.000
853.79	-0.000
853.96	-0.000
854.14	-0.000
854.31	-0.000
854.48	-0.000
854.65	-0.000
854.82	-0.000
855.00	-0.000
855.17	-0.000
855.34	-0.000
855.51	-0.000
855.68	-0.000
855.86	-0.000
856.03	-0.000
856.20	-0.000
856.37	-0.000
856.54	-0.000
856.72	-0.000
856.89	-0.000
857.06	-0.000
857.23	-0.000
857.40	-0.000
857.57	-0.000
857.75	-0.000
857.92	-0.000
858.09	-0.000
858.26	-0.000
858.43	-0.000
858.60	-0.000
858.78	-0.000
858.95	-0.000
859.12	-0.000
859.29	-0.000
859.46	-0.000
859.63	-0.000
859.81	-0.000
859.98	-0.000
860.15	-0.000
860.32	-0.000
860.49	-0.000
860.66	-0.000
860.83	-0.000
861.01	-0.000
861.18	-0.000
861.35	-0.000
861.52	-0.000
861.69	-0.000
861.86	-0.000
862.03	-0.000
862.21	-0.000
862.38	-0.000
862.55	-0.000
862.72	-0.000
862.89	-0.000
863.06	-0.000
863.23	-0.000
863.40	-0.000
863.58	-0.000
863.75	-0.000
863.92	-0.000
864.09	-0.000
864.26	-0.000
864.43	-0.000
864.60	-0.000
864.77	-0.000
864.94	-0.000
865.11	-0.000
865.29	-0.000
865.46	-0.000
865.63	-0.000
865.80	-0.000
865.97	-0.000
866.14	-0.000
866.31	-0.000
866.48	-0.000
866.65	-0.000
866.82	-0.000
866.99	-0.000
867.16	-0.000
867.34	-0.000
867.51	-0.000
867.68	-0.000
867.85	-0.000
868.02	-0.000
868.19	-0.000
868.36	-0.000
868.53	-0.000
868.70	-0.000
868.87	-0.000
869.04	-0.000
869.21	-0.000
869.38	-0.000
869.55	-0.000
869.72	-0.000
869.89	-0.000
870.06	-0.000
870.24	-0.000
870.41	-0.000
870.58	-0.000
870.75	-0.000
870.92	-0.000
871.09	-0.000
871.26	-0.000
871.43	-0.000
871.60	-0.000
871.77	-0.000
871.94	-0.000
872.11	-0.000
872.28	-0.000
872.45	-0.000
872.62	-0.000
872.79	-0.000
872.96	-0.000
873.13	-0.000
873.30	-0.000
873.47	-0.000
873.64	-0.000
873.81	-0.000
873.98	-0.000
874.15	-0.000
874.32	-0.000
874.49	-0.000
874.66	-0.000
874.83	-0.000
875.00	-0.000
875.17	-0.000
875.34	-0.000
875.51	-0.000
875.68	-0.000
875.85	-0.000
876.02	-0.000
876.19	-0.000
876.36	-0.000
876.53	-0.000
876.70	-0.000
876.87	-0.000
877.04	-0.000
877.21	-0.000
877.38	-0.000
877.55	-0.000
877.72	-0.000
877.89	-0.000
878.06	-0.000
878.23	-0.000
878.39	-0.000
878.56	-0.000
878.73	-0.000
878.90	-0.000
879.07	-0.000
879.24	-0.000
879.41	-0.000
879.58	-0.000
879.75	-0.000
879.92	-0.000
880.09	-0.000
880.26	-0.000
880.43	-0.000
880.60	-0.000
880.77	-0.000
880.94	-0.000
881.11	-0.000
881.27	-0.000
881.44	-0.000
881.61	-0.000
881.78	-0.000
881.95	-0.000
882.12	-0.000
882.29	-0.000
882.46	-0.000
882.63	-0.000
882.80	-0.000
882.97	-0.000
883.14	-0.000
883.30	-0.000
883.47	-0.000
883.64	-0.000
883.81	-0.000
883.98	-0.000
884.15	-0.000
884.32	-0.000
884.49	-0.000
884.66	-0.000
884.82	-0.000
884.99	-0.000
885.16	-0.000
885.33	-0.000
885.50	-0.000
885.67	-0.000
885.84	-0.000
886.01	-0.000
886.17	-0.000
886.34	-0.000
886.51	-0.000
886.68	-0.000
886.85	-0.000
887.02	-0.000
887.19	-0.000
887.36	-0.000
887.52	-0.000
887.69	-0.000
887.86	-0.000
888.03	-0.000
888.20	-0.000
888.37	-0.000
888.54	-0.000
888.70	-0.000
888.87	-0.000
889.04	-0.000
889.21	-0.000
889.38	-0.000
889.55	-0.000
889.71	-0.000
889.88	-0.000
890.05	-0.000
890.22	-0.000
890.39	-0.000
>>>>>End Processed Spectral Data<<<<<
