SpectraSuite Data File
++++++++++++++++++++++++++++++++++++
Date: Fri Jun 19 14:52:32 CEST 2015
User: introlabs
Dark Spectrum Present: Yes
Reference Spectrum Present: Yes
Number of Sampled Component Spectra: 1
Spectrometers: USB4H08886
Integration Time (usec): 745692 (USB4H08886)
Spectra Averaged: 5 (USB4H08886)
Boxcar Smoothing: 5 (USB4H08886)
Correct for Electrical Dark: Yes (USB4H08886)
Strobe/Lamp Enabled: No (USB4H08886)
Correct for Detector Non-linearity: Yes (USB4H08886)
Correct for Stray Light: Yes (USB4H08886)
Number of Pixels in Processed Spectrum: 3648
>>>>>Begin Processed Spectral Data<<<<<
178.14	-0.000
178.36	-0.000
178.57	-0.000
178.79	-0.000
179.01	-0.000
179.22	-0.000
179.44	-0.000
179.65	-0.000
179.87	-0.000
180.08	-0.000
180.30	-0.000
180.52	-0.000
180.73	-0.000
180.95	-0.000
181.16	-0.000
181.38	-0.000
181.59	-0.000
181.81	-0.000
182.03	-0.000
182.24	-0.000
182.46	-0.000
182.67	-0.000
182.89	-0.000
183.10	-0.000
183.32	-0.000
183.54	-0.000
183.75	-0.000
183.97	-0.000
184.18	-0.000
184.40	-0.000
184.61	-0.000
184.83	-0.000
185.04	-0.000
185.26	-0.000
185.48	-0.000
185.69	-0.000
185.91	-0.000
186.12	-0.000
186.34	-0.000
186.55	-0.000
186.77	-0.000
186.98	-0.000
187.20	-0.000
187.42	-0.000
187.63	-0.000
187.85	-0.000
188.06	-0.000
188.28	-0.000
188.49	-0.000
188.71	-0.000
188.92	-0.000
189.14	-0.000
189.36	-0.000
189.57	-0.000
189.79	-0.000
190.00	-0.000
190.22	-0.000
190.43	-0.000
190.65	-0.000
190.86	-0.000
191.08	-0.000
191.29	-0.000
191.51	-0.000
191.72	-0.000
191.94	-0.000
192.16	-0.000
192.37	-0.000
192.59	-0.000
192.80	-0.000
193.02	-0.000
193.23	-0.000
193.45	-0.000
193.66	-0.000
193.88	-0.000
194.09	-0.000
194.31	-0.000
194.52	-0.000
194.74	-0.000
194.95	-0.000
195.17	-0.000
195.38	-0.000
195.60	-0.000
195.81	-0.000
196.03	-0.000
196.25	-0.000
196.46	-0.000
196.68	-0.000
196.89	-0.000
197.11	-0.000
197.32	-0.000
197.54	-0.000
197.75	-0.000
197.97	-0.000
198.18	-0.000
198.40	-0.000
198.61	-0.000
198.83	-0.000
199.04	-0.000
199.26	-0.000
199.47	-0.000
199.69	-0.000
199.90	-0.000
200.12	-0.000
200.33	-0.000
200.55	-0.000
200.76	-0.000
200.98	-0.000
201.19	-0.000
201.41	-0.000
201.62	-0.000
201.84	-0.000
202.05	-0.000
202.27	-0.000
202.48	-0.000
202.70	-0.000
202.91	-0.000
203.13	-0.000
203.34	-0.000
203.56	-0.000
203.77	-0.000
203.99	-0.000
204.20	-0.000
204.42	-0.000
204.63	-0.000
204.85	-0.000
205.06	-0.000
205.28	-0.000
205.49	-0.000
205.71	-0.000
205.92	-0.000
206.14	-0.000
206.35	-0.000
206.56	-0.000
206.78	-0.000
206.99	-0.000
207.21	-0.000
207.42	-0.000
207.64	-0.000
207.85	-0.000
208.07	-0.000
208.28	-0.000
208.50	-0.000
208.71	-0.000
208.93	-0.000
209.14	-0.000
209.36	-0.000
209.57	-0.000
209.79	-0.000
210.00	-0.000
210.22	-0.000
210.43	-0.000
210.64	-0.000
210.86	-0.000
211.07	-0.000
211.29	-0.000
211.50	-0.000
211.72	-0.000
211.93	-0.000
212.15	-0.000
212.36	-0.000
212.58	-0.000
212.79	-0.000
213.01	-0.000
213.22	-0.000
213.43	-0.000
213.65	-0.000
213.86	-0.000
214.08	-0.000
214.29	-0.000
214.51	-0.000
214.72	-0.000
214.94	-0.000
215.15	-0.000
215.36	-0.000
215.58	-0.000
215.79	-0.000
216.01	-0.000
216.22	-0.000
216.44	-0.000
216.65	-0.000
216.87	-0.000
217.08	-0.000
217.29	-0.000
217.51	-0.000
217.72	-0.000
217.94	-0.000
218.15	-0.000
218.37	-0.000
218.58	-0.000
218.80	-0.000
219.01	-0.000
219.22	-0.000
219.44	-0.000
219.65	-0.000
219.87	-0.000
220.08	-0.000
220.30	-0.000
220.51	-0.000
220.72	-0.000
220.94	-0.000
221.15	-0.000
221.37	-0.000
221.58	-0.000
221.79	-0.000
222.01	-0.000
222.22	-0.000
222.44	-0.000
222.65	-0.000
222.87	-0.000
223.08	-0.000
223.29	-0.000
223.51	-0.000
223.72	-0.000
223.94	-0.000
224.15	-0.000
224.36	-0.000
224.58	-0.000
224.79	-0.000
225.01	-0.000
225.22	-0.000
225.44	-0.000
225.65	-0.000
225.86	-0.000
226.08	-0.000
226.29	-0.000
226.51	-0.000
226.72	-0.000
226.93	-0.000
227.15	-0.000
227.36	-0.000
227.58	-0.000
227.79	-0.000
228.00	-0.000
228.22	-0.000
228.43	-0.000
228.65	-0.000
228.86	-0.000
229.07	-0.000
229.29	-0.000
229.50	-0.000
229.72	-0.000
229.93	-0.000
230.14	-0.000
230.36	-0.000
230.57	-0.000
230.78	-0.000
231.00	-0.000
231.21	-0.000
231.43	-0.000
231.64	-0.000
231.85	-0.000
232.07	-0.000
232.28	-0.000
232.50	-0.000
232.71	-0.000
232.92	-0.000
233.14	-0.000
233.35	-0.000
233.56	-0.000
233.78	-0.000
233.99	-0.000
234.21	-0.000
234.42	-0.000
234.63	-0.000
234.85	-0.000
235.06	-0.000
235.27	-0.000
235.49	-0.000
235.70	-0.000
235.91	-0.000
236.13	-0.000
236.34	-0.000
236.56	-0.000
236.77	-0.000
236.98	-0.000
237.20	-0.000
237.41	-0.000
237.62	-0.000
237.84	-0.000
238.05	-0.000
238.26	-0.000
238.48	-0.000
238.69	-0.000
238.91	-0.000
239.12	-0.000
239.33	-0.000
239.55	-0.000
239.76	-0.000
239.97	-0.000
240.19	-0.000
240.40	-0.000
240.61	-0.000
240.83	-0.000
241.04	-0.000
241.25	-0.000
241.47	-0.000
241.68	-0.000
241.89	-0.000
242.11	-0.000
242.32	-0.000
242.53	-0.000
242.75	-0.000
242.96	-0.000
243.17	-0.000
243.39	-0.000
243.60	-0.000
243.81	-0.000
244.03	-0.000
244.24	-0.000
244.45	-0.000
244.67	-0.000
244.88	-0.000
245.09	-0.000
245.31	-0.000
245.52	-0.000
245.73	-0.000
245.95	-0.000
246.16	-0.000
246.37	-0.000
246.59	-0.000
246.80	-0.000
247.01	-0.000
247.23	-0.000
247.44	-0.000
247.65	-0.000
247.87	-0.000
248.08	-0.000
248.29	-0.000
248.51	-0.000
248.72	-0.000
248.93	-0.000
249.15	-0.000
249.36	-0.000
249.57	-0.000
249.78	-0.000
250.00	-0.000
250.21	-0.000
250.42	-0.000
250.64	-0.000
250.85	-0.000
251.06	-0.000
251.28	-0.000
251.49	-0.000
251.70	-0.000
251.92	-0.000
252.13	-0.000
252.34	-0.000
252.55	-0.000
252.77	-0.000
252.98	-0.000
253.19	-0.000
253.41	-0.000
253.62	-0.000
253.83	-0.000
254.05	-0.000
254.26	-0.000
254.47	-0.000
254.68	-0.000
254.90	-0.000
255.11	-0.000
255.32	-0.000
255.54	-0.000
255.75	-0.000
255.96	-0.000
256.17	-0.000
256.39	-0.000
256.60	-0.000
256.81	-0.000
257.03	-0.000
257.24	-0.000
257.45	-0.000
257.66	-0.000
257.88	-0.000
258.09	-0.000
258.30	-0.000
258.51	-0.000
258.73	-0.000
258.94	-0.000
259.15	-0.000
259.37	-0.000
259.58	-0.000
259.79	-0.000
260.00	-0.000
260.22	-0.000
260.43	-0.000
260.64	-0.000
260.85	-0.000
261.07	-0.000
261.28	-0.000
261.49	-0.000
261.71	-0.000
261.92	-0.000
262.13	-0.000
262.34	-0.000
262.56	-0.000
262.77	-0.000
262.98	-0.000
263.19	-0.000
263.41	-0.000
263.62	-0.000
263.83	-0.000
264.04	-0.000
264.26	-0.000
264.47	-0.000
264.68	-0.000
264.89	-0.000
265.11	-0.000
265.32	-0.000
265.53	-0.000
265.74	-0.000
265.96	-0.000
266.17	-0.000
266.38	-0.000
266.59	-0.000
266.81	-0.000
267.02	-0.000
267.23	-0.000
267.44	-0.000
267.65	-0.000
267.87	-0.000
268.08	-0.000
268.29	-0.000
268.50	-0.000
268.72	-0.000
268.93	-0.000
269.14	-0.000
269.35	-0.000
269.57	-0.000
269.78	-0.000
269.99	-0.000
270.20	-0.000
270.41	-0.000
270.63	-0.000
270.84	-0.000
271.05	-0.000
271.26	-0.000
271.48	-0.000
271.69	-0.000
271.90	-0.000
272.11	-0.000
272.32	-0.000
272.54	-0.000
272.75	-0.000
272.96	-0.000
273.17	-0.000
273.39	-0.000
273.60	-0.000
273.81	-0.000
274.02	-0.000
274.23	-0.000
274.45	-0.000
274.66	-0.000
274.87	-0.000
275.08	-0.000
275.29	-0.000
275.51	-0.000
275.72	-0.000
275.93	-0.000
276.14	-0.000
276.35	-0.000
276.57	-0.000
276.78	-0.000
276.99	-0.000
277.20	-0.000
277.41	-0.000
277.63	-0.000
277.84	-0.000
278.05	-0.000
278.26	-0.000
278.47	-0.000
278.69	-0.000
278.90	-0.000
279.11	-0.000
279.32	-0.000
279.53	-0.000
279.74	-0.000
279.96	-0.000
280.17	-0.000
280.38	-0.000
280.59	-0.000
280.80	-0.000
281.02	-0.000
281.23	-0.000
281.44	-0.000
281.65	-0.000
281.86	-0.000
282.07	-0.000
282.29	-0.000
282.50	-0.000
282.71	-0.000
282.92	-0.000
283.13	-0.000
283.35	-0.000
283.56	-0.000
283.77	-0.000
283.98	-0.000
284.19	-0.000
284.40	-0.000
284.62	-0.000
284.83	-0.000
285.04	-0.000
285.25	-0.000
285.46	-0.000
285.67	-0.000
285.88	-0.000
286.10	-0.000
286.31	-0.000
286.52	-0.000
286.73	-0.000
286.94	-0.000
287.15	-0.000
287.37	-0.000
287.58	-0.000
287.79	-0.000
288.00	-0.000
288.21	-0.000
288.42	-0.000
288.63	-0.000
288.85	-0.000
289.06	-0.000
289.27	-0.000
289.48	-0.000
289.69	-0.000
289.90	-0.000
290.11	-0.000
290.33	-0.000
290.54	-0.000
290.75	-0.000
290.96	-0.000
291.17	-0.000
291.38	-0.000
291.59	-0.000
291.81	-0.000
292.02	-0.000
292.23	-0.000
292.44	-0.000
292.65	-0.000
292.86	-0.000
293.07	-0.000
293.28	-0.000
293.50	-0.000
293.71	-0.000
293.92	-0.000
294.13	-0.000
294.34	-0.000
294.55	-0.000
294.76	-0.000
294.97	-0.000
295.19	-0.000
295.40	-0.000
295.61	-0.000
295.82	-0.000
296.03	-0.000
296.24	-0.000
296.45	2.210
296.66	1.813
296.87	1.841
297.09	1.933
297.30	2.216
297.51	1.764
297.72	1.732
297.93	1.817
298.14	1.793
298.35	1.737
298.56	1.725
298.77	1.871
298.99	1.839
299.20	1.804
299.41	1.770
299.62	1.704
299.83	1.689
300.04	1.625
300.25	1.621
300.46	1.659
300.67	1.628
300.88	1.562
301.10	1.562
301.31	1.630
301.52	1.568
301.73	1.512
301.94	1.520
302.15	1.534
302.36	1.480
302.57	1.420
302.78	1.429
302.99	1.468
303.20	1.492
303.41	1.406
303.63	1.390
303.84	1.395
304.05	1.387
304.26	1.327
304.47	1.329
304.68	1.333
304.89	1.325
305.10	1.284
305.31	1.270
305.52	1.313
305.73	1.304
305.94	1.266
306.15	1.258
306.37	1.281
306.58	1.290
306.79	1.266
307.00	1.290
307.21	1.328
307.42	1.317
307.63	1.286
307.84	1.252
308.05	1.286
308.26	1.286
308.47	1.263
308.68	1.260
308.89	1.261
309.10	1.256
309.31	1.216
309.52	1.208
309.73	1.225
309.95	1.215
310.16	1.184
310.37	1.176
310.58	1.192
310.79	1.194
311.00	1.190
311.21	1.193
311.42	1.194
311.63	1.188
311.84	1.170
312.05	1.166
312.26	1.191
312.47	1.207
312.68	1.184
312.89	1.168
313.10	1.174
313.31	1.146
313.52	1.146
313.73	1.145
313.94	1.148
314.15	1.131
314.36	1.109
314.57	1.099
314.78	1.087
314.99	1.081
315.21	1.070
315.42	1.074
315.63	1.087
315.84	1.066
316.05	1.054
316.26	1.062
316.47	1.080
316.68	1.078
316.89	1.060
317.10	1.078
317.31	1.082
317.52	1.082
317.73	1.063
317.94	1.061
318.15	1.102
318.36	1.102
318.57	1.084
318.78	1.072
318.99	1.104
319.20	1.101
319.41	1.069
319.62	1.071
319.83	1.084
320.04	1.079
320.25	1.069
320.46	1.038
320.67	1.042
320.88	1.038
321.09	1.025
321.30	1.011
321.51	1.025
321.72	1.022
321.93	1.005
322.14	0.997
322.35	1.022
322.56	1.022
322.77	1.010
322.98	1.019
323.19	1.028
323.40	1.036
323.61	1.016
323.82	1.011
324.03	1.019
324.24	1.017
324.45	1.005
324.66	0.987
324.87	0.981
325.08	0.979
325.29	0.961
325.50	0.953
325.71	0.955
325.92	0.964
326.13	0.951
326.34	0.950
326.55	0.958
326.76	0.956
326.97	0.948
327.18	0.944
327.39	0.969
327.60	0.970
327.80	0.972
328.01	0.971
328.22	0.971
328.43	0.975
328.64	0.964
328.85	0.969
329.06	0.971
329.27	0.970
329.48	0.966
329.69	0.948
329.90	0.957
330.11	0.951
330.32	0.943
330.53	0.935
330.74	0.934
330.95	0.931
331.16	0.917
331.37	0.925
331.58	0.926
331.79	0.924
332.00	0.914
332.21	0.909
332.42	0.912
332.63	0.903
332.83	0.899
333.04	0.903
333.25	0.916
333.46	0.914
333.67	0.900
333.88	0.902
334.09	0.913
334.30	0.910
334.51	0.901
334.72	0.896
334.93	0.899
335.14	0.898
335.35	0.890
335.56	0.885
335.77	0.894
335.98	0.893
336.18	0.887
336.39	0.878
336.60	0.883
336.81	0.881
337.02	0.881
337.23	0.886
337.44	0.888
337.65	0.890
337.86	0.878
338.07	0.873
338.28	0.877
338.49	0.875
338.70	0.868
338.91	0.873
339.11	0.879
339.32	0.876
339.53	0.865
339.74	0.863
339.95	0.859
340.16	0.858
340.37	0.850
340.58	0.849
340.79	0.853
341.00	0.853
341.21	0.844
341.41	0.845
341.62	0.845
341.83	0.846
342.04	0.841
342.25	0.852
342.46	0.856
342.67	0.855
342.88	0.847
343.09	0.846
343.30	0.854
343.50	0.856
343.71	0.846
343.92	0.846
344.13	0.850
344.34	0.850
344.55	0.833
344.76	0.832
344.97	0.838
345.18	0.836
345.38	0.834
345.59	0.828
345.80	0.827
346.01	0.825
346.22	0.820
346.43	0.813
346.64	0.820
346.85	0.819
347.06	0.813
347.26	0.812
347.47	0.817
347.68	0.812
347.89	0.808
348.10	0.804
348.31	0.810
348.52	0.810
348.73	0.807
348.93	0.804
349.14	0.807
349.35	0.805
349.56	0.800
349.77	0.794
349.98	0.799
350.19	0.797
350.39	0.792
350.60	0.788
350.81	0.803
351.02	0.802
351.23	0.798
351.44	0.801
351.65	0.805
351.86	0.802
352.06	0.802
352.27	0.802
352.48	0.803
352.69	0.803
352.90	0.798
353.11	0.784
353.31	0.790
353.52	0.786
353.73	0.779
353.94	0.780
354.15	0.785
354.36	0.785
354.57	0.776
354.77	0.778
354.98	0.776
355.19	0.775
355.40	0.775
355.61	0.782
355.82	0.786
356.02	0.784
356.23	0.777
356.44	0.779
356.65	0.781
356.86	0.782
357.07	0.776
357.27	0.779
357.48	0.783
357.69	0.779
357.90	0.764
358.11	0.760
358.32	0.765
358.52	0.768
358.73	0.758
358.94	0.761
359.15	0.766
359.36	0.767
359.56	0.762
359.77	0.758
359.98	0.763
360.19	0.763
360.40	0.759
360.61	0.760
360.81	0.758
361.02	0.759
361.23	0.751
361.44	0.749
361.65	0.749
361.85	0.749
362.06	0.747
362.27	0.749
362.48	0.750
362.69	0.751
362.89	0.745
363.10	0.747
363.31	0.751
363.52	0.753
363.73	0.749
363.93	0.749
364.14	0.751
364.35	0.753
364.56	0.744
364.77	0.745
364.97	0.748
365.18	0.749
365.39	0.744
365.60	0.741
365.81	0.742
366.01	0.742
366.22	0.739
366.43	0.738
366.64	0.740
366.84	0.745
367.05	0.742
367.26	0.741
367.47	0.742
367.68	0.741
367.88	0.738
368.09	0.736
368.30	0.739
368.51	0.738
368.71	0.738
368.92	0.741
369.13	0.739
369.34	0.738
369.55	0.737
369.75	0.737
369.96	0.744
370.17	0.744
370.38	0.740
370.58	0.739
370.79	0.745
371.00	0.742
371.21	0.734
371.41	0.740
371.62	0.745
371.83	0.741
372.04	0.739
372.24	0.733
372.45	0.734
372.66	0.735
372.87	0.732
373.07	0.729
373.28	0.730
373.49	0.734
373.70	0.725
373.90	0.723
374.11	0.732
374.32	0.731
374.53	0.729
374.73	0.730
374.94	0.732
375.15	0.731
375.36	0.729
375.56	0.737
375.77	0.736
375.98	0.737
376.19	0.734
376.39	0.727
376.60	0.731
376.81	0.732
377.02	0.730
377.22	0.729
377.43	0.729
377.64	0.728
377.84	0.719
378.05	0.723
378.26	0.729
378.47	0.728
378.67	0.726
378.88	0.724
379.09	0.723
379.30	0.724
379.50	0.722
379.71	0.725
379.92	0.729
380.12	0.728
380.33	0.720
380.54	0.717
380.75	0.723
380.95	0.723
381.16	0.721
381.37	0.722
381.57	0.724
381.78	0.723
381.99	0.723
382.20	0.721
382.40	0.724
382.61	0.725
382.82	0.721
383.02	0.715
383.23	0.718
383.44	0.718
383.64	0.716
383.85	0.718
384.06	0.721
384.27	0.718
384.47	0.717
384.68	0.717
384.89	0.723
385.09	0.723
385.30	0.722
385.51	0.722
385.71	0.725
385.92	0.725
386.13	0.724
386.33	0.726
386.54	0.727
386.75	0.726
386.95	0.723
387.16	0.718
387.37	0.720
387.58	0.720
387.78	0.718
387.99	0.717
388.20	0.719
388.40	0.716
388.61	0.712
388.82	0.715
389.02	0.718
389.23	0.718
389.44	0.716
389.64	0.716
389.85	0.728
390.06	0.727
390.26	0.728
390.47	0.727
390.68	0.729
390.88	0.727
391.09	0.723
391.30	0.722
391.50	0.723
391.71	0.723
391.92	0.720
392.12	0.712
392.33	0.714
392.53	0.713
392.74	0.714
392.95	0.713
393.15	0.716
393.36	0.718
393.57	0.715
393.77	0.718
393.98	0.720
394.19	0.719
394.39	0.719
394.60	0.720
394.81	0.722
395.01	0.719
395.22	0.718
395.43	0.718
395.63	0.723
395.84	0.724
396.04	0.721
396.25	0.722
396.46	0.724
396.66	0.722
396.87	0.720
397.08	0.717
397.28	0.719
397.49	0.720
397.69	0.716
397.90	0.711
398.11	0.712
398.31	0.713
398.52	0.709
398.73	0.711
398.93	0.710
399.14	0.709
399.34	0.708
399.55	0.710
399.76	0.710
399.96	0.712
400.17	0.711
400.37	0.710
400.58	0.716
400.79	0.719
400.99	0.716
401.20	0.722
401.41	0.725
401.61	0.725
401.82	0.730
402.02	0.730
402.23	0.732
402.44	0.732
402.64	0.732
402.85	0.726
403.05	0.725
403.26	0.724
403.47	0.717
403.67	0.716
403.88	0.717
404.08	0.711
404.29	0.709
404.50	0.708
404.70	0.708
404.91	0.707
405.11	0.704
405.32	0.705
405.52	0.706
405.73	0.705
405.94	0.704
406.14	0.706
406.35	0.708
406.55	0.707
406.76	0.706
406.97	0.706
407.17	0.709
407.38	0.709
407.58	0.707
407.79	0.710
407.99	0.712
408.20	0.713
408.41	0.708
408.61	0.707
408.82	0.708
409.02	0.707
409.23	0.705
409.43	0.704
409.64	0.705
409.84	0.705
410.05	0.701
410.26	0.700
410.46	0.700
410.67	0.699
410.87	0.701
411.08	0.703
411.28	0.705
411.49	0.706
411.69	0.703
411.90	0.704
412.11	0.706
412.31	0.707
412.52	0.706
412.72	0.706
412.93	0.708
413.13	0.706
413.34	0.702
413.54	0.704
413.75	0.706
413.95	0.706
414.16	0.703
414.37	0.705
414.57	0.706
414.78	0.708
414.98	0.707
415.19	0.707
415.39	0.705
415.60	0.708
415.80	0.706
416.01	0.704
416.21	0.706
416.42	0.706
416.62	0.701
416.83	0.701
417.03	0.700
417.24	0.700
417.44	0.698
417.65	0.697
417.86	0.697
418.06	0.695
418.27	0.693
418.47	0.695
418.68	0.696
418.88	0.697
419.09	0.695
419.29	0.696
419.50	0.697
419.70	0.697
419.91	0.695
420.11	0.693
420.32	0.696
420.52	0.695
420.73	0.694
420.93	0.694
421.14	0.695
421.34	0.695
421.55	0.691
421.75	0.691
421.96	0.692
422.16	0.693
422.37	0.691
422.57	0.688
422.78	0.691
422.98	0.687
423.19	0.685
423.39	0.684
423.60	0.687
423.80	0.688
424.01	0.686
424.21	0.688
424.42	0.689
424.62	0.689
424.83	0.688
425.03	0.688
425.23	0.691
425.44	0.691
425.64	0.691
425.85	0.690
426.05	0.691
426.26	0.691
426.46	0.687
426.67	0.687
426.87	0.692
427.08	0.692
427.28	0.690
427.49	0.690
427.69	0.690
427.90	0.689
428.10	0.687
428.31	0.687
428.51	0.689
428.71	0.688
428.92	0.689
429.12	0.686
429.33	0.686
429.53	0.690
429.74	0.694
429.94	0.695
430.15	0.694
430.35	0.694
430.56	0.691
430.76	0.690
430.96	0.691
431.17	0.688
431.37	0.685
431.58	0.683
431.78	0.680
431.99	0.673
432.19	0.675
432.40	0.676
432.60	0.676
432.80	0.678
433.01	0.677
433.21	0.677
433.42	0.679
433.62	0.680
433.83	0.680
434.03	0.683
434.23	0.686
434.44	0.685
434.64	0.682
434.85	0.687
435.05	0.688
435.26	0.688
435.46	0.687
435.66	0.687
435.87	0.686
436.07	0.686
436.28	0.681
436.48	0.678
436.69	0.678
436.89	0.679
437.09	0.673
437.30	0.671
437.50	0.671
437.71	0.683
437.91	0.682
438.11	0.684
438.32	0.688
438.52	0.689
438.73	0.688
438.93	0.685
439.13	0.686
439.34	0.689
439.54	0.687
439.75	0.687
439.95	0.677
440.15	0.681
440.36	0.680
440.56	0.678
440.77	0.678
440.97	0.679
441.17	0.678
441.38	0.678
441.58	0.676
441.79	0.675
441.99	0.674
442.19	0.673
442.40	0.670
442.60	0.670
442.81	0.667
443.01	0.668
443.21	0.668
443.42	0.667
443.62	0.666
443.82	0.665
444.03	0.666
444.23	0.666
444.44	0.666
444.64	0.665
444.84	0.666
445.05	0.666
445.25	0.663
445.45	0.664
445.66	0.666
445.86	0.665
446.06	0.667
446.27	0.666
446.47	0.669
446.68	0.667
446.88	0.666
447.08	0.665
447.29	0.667
447.49	0.667
447.69	0.667
447.90	0.665
448.10	0.669
448.30	0.666
448.51	0.667
448.71	0.665
448.91	0.667
449.12	0.666
449.32	0.668
449.52	0.666
449.73	0.670
449.93	0.669
450.14	0.670
450.34	0.669
450.54	0.671
450.75	0.668
450.95	0.667
451.15	0.667
451.36	0.670
451.56	0.666
451.76	0.665
451.97	0.663
452.17	0.663
452.37	0.661
452.58	0.657
452.78	0.657
452.98	0.659
453.19	0.659
453.39	0.659
453.59	0.658
453.79	0.659
454.00	0.660
454.20	0.659
454.40	0.659
454.61	0.662
454.81	0.663
455.01	0.661
455.22	0.662
455.42	0.664
455.62	0.662
455.83	0.661
456.03	0.664
456.23	0.665
456.44	0.666
456.64	0.664
456.84	0.664
457.04	0.664
457.25	0.663
457.45	0.660
457.65	0.658
457.86	0.659
458.06	0.659
458.26	0.654
458.47	0.653
458.67	0.655
458.87	0.655
459.07	0.653
459.28	0.655
459.48	0.658
459.68	0.658
459.89	0.657
460.09	0.656
460.29	0.657
460.49	0.658
460.70	0.657
460.90	0.657
461.10	0.658
461.31	0.657
461.51	0.654
461.71	0.655
461.91	0.657
462.12	0.657
462.32	0.656
462.52	0.656
462.72	0.659
462.93	0.660
463.13	0.658
463.33	0.659
463.53	0.660
463.74	0.660
463.94	0.655
464.14	0.656
464.35	0.658
464.55	0.658
464.75	0.656
464.95	0.654
465.16	0.655
465.36	0.654
465.56	0.653
465.76	0.653
465.97	0.654
466.17	0.655
466.37	0.652
466.57	0.653
466.78	0.654
466.98	0.653
467.18	0.651
467.38	0.650
467.59	0.651
467.79	0.653
467.99	0.652
468.19	0.653
468.39	0.656
468.60	0.656
468.80	0.654
469.00	0.655
469.20	0.656
469.41	0.656
469.61	0.655
469.81	0.656
470.01	0.655
470.22	0.655
470.42	0.653
470.62	0.651
470.82	0.652
471.02	0.652
471.23	0.650
471.43	0.650
471.63	0.653
471.83	0.652
472.04	0.650
472.24	0.649
472.44	0.654
472.64	0.654
472.84	0.653
473.05	0.653
473.25	0.656
473.45	0.655
473.65	0.653
473.85	0.653
474.06	0.656
474.26	0.656
474.46	0.658
474.66	0.654
474.86	0.655
475.07	0.655
475.27	0.652
475.47	0.650
475.67	0.650
475.87	0.652
476.08	0.650
476.28	0.650
476.48	0.651
476.68	0.649
476.88	0.647
477.09	0.648
477.29	0.650
477.49	0.650
477.69	0.649
477.89	0.649
478.09	0.648
478.30	0.650
478.50	0.647
478.70	0.647
478.90	0.648
479.10	0.650
479.31	0.651
479.51	0.649
479.71	0.650
479.91	0.650
480.11	0.649
480.31	0.649
480.52	0.647
480.72	0.647
480.92	0.646
481.12	0.645
481.32	0.642
481.52	0.640
481.72	0.640
481.93	0.644
482.13	0.645
482.33	0.644
482.53	0.643
482.73	0.644
482.93	0.645
483.14	0.644
483.34	0.644
483.54	0.645
483.74	0.645
483.94	0.644
484.14	0.640
484.34	0.640
484.55	0.640
484.75	0.639
484.95	0.638
485.15	0.637
485.35	0.637
485.55	0.637
485.75	0.635
485.96	0.636
486.16	0.637
486.36	0.637
486.56	0.635
486.76	0.636
486.96	0.636
487.16	0.635
487.36	0.633
487.57	0.633
487.77	0.633
487.97	0.633
488.17	0.631
488.37	0.630
488.57	0.630
488.77	0.630
488.97	0.629
489.18	0.629
489.38	0.631
489.58	0.631
489.78	0.631
489.98	0.631
490.18	0.631
490.38	0.632
490.58	0.631
490.78	0.632
490.98	0.634
491.19	0.634
491.39	0.633
491.59	0.632
491.79	0.635
491.99	0.636
492.19	0.635
492.39	0.638
492.59	0.638
492.79	0.640
492.99	0.640
493.20	0.640
493.40	0.641
493.60	0.642
493.80	0.641
494.00	0.639
494.20	0.639
494.40	0.639
494.60	0.636
494.80	0.640
495.00	0.639
495.20	0.637
495.40	0.636
495.61	0.638
495.81	0.637
496.01	0.641
496.21	0.642
496.41	0.641
496.61	0.641
496.81	0.640
497.01	0.635
497.21	0.634
497.41	0.635
497.61	0.634
497.81	0.632
498.01	0.633
498.21	0.630
498.41	0.629
498.61	0.629
498.82	0.631
499.02	0.632
499.22	0.633
499.42	0.633
499.62	0.634
499.82	0.635
500.02	0.637
500.22	0.635
500.42	0.637
500.62	0.637
500.82	0.637
501.02	0.635
501.22	0.636
501.42	0.636
501.62	0.638
501.82	0.637
502.02	0.637
502.22	0.636
502.42	0.638
502.62	0.635
502.82	0.635
503.02	0.635
503.22	0.635
503.42	0.633
503.63	0.633
503.83	0.632
504.03	0.630
504.23	0.629
504.43	0.629
504.63	0.630
504.83	0.630
505.03	0.629
505.23	0.630
505.43	0.632
505.63	0.633
505.83	0.632
506.03	0.634
506.23	0.636
506.43	0.637
506.63	0.636
506.83	0.635
507.03	0.638
507.23	0.639
507.43	0.635
507.63	0.636
507.83	0.636
508.03	0.637
508.23	0.636
508.43	0.635
508.63	0.636
508.83	0.637
509.03	0.638
509.23	0.636
509.43	0.637
509.63	0.638
509.83	0.636
510.03	0.639
510.23	0.640
510.43	0.641
510.63	0.641
510.83	0.640
511.03	0.642
511.23	0.639
511.43	0.639
511.63	0.641
511.83	0.643
512.03	0.642
512.22	0.638
512.42	0.638
512.62	0.639
512.82	0.638
513.02	0.637
513.22	0.637
513.42	0.639
513.62	0.641
513.82	0.640
514.02	0.639
514.22	0.641
514.42	0.642
514.62	0.641
514.82	0.642
515.02	0.644
515.22	0.648
515.42	0.646
515.62	0.649
515.82	0.648
516.02	0.649
516.22	0.649
516.42	0.650
516.62	0.651
516.82	0.652
517.01	0.651
517.21	0.650
517.41	0.653
517.61	0.653
517.81	0.649
518.01	0.648
518.21	0.648
518.41	0.647
518.61	0.646
518.81	0.646
519.01	0.647
519.21	0.647
519.41	0.646
519.61	0.641
519.81	0.644
520.00	0.644
520.20	0.645
520.40	0.648
520.60	0.649
520.80	0.648
521.00	0.648
521.20	0.650
521.40	0.655
521.60	0.656
521.80	0.655
522.00	0.654
522.20	0.656
522.39	0.656
522.59	0.652
522.79	0.653
522.99	0.656
523.19	0.654
523.39	0.652
523.59	0.650
523.79	0.653
523.99	0.655
524.19	0.654
524.38	0.653
524.58	0.654
524.78	0.654
524.98	0.652
525.18	0.654
525.38	0.656
525.58	0.656
525.78	0.654
525.98	0.652
526.18	0.652
526.37	0.652
526.57	0.654
526.77	0.654
526.97	0.655
527.17	0.655
527.37	0.651
527.57	0.654
527.77	0.656
527.96	0.657
528.16	0.655
528.36	0.656
528.56	0.658
528.76	0.656
528.96	0.655
529.16	0.656
529.36	0.659
529.55	0.659
529.75	0.656
529.95	0.655
530.15	0.656
530.35	0.659
530.55	0.656
530.75	0.656
530.94	0.658
531.14	0.658
531.34	0.656
531.54	0.654
531.74	0.658
531.94	0.661
532.13	0.660
532.33	0.661
532.53	0.659
532.73	0.659
532.93	0.658
533.13	0.658
533.33	0.659
533.52	0.659
533.72	0.662
533.92	0.660
534.12	0.658
534.32	0.659
534.52	0.658
534.71	0.659
534.91	0.662
535.11	0.663
535.31	0.662
535.51	0.664
535.71	0.666
535.90	0.663
536.10	0.664
536.30	0.665
536.50	0.666
536.70	0.666
536.89	0.663
537.09	0.663
537.29	0.665
537.49	0.665
537.69	0.663
537.89	0.663
538.08	0.663
538.28	0.661
538.48	0.662
538.68	0.664
538.88	0.666
539.07	0.666
539.27	0.664
539.47	0.663
539.67	0.663
539.87	0.665
540.06	0.662
540.26	0.663
540.46	0.665
540.66	0.661
540.86	0.659
541.05	0.660
541.25	0.662
541.45	0.662
541.65	0.660
541.84	0.662
542.04	0.663
542.24	0.664
542.44	0.663
542.64	0.664
542.83	0.667
543.03	0.667
543.23	0.664
543.43	0.665
543.62	0.667
543.82	0.668
544.02	0.667
544.22	0.666
544.42	0.669
544.61	0.670
544.81	0.666
545.01	0.666
545.21	0.668
545.40	0.668
545.60	0.666
545.80	0.669
546.00	0.669
546.19	0.668
546.39	0.666
546.59	0.665
546.79	0.666
546.98	0.666
547.18	0.666
547.38	0.667
547.58	0.669
547.77	0.669
547.97	0.666
548.17	0.667
548.37	0.668
548.56	0.668
548.76	0.667
548.96	0.669
549.16	0.672
549.35	0.672
549.55	0.669
549.75	0.669
549.95	0.673
550.14	0.673
550.34	0.671
550.54	0.677
550.73	0.681
550.93	0.682
551.13	0.678
551.33	0.677
551.52	0.677
551.72	0.678
551.92	0.677
552.12	0.677
552.31	0.677
552.51	0.677
552.71	0.672
552.90	0.671
553.10	0.671
553.30	0.671
553.50	0.671
553.69	0.672
553.89	0.673
554.09	0.673
554.28	0.670
554.48	0.672
554.68	0.674
554.87	0.674
555.07	0.671
555.27	0.672
555.47	0.673
555.66	0.674
555.86	0.672
556.06	0.674
556.25	0.676
556.45	0.684
556.65	0.682
556.84	0.684
557.04	0.687
557.24	0.688
557.43	0.688
557.63	0.691
557.83	0.693
558.02	0.694
558.22	0.698
558.42	0.698
558.61	0.691
558.81	0.691
559.01	0.687
559.21	0.687
559.40	0.688
559.60	0.689
559.80	0.684
559.99	0.685
560.19	0.687
560.39	0.680
560.58	0.678
560.78	0.678
560.97	0.682
561.17	0.680
561.37	0.678
561.56	0.679
561.76	0.681
561.96	0.681
562.15	0.679
562.35	0.681
562.55	0.682
562.74	0.682
562.94	0.681
563.14	0.679
563.33	0.680
563.53	0.680
563.73	0.677
563.92	0.678
564.12	0.681
564.31	0.683
564.51	0.681
564.71	0.683
564.90	0.686
565.10	0.687
565.30	0.689
565.49	0.690
565.69	0.693
565.89	0.693
566.08	0.691
566.28	0.692
566.47	0.694
566.67	0.692
566.87	0.689
567.06	0.691
567.26	0.697
567.46	0.693
567.65	0.692
567.85	0.694
568.04	0.697
568.24	0.696
568.44	0.693
568.63	0.692
568.83	0.693
569.02	0.692
569.22	0.687
569.42	0.684
569.61	0.686
569.81	0.684
570.00	0.683
570.20	0.684
570.40	0.685
570.59	0.685
570.79	0.683
570.98	0.681
571.18	0.682
571.38	0.683
571.57	0.680
571.77	0.677
571.96	0.681
572.16	0.678
572.35	0.672
572.55	0.673
572.75	0.671
572.94	0.671
573.14	0.670
573.33	0.670
573.53	0.671
573.73	0.670
573.92	0.668
574.12	0.667
574.31	0.670
574.51	0.671
574.70	0.668
574.90	0.670
575.09	0.672
575.29	0.672
575.49	0.669
575.68	0.669
575.88	0.670
576.07	0.672
576.27	0.669
576.46	0.667
576.66	0.666
576.86	0.665
577.05	0.663
577.25	0.661
577.44	0.663
577.64	0.663
577.83	0.661
578.03	0.662
578.22	0.662
578.42	0.662
578.61	0.660
578.81	0.661
579.00	0.662
579.20	0.661
579.40	0.660
579.59	0.658
579.79	0.659
579.98	0.658
580.18	0.657
580.37	0.658
580.57	0.660
580.76	0.664
580.96	0.662
581.15	0.663
581.35	0.665
581.54	0.665
581.74	0.665
581.93	0.667
582.13	0.668
582.32	0.666
582.52	0.663
582.71	0.663
582.91	0.659
583.10	0.658
583.30	0.657
583.49	0.656
583.69	0.660
583.88	0.660
584.08	0.660
584.27	0.662
584.47	0.665
584.66	0.666
584.86	0.665
585.05	0.668
585.25	0.671
585.44	0.671
585.64	0.669
585.83	0.666
586.03	0.666
586.22	0.664
586.42	0.660
586.61	0.662
586.81	0.664
587.00	0.664
587.20	0.661
587.39	0.661
587.59	0.663
587.78	0.664
587.98	0.664
588.17	0.665
588.37	0.668
588.56	0.669
588.76	0.665
588.95	0.665
589.15	0.669
589.34	0.671
589.54	0.670
589.73	0.671
589.92	0.674
590.12	0.674
590.31	0.672
590.51	0.677
590.70	0.680
590.90	0.680
591.09	0.679
591.29	0.677
591.48	0.677
591.68	0.678
591.87	0.676
592.06	0.676
592.26	0.678
592.45	0.677
592.65	0.671
592.84	0.670
593.04	0.673
593.23	0.674
593.43	0.672
593.62	0.671
593.81	0.671
594.01	0.671
594.20	0.669
594.40	0.668
594.59	0.670
594.79	0.671
594.98	0.670
595.17	0.669
595.37	0.671
595.56	0.673
595.76	0.672
595.95	0.674
596.14	0.677
596.34	0.678
596.53	0.676
596.73	0.678
596.92	0.679
597.12	0.681
597.31	0.681
597.50	0.680
597.70	0.681
597.89	0.681
598.09	0.677
598.28	0.678
598.47	0.681
598.67	0.680
598.86	0.677
599.06	0.678
599.25	0.679
599.44	0.677
599.64	0.675
599.83	0.672
600.03	0.675
600.22	0.675
600.41	0.675
600.61	0.672
600.80	0.674
601.00	0.674
601.19	0.670
601.38	0.668
601.58	0.671
601.77	0.672
601.96	0.674
602.16	0.674
602.35	0.683
602.55	0.680
602.74	0.681
602.93	0.683
603.13	0.688
603.32	0.690
603.51	0.689
603.71	0.693
603.90	0.694
604.09	0.695
604.29	0.692
604.48	0.687
604.68	0.688
604.87	0.687
605.06	0.683
605.26	0.680
605.45	0.681
605.64	0.680
605.84	0.675
606.03	0.674
606.22	0.673
606.42	0.672
606.61	0.668
606.80	0.669
607.00	0.671
607.19	0.671
607.38	0.670
607.58	0.671
607.77	0.673
607.96	0.673
608.16	0.671
608.35	0.676
608.54	0.679
608.74	0.682
608.93	0.686
609.12	0.689
609.32	0.691
609.51	0.695
609.70	0.692
609.90	0.695
610.09	0.700
610.28	0.705
610.48	0.699
610.67	0.701
610.86	0.702
611.06	0.696
611.25	0.694
611.44	0.695
611.64	0.695
611.83	0.699
612.02	0.695
612.21	0.694
612.41	0.692
612.60	0.691
612.79	0.687
612.99	0.687
613.18	0.689
613.37	0.687
613.57	0.684
613.76	0.685
613.95	0.682
614.14	0.682
614.34	0.679
614.53	0.679
614.72	0.683
614.92	0.683
615.11	0.679
615.30	0.676
615.49	0.677
615.69	0.680
615.88	0.676
616.07	0.678
616.26	0.680
616.46	0.681
616.65	0.679
616.84	0.677
617.04	0.678
617.23	0.682
617.42	0.683
617.61	0.686
617.81	0.686
618.00	0.688
618.19	0.686
618.38	0.690
618.58	0.694
618.77	0.695
618.96	0.694
619.15	0.696
619.35	0.698
619.54	0.698
619.73	0.694
619.92	0.697
620.12	0.701
620.31	0.702
620.50	0.696
620.69	0.696
620.89	0.700
621.08	0.699
621.27	0.700
621.46	0.698
621.66	0.701
621.85	0.702
622.04	0.698
622.23	0.699
622.43	0.699
622.62	0.699
622.81	0.699
623.00	0.698
623.19	0.702
623.39	0.701
623.58	0.698
623.77	0.697
623.96	0.700
624.16	0.700
624.35	0.695
624.54	0.698
624.73	0.702
624.92	0.700
625.12	0.698
625.31	0.697
625.50	0.700
625.69	0.701
625.88	0.697
626.08	0.697
626.27	0.698
626.46	0.699
626.65	0.696
626.84	0.695
627.04	0.701
627.23	0.701
627.42	0.697
627.61	0.699
627.80	0.701
628.00	0.702
628.19	0.700
628.38	0.704
628.57	0.706
628.76	0.703
628.96	0.700
629.15	0.700
629.34	0.703
629.53	0.704
629.72	0.699
629.91	0.699
630.11	0.705
630.30	0.705
630.49	0.707
630.68	0.708
630.87	0.714
631.06	0.715
631.26	0.710
631.45	0.712
631.64	0.719
631.83	0.720
632.02	0.717
632.21	0.714
632.41	0.721
632.60	0.716
632.79	0.714
632.98	0.714
633.17	0.717
633.36	0.719
633.55	0.715
633.75	0.711
633.94	0.713
634.13	0.713
634.32	0.711
634.51	0.705
634.70	0.707
634.89	0.706
635.09	0.703
635.28	0.703
635.47	0.704
635.66	0.707
635.85	0.703
636.04	0.704
636.23	0.708
636.43	0.710
636.62	0.709
636.81	0.708
637.00	0.711
637.19	0.714
637.38	0.710
637.57	0.709
637.76	0.711
637.95	0.713
638.15	0.710
638.34	0.707
638.53	0.710
638.72	0.711
638.91	0.708
639.10	0.706
639.29	0.707
639.48	0.707
639.67	0.708
639.87	0.706
640.06	0.712
640.25	0.711
640.44	0.712
640.63	0.712
640.82	0.714
641.01	0.714
641.20	0.714
641.39	0.716
641.58	0.719
641.78	0.718
641.97	0.714
642.16	0.728
642.35	0.729
642.54	0.728
642.73	0.722
642.92	0.720
643.11	0.723
643.30	0.722
643.49	0.717
643.68	0.718
643.87	0.719
644.06	0.719
644.25	0.700
644.45	0.703
644.64	0.704
644.83	0.706
645.02	0.704
645.21	0.703
645.40	0.705
645.59	0.705
645.78	0.700
645.97	0.702
646.16	0.703
646.35	0.702
646.54	0.700
646.73	0.701
646.92	0.702
647.11	0.701
647.30	0.698
647.49	0.699
647.68	0.699
647.88	0.698
648.07	0.691
648.26	0.694
648.45	0.695
648.64	0.691
648.83	0.689
649.02	0.691
649.21	0.701
649.40	0.700
649.59	0.695
649.78	0.696
649.97	0.710
650.16	0.709
650.35	0.704
650.54	0.706
650.73	0.714
650.92	0.711
651.11	0.704
651.30	0.702
651.49	0.707
651.68	0.707
651.87	0.705
652.06	0.694
652.25	0.698
652.44	0.701
652.63	0.699
652.82	0.700
653.01	0.701
653.20	0.700
653.39	0.689
653.58	0.686
653.77	0.685
653.96	0.680
654.15	0.673
654.34	0.671
654.53	0.666
654.72	0.660
654.91	0.650
655.10	0.646
655.29	0.644
655.48	0.642
655.67	0.637
655.86	0.634
656.05	0.633
656.24	0.632
656.43	0.627
656.62	0.626
656.81	0.625
657.00	0.622
657.19	0.619
657.38	0.618
657.57	0.617
657.76	0.619
657.95	0.617
658.14	0.620
658.33	0.622
658.51	0.627
658.70	0.627
658.89	0.629
659.08	0.638
659.27	0.646
659.46	0.647
659.65	0.654
659.84	0.658
660.03	0.662
660.22	0.663
660.41	0.667
660.60	0.667
660.79	0.668
660.98	0.673
661.17	0.672
661.36	0.671
661.55	0.671
661.74	0.669
661.92	0.672
662.11	0.674
662.30	0.672
662.49	0.665
662.68	0.665
662.87	0.668
663.06	0.662
663.25	0.664
663.44	0.664
663.63	0.666
663.82	0.665
664.01	0.659
664.20	0.658
664.38	0.659
664.57	0.660
664.76	0.659
664.95	0.660
665.14	0.664
665.33	0.659
665.52	0.665
665.71	0.668
665.90	0.667
666.09	0.669
666.28	0.667
666.46	0.666
666.65	0.666
666.84	0.665
667.03	0.660
667.22	0.658
667.41	0.662
667.60	0.653
667.79	0.647
667.98	0.648
668.16	0.649
668.35	0.649
668.54	0.645
668.73	0.646
668.92	0.646
669.11	0.646
669.30	0.640
669.49	0.636
669.67	0.638
669.86	0.640
670.05	0.638
670.24	0.635
670.43	0.633
670.62	0.631
670.81	0.626
671.00	0.627
671.18	0.626
671.37	0.625
671.56	0.623
671.75	0.622
671.94	0.618
672.13	0.615
672.32	0.611
672.50	0.611
672.69	0.611
672.88	0.611
673.07	0.607
673.26	0.609
673.45	0.610
673.63	0.611
673.82	0.607
674.01	0.610
674.20	0.610
674.39	0.610
674.58	0.609
674.76	0.609
674.95	0.608
675.14	0.608
675.33	0.604
675.52	0.603
675.71	0.602
675.89	0.602
676.08	0.598
676.27	0.598
676.46	0.598
676.65	0.597
676.84	0.597
677.02	0.598
677.21	0.600
677.40	0.599
677.59	0.597
677.78	0.598
677.96	0.599
678.15	0.599
678.34	0.597
678.53	0.597
678.72	0.598
678.90	0.594
679.09	0.590
679.28	0.587
679.47	0.587
679.66	0.586
679.84	0.583
680.03	0.580
680.22	0.580
680.41	0.581
680.60	0.578
680.78	0.577
680.97	0.579
681.16	0.579
681.35	0.578
681.53	0.576
681.72	0.578
681.91	0.580
682.10	0.579
682.29	0.582
682.47	0.579
682.66	0.579
682.85	0.577
683.04	0.576
683.22	0.576
683.41	0.577
683.60	0.577
683.79	0.577
683.97	0.575
684.16	0.574
684.35	0.570
684.54	0.572
684.72	0.572
684.91	0.573
685.10	0.571
685.29	0.572
685.47	0.569
685.66	0.569
685.85	0.565
686.04	0.565
686.22	0.568
686.41	0.571
686.60	0.567
686.79	0.570
686.97	0.570
687.16	0.572
687.35	0.569
687.54	0.573
687.72	0.577
687.91	0.577
688.10	0.578
688.29	0.577
688.47	0.576
688.66	0.576
688.85	0.572
689.03	0.569
689.22	0.574
689.41	0.574
689.60	0.570
689.78	0.567
689.97	0.567
690.16	0.565
690.34	0.561
690.53	0.560
690.72	0.560
690.91	0.558
691.09	0.556
691.28	0.550
691.47	0.548
691.65	0.546
691.84	0.544
692.03	0.543
692.21	0.541
692.40	0.541
692.59	0.538
692.77	0.537
692.96	0.539
693.15	0.539
693.34	0.537
693.52	0.537
693.71	0.538
693.90	0.539
694.08	0.539
694.27	0.540
694.46	0.550
694.64	0.551
694.83	0.551
695.02	0.550
695.20	0.549
695.39	0.549
695.58	0.549
695.76	0.550
695.95	0.549
696.14	0.548
696.32	0.546
696.51	0.536
696.70	0.536
696.88	0.537
697.07	0.535
697.26	0.537
697.44	0.538
697.63	0.536
697.81	0.534
698.00	0.534
698.19	0.534
698.37	0.534
698.56	0.533
698.75	0.533
698.93	0.533
699.12	0.533
699.31	0.532
699.49	0.531
699.68	0.532
699.87	0.535
700.05	0.534
700.24	0.534
700.42	0.536
700.61	0.535
700.80	0.533
700.98	0.534
701.17	0.535
701.36	0.534
701.54	0.534
701.73	0.535
701.91	0.533
702.10	0.532
702.29	0.530
702.47	0.528
702.66	0.530
702.84	0.531
703.03	0.528
703.22	0.529
703.40	0.529
703.59	0.530
703.77	0.529
703.96	0.530
704.15	0.531
704.33	0.532
704.52	0.532
704.70	0.531
704.89	0.531
705.08	0.530
705.26	0.526
705.45	0.527
705.63	0.526
705.82	0.524
706.00	0.522
706.19	0.521
706.38	0.521
706.56	0.520
706.75	0.517
706.93	0.516
707.12	0.517
707.30	0.518
707.49	0.515
707.68	0.513
707.86	0.512
708.05	0.511
708.23	0.509
708.42	0.509
708.60	0.512
708.79	0.512
708.98	0.510
709.16	0.510
709.35	0.512
709.53	0.517
709.72	0.516
709.90	0.518
710.09	0.520
710.27	0.521
710.46	0.525
710.64	0.524
710.83	0.525
711.02	0.528
711.20	0.527
711.39	0.524
711.57	0.521
711.76	0.521
711.94	0.519
712.13	0.520
712.31	0.519
712.50	0.515
712.68	0.513
712.87	0.514
713.05	0.513
713.24	0.514
713.42	0.513
713.61	0.514
713.79	0.515
713.98	0.515
714.16	0.516
714.35	0.516
714.54	0.516
714.72	0.516
714.91	0.514
715.09	0.520
715.28	0.523
715.46	0.523
715.65	0.521
715.83	0.521
716.02	0.524
716.20	0.520
716.39	0.520
716.57	0.521
716.76	0.523
716.94	0.523
717.12	0.515
717.31	0.517
717.49	0.520
717.68	0.522
717.86	0.521
718.05	0.523
718.23	0.526
718.42	0.528
718.60	0.529
718.79	0.537
718.97	0.540
719.16	0.540
719.34	0.537
719.53	0.537
719.71	0.536
719.90	0.537
720.08	0.534
720.27	0.534
720.45	0.534
720.63	0.532
720.82	0.526
721.00	0.529
721.19	0.532
721.37	0.531
721.56	0.532
721.74	0.534
721.93	0.543
722.11	0.551
722.30	0.550
722.48	0.554
722.66	0.555
722.85	0.555
723.03	0.555
723.22	0.553
723.40	0.556
723.59	0.556
723.77	0.561
723.95	0.554
724.14	0.556
724.32	0.557
724.51	0.557
724.69	0.558
724.88	0.558
725.06	0.556
725.24	0.557
725.43	0.559
725.61	0.561
725.80	0.555
725.98	0.553
726.16	0.549
726.35	0.554
726.53	0.553
726.72	0.551
726.90	0.562
727.09	0.562
727.27	0.569
727.45	0.565
727.64	0.574
727.82	0.583
728.01	0.587
728.19	0.585
728.37	0.590
728.56	0.594
728.74	0.600
728.92	0.588
729.11	0.592
729.29	0.589
729.48	0.591
729.66	0.580
729.84	0.578
730.03	0.581
730.21	0.583
730.40	0.575
730.58	0.576
730.76	0.576
730.95	0.578
731.13	0.578
731.31	0.591
731.50	0.600
731.68	0.603
731.86	0.600
732.05	0.615
732.23	0.618
732.42	0.621
732.60	0.624
732.78	0.628
732.97	0.645
733.15	0.651
733.33	0.640
733.52	0.646
733.70	0.658
733.88	0.667
734.07	0.653
734.25	0.678
734.43	0.684
734.62	0.688
734.80	0.683
734.98	0.675
735.17	0.680
735.35	0.687
735.53	0.676
735.72	0.678
735.90	0.699
736.08	0.716
736.27	0.693
736.45	0.704
736.63	0.714
736.82	0.722
737.00	0.719
737.18	0.731
737.37	0.759
737.55	0.781
737.73	0.776
737.92	0.777
738.10	0.774
738.28	0.793
738.46	0.784
738.65	0.795
738.83	0.814
739.01	0.868
739.20	0.857
739.38	0.837
739.56	0.828
739.75	0.834
739.93	0.803
740.11	0.825
740.29	0.823
740.48	0.829
740.66	0.810
740.84	0.804
741.03	0.773
741.21	0.783
741.39	0.769
741.57	0.782
741.76	0.794
741.94	0.800
742.12	0.769
742.31	0.775
742.49	0.792
742.67	0.813
742.85	0.828
743.04	0.827
743.22	0.834
743.40	0.883
743.58	0.862
743.77	0.879
743.95	0.911
744.13	0.956
744.31	0.936
744.50	0.929
744.68	0.928
744.86	0.904
745.04	0.920
745.23	0.978
745.41	0.957
745.59	0.963
745.77	0.935
745.96	0.931
746.14	0.933
746.32	0.935
746.50	0.925
746.69	0.908
746.87	0.917
747.05	0.900
747.23	0.833
747.42	0.819
747.60	0.842
747.78	0.845
747.96	0.862
748.14	0.825
748.33	0.851
748.51	0.847
748.69	0.842
748.87	0.866
749.06	0.862
749.24	0.864
749.42	0.854
749.60	0.840
749.78	0.844
749.97	0.806
750.15	0.800
750.33	0.803
750.51	0.828
750.69	0.832
750.88	0.838
751.06	0.847
751.24	0.872
751.42	0.865
751.60	0.855
751.79	0.924
751.97	0.963
752.15	0.968
752.33	0.935
752.51	0.990
752.69	1.004
752.88	0.973
753.06	1.013
753.24	0.991
753.42	1.024
753.60	1.171
753.78	1.043
753.97	1.059
754.15	1.074
754.33	1.099
754.51	0.984
754.69	0.972
754.87	1.000
755.06	0.936
755.24	0.935
755.42	0.939
755.60	0.853
755.78	0.859
755.96	0.813
756.15	0.810
756.33	0.817
756.51	0.834
756.69	0.822
756.87	0.790
757.05	0.807
757.23	0.793
757.42	0.765
757.60	0.763
757.78	0.753
757.96	0.753
758.14	0.738
758.32	0.725
758.50	0.738
758.69	0.736
758.87	0.729
759.05	0.730
759.23	0.739
759.41	0.739
759.59	0.734
759.77	0.755
759.95	0.779
760.13	0.825
760.32	0.823
760.50	0.818
760.68	0.843
760.86	0.845
761.04	0.824
761.22	0.826
761.40	0.869
761.58	0.868
761.76	0.843
761.95	0.825
762.13	0.781
762.31	0.781
762.49	0.754
762.67	0.767
762.85	0.778
763.03	0.772
763.21	0.756
763.39	0.740
763.57	0.744
763.75	0.738
763.94	0.726
764.12	0.729
764.30	0.750
764.48	0.752
764.66	0.721
764.84	0.720
765.02	0.755
765.20	0.763
765.38	0.744
765.56	0.750
765.74	0.787
765.92	0.788
766.10	0.795
766.28	0.789
766.46	0.813
766.65	0.813
766.83	0.802
767.01	0.786
767.19	0.793
767.37	0.794
767.55	0.778
767.73	0.759
767.91	0.760
768.09	0.749
768.27	0.739
768.45	0.731
768.63	0.736
768.81	0.738
768.99	0.713
769.17	0.735
769.35	0.747
769.53	0.749
769.71	0.731
769.89	0.739
770.07	0.744
770.25	0.729
770.43	0.711
770.61	0.731
770.79	0.735
770.97	0.746
771.15	0.718
771.33	0.721
771.51	0.721
771.69	0.732
771.87	0.740
772.05	0.747
772.24	0.753
772.42	0.760
772.60	0.742
772.78	0.796
772.96	0.821
773.14	0.814
773.32	0.792
773.49	0.798
773.67	0.795
773.85	0.776
774.03	0.765
774.21	0.796
774.39	0.806
774.57	0.827
774.75	0.765
774.93	0.758
775.11	0.780
775.29	0.790
775.47	0.793
775.65	0.804
775.83	0.819
776.01	0.842
776.19	0.795
776.37	0.797
776.55	0.794
776.73	0.786
776.91	0.783
777.09	0.765
777.27	0.758
777.45	0.751
777.63	0.727
777.81	0.724
777.99	0.710
778.17	0.710
778.35	0.689
778.53	0.679
778.71	0.686
778.89	0.676
779.07	0.669
779.24	0.674
779.42	0.673
779.60	0.690
779.78	0.687
779.96	0.691
780.14	0.697
780.32	0.716
780.50	0.702
780.68	0.701
780.86	0.692
781.04	0.708
781.22	0.712
781.40	0.724
781.58	0.714
781.75	0.707
781.93	0.693
782.11	0.694
782.29	0.682
782.47	0.679
782.65	0.668
782.83	0.694
783.01	0.687
783.19	0.683
783.37	0.669
783.55	0.672
783.72	0.688
783.90	0.699
784.08	0.693
784.26	0.702
784.44	0.721
784.62	0.726
784.80	0.695
784.98	0.700
785.16	0.705
785.33	0.719
785.51	0.708
785.69	0.695
785.87	0.693
786.05	0.704
786.23	0.701
786.41	0.700
786.59	0.704
786.77	0.704
786.94	0.692
787.12	0.693
787.30	0.694
787.48	0.690
787.66	0.679
787.84	0.680
788.02	0.671
788.19	0.669
788.37	0.656
788.55	0.657
788.73	0.658
788.91	0.653
789.09	0.638
789.27	0.629
789.44	0.641
789.62	0.646
789.80	0.652
789.98	0.674
790.16	0.662
790.34	0.658
790.51	0.646
790.69	0.664
790.87	0.669
791.05	0.667
791.23	0.661
791.41	0.662
791.58	0.671
791.76	0.655
791.94	0.627
792.12	0.634
792.30	0.638
792.48	0.636
792.65	0.631
792.83	0.638
793.01	0.644
793.19	0.642
793.37	0.626
793.54	0.622
793.72	0.632
793.90	0.630
794.08	0.622
794.26	0.623
794.43	0.631
794.61	0.614
794.79	0.604
794.97	0.602
795.15	0.608
795.32	0.611
795.50	0.602
795.68	0.596
795.86	0.598
796.04	0.599
796.21	0.593
796.39	0.592
796.57	0.605
796.75	0.614
796.92	0.616
797.10	0.619
797.28	0.622
797.46	0.626
797.64	0.628
797.81	0.637
797.99	0.643
798.17	0.647
798.35	0.642
798.52	0.646
798.70	0.641
798.88	0.650
799.06	0.650
799.23	0.653
799.41	0.660
799.59	0.653
799.77	0.643
799.94	0.649
800.12	0.658
800.30	0.674
800.48	0.671
800.65	0.670
800.83	0.660
801.01	0.652
801.19	0.650
801.36	0.647
801.54	0.647
801.72	0.656
801.90	0.644
802.07	0.638
802.25	0.624
802.43	0.609
802.60	0.604
802.78	0.611
802.96	0.615
803.14	0.610
803.31	0.607
803.49	0.610
803.67	0.606
803.84	0.609
804.02	0.601
804.20	0.602
804.38	0.610
804.55	0.611
804.73	0.597
804.91	0.599
805.08	0.609
805.26	0.606
805.44	0.668
805.61	0.672
805.79	0.672
805.97	0.675
806.15	0.667
806.32	0.661
806.50	0.665
806.68	0.667
806.85	0.659
807.03	0.650
807.21	0.665
807.38	0.600
807.56	0.590
807.74	0.600
807.91	0.605
808.09	0.609
808.27	0.626
808.44	0.651
808.62	0.657
808.80	0.659
808.97	0.655
809.15	0.651
809.33	0.666
809.50	0.673
809.68	0.658
809.86	0.664
810.03	0.694
810.21	0.677
810.39	0.658
810.56	0.665
810.74	0.687
810.91	0.755
811.09	0.743
811.27	0.763
811.44	0.770
811.62	0.773
811.80	0.761
811.97	0.731
812.15	0.729
812.33	0.725
812.50	0.711
812.68	0.699
812.85	0.646
813.03	0.649
813.21	0.620
813.38	0.616
813.56	0.619
813.74	0.626
813.91	0.633
814.09	0.661
814.26	0.655
814.44	0.658
814.62	0.649
814.79	0.653
814.97	0.657
815.14	0.659
815.32	0.665
815.50	0.679
815.67	0.683
815.85	0.676
816.02	0.663
816.20	0.670
816.38	0.683
816.55	0.689
816.73	0.688
816.90	0.698
817.08	0.726
817.26	0.727
817.43	0.710
817.61	0.733
817.78	0.752
817.96	0.735
818.13	0.726
818.31	0.729
818.49	0.739
818.66	0.730
818.84	0.717
819.01	0.700
819.19	0.705
819.36	0.705
819.54	0.677
819.71	0.713
819.89	0.727
820.07	0.737
820.24	0.729
820.42	0.733
820.59	0.751
820.77	0.773
820.94	0.763
821.12	0.780
821.29	0.790
821.47	0.790
821.64	0.731
821.82	0.740
822.00	0.739
822.17	0.738
822.35	0.730
822.52	0.730
822.70	0.717
822.87	0.724
823.05	0.704
823.22	0.717
823.40	0.743
823.57	0.766
823.75	0.751
823.92	0.773
824.10	0.789
824.27	0.825
824.45	0.818
824.62	0.876
824.80	0.890
824.97	0.906
825.15	0.896
825.32	0.910
825.50	0.908
825.67	0.917
825.85	0.897
826.02	0.914
826.20	0.935
826.37	1.046
826.55	0.968
826.72	1.134
826.90	1.199
827.07	1.236
827.25	1.174
827.42	1.304
827.60	1.422
827.77	1.542
827.95	1.501
828.12	1.557
828.30	1.293
828.47	1.414
828.65	1.132
828.82	1.159
829.00	1.206
829.17	1.278
829.34	1.269
829.52	1.282
829.69	-0.000
829.87	-0.000
830.04	-0.000
830.22	-0.000
830.39	-0.000
830.57	-0.000
830.74	-0.000
830.92	-0.000
831.09	-0.000
831.26	-0.000
831.44	-0.000
831.61	-0.000
831.79	-0.000
831.96	-0.000
832.14	-0.000
832.31	-0.000
832.49	-0.000
832.66	-0.000
832.83	-0.000
833.01	-0.000
833.18	-0.000
833.36	-0.000
833.53	-0.000
833.70	-0.000
833.88	-0.000
834.05	-0.000
834.23	-0.000
834.40	-0.000
834.58	-0.000
834.75	-0.000
834.92	-0.000
835.10	-0.000
835.27	-0.000
835.45	-0.000
835.62	-0.000
835.79	-0.000
835.97	-0.000
836.14	-0.000
836.32	-0.000
836.49	-0.000
836.66	-0.000
836.84	-0.000
837.01	-0.000
837.18	-0.000
837.36	-0.000
837.53	-0.000
837.71	-0.000
837.88	-0.000
838.05	-0.000
838.23	-0.000
838.40	-0.000
838.58	-0.000
838.75	-0.000
838.92	-0.000
839.10	-0.000
839.27	-0.000
839.44	-0.000
839.62	-0.000
839.79	-0.000
839.96	-0.000
840.14	-0.000
840.31	-0.000
840.48	-0.000
840.66	-0.000
840.83	-0.000
841.01	-0.000
841.18	-0.000
841.35	-0.000
841.53	-0.000
841.70	-0.000
841.87	-0.000
842.05	-0.000
842.22	-0.000
842.39	-0.000
842.57	-0.000
842.74	-0.000
842.91	-0.000
843.09	-0.000
843.26	-0.000
843.43	-0.000
843.60	-0.000
843.78	-0.000
843.95	-0.000
844.12	-0.000
844.30	-0.000
844.47	-0.000
844.64	-0.000
844.82	-0.000
844.99	-0.000
845.16	-0.000
845.34	-0.000
845.51	-0.000
845.68	-0.000
845.85	-0.000
846.03	-0.000
846.20	-0.000
846.37	-0.000
846.55	-0.000
846.72	-0.000
846.89	-0.000
847.06	-0.000
847.24	-0.000
847.41	-0.000
847.58	-0.000
847.76	-0.000
847.93	-0.000
848.10	-0.000
848.27	-0.000
848.45	-0.000
848.62	-0.000
848.79	-0.000
848.97	-0.000
849.14	-0.000
849.31	-0.000
849.48	-0.000
849.66	-0.000
849.83	-0.000
850.00	-0.000
850.17	-0.000
850.35	-0.000
850.52	-0.000
850.69	-0.000
850.86	-0.000
851.04	-0.000
851.21	-0.000
851.38	-0.000
851.55	-0.000
851.72	-0.000
851.90	-0.000
852.07	-0.000
852.24	-0.000
852.41	-0.000
852.59	-0.000
852.76	-0.000
852.93	-0.000
853.10	-0.000
853.28	-0.000
853.45	-0.000
853.62	-0.000
853.79	-0.000
853.96	-0.000
854.14	-0.000
854.31	-0.000
854.48	-0.000
854.65	-0.000
854.82	-0.000
855.00	-0.000
855.17	-0.000
855.34	-0.000
855.51	-0.000
855.68	-0.000
855.86	-0.000
856.03	-0.000
856.20	-0.000
856.37	-0.000
856.54	-0.000
856.72	-0.000
856.89	-0.000
857.06	-0.000
857.23	-0.000
857.40	-0.000
857.57	-0.000
857.75	-0.000
857.92	-0.000
858.09	-0.000
858.26	-0.000
858.43	-0.000
858.60	-0.000
858.78	-0.000
858.95	-0.000
859.12	-0.000
859.29	-0.000
859.46	-0.000
859.63	-0.000
859.81	-0.000
859.98	-0.000
860.15	-0.000
860.32	-0.000
860.49	-0.000
860.66	-0.000
860.83	-0.000
861.01	-0.000
861.18	-0.000
861.35	-0.000
861.52	-0.000
861.69	-0.000
861.86	-0.000
862.03	-0.000
862.21	-0.000
862.38	-0.000
862.55	-0.000
862.72	-0.000
862.89	-0.000
863.06	-0.000
863.23	-0.000
863.40	-0.000
863.58	-0.000
863.75	-0.000
863.92	-0.000
864.09	-0.000
864.26	-0.000
864.43	-0.000
864.60	-0.000
864.77	-0.000
864.94	-0.000
865.11	-0.000
865.29	-0.000
865.46	-0.000
865.63	-0.000
865.80	-0.000
865.97	-0.000
866.14	-0.000
866.31	-0.000
866.48	-0.000
866.65	-0.000
866.82	-0.000
866.99	-0.000
867.16	-0.000
867.34	-0.000
867.51	-0.000
867.68	-0.000
867.85	-0.000
868.02	-0.000
868.19	-0.000
868.36	-0.000
868.53	-0.000
868.70	-0.000
868.87	-0.000
869.04	-0.000
869.21	-0.000
869.38	-0.000
869.55	-0.000
869.72	-0.000
869.89	-0.000
870.06	-0.000
870.24	-0.000
870.41	-0.000
870.58	-0.000
870.75	-0.000
870.92	-0.000
871.09	-0.000
871.26	-0.000
871.43	-0.000
871.60	-0.000
871.77	-0.000
871.94	-0.000
872.11	-0.000
872.28	-0.000
872.45	-0.000
872.62	-0.000
872.79	-0.000
872.96	-0.000
873.13	-0.000
873.30	-0.000
873.47	-0.000
873.64	-0.000
873.81	-0.000
873.98	-0.000
874.15	-0.000
874.32	-0.000
874.49	-0.000
874.66	-0.000
874.83	-0.000
875.00	-0.000
875.17	-0.000
875.34	-0.000
875.51	-0.000
875.68	-0.000
875.85	-0.000
876.02	-0.000
876.19	-0.000
876.36	-0.000
876.53	-0.000
876.70	-0.000
876.87	-0.000
877.04	-0.000
877.21	-0.000
877.38	-0.000
877.55	-0.000
877.72	-0.000
877.89	-0.000
878.06	-0.000
878.23	-0.000
878.39	-0.000
878.56	-0.000
878.73	-0.000
878.90	-0.000
879.07	-0.000
879.24	-0.000
879.41	-0.000
879.58	-0.000
879.75	-0.000
879.92	-0.000
880.09	-0.000
880.26	-0.000
880.43	-0.000
880.60	-0.000
880.77	-0.000
880.94	-0.000
881.11	-0.000
881.27	-0.000
881.44	-0.000
881.61	-0.000
881.78	-0.000
881.95	-0.000
882.12	-0.000
882.29	-0.000
882.46	-0.000
882.63	-0.000
882.80	-0.000
882.97	-0.000
883.14	-0.000
883.30	-0.000
883.47	-0.000
883.64	-0.000
883.81	-0.000
883.98	-0.000
884.15	-0.000
884.32	-0.000
884.49	-0.000
884.66	-0.000
884.82	-0.000
884.99	-0.000
885.16	-0.000
885.33	-0.000
885.50	-0.000
885.67	-0.000
885.84	-0.000
886.01	-0.000
886.17	-0.000
886.34	-0.000
886.51	-0.000
886.68	-0.000
886.85	-0.000
887.02	-0.000
887.19	-0.000
887.36	-0.000
887.52	-0.000
887.69	-0.000
887.86	-0.000
888.03	-0.000
888.20	-0.000
888.37	-0.000
888.54	-0.000
888.70	-0.000
888.87	-0.000
889.04	-0.000
889.21	-0.000
889.38	-0.000
889.55	-0.000
889.71	-0.000
889.88	-0.000
890.05	-0.000
890.22	-0.000
890.39	-0.000
>>>>>End Processed Spectral Data<<<<<
