SpectraSuite Data File
++++++++++++++++++++++++++++++++++++
Date: Fri Jun 19 13:51:47 CEST 2015
User: introlabs
Dark Spectrum Present: Yes
Reference Spectrum Present: Yes
Number of Sampled Component Spectra: 1
Spectrometers: USB4H08886
Integration Time (usec): 745692 (USB4H08886)
Spectra Averaged: 5 (USB4H08886)
Boxcar Smoothing: 5 (USB4H08886)
Correct for Electrical Dark: Yes (USB4H08886)
Strobe/Lamp Enabled: No (USB4H08886)
Correct for Detector Non-linearity: Yes (USB4H08886)
Correct for Stray Light: Yes (USB4H08886)
Number of Pixels in Processed Spectrum: 3648
>>>>>Begin Processed Spectral Data<<<<<
178.14	-0.000
178.36	-0.000
178.57	-0.000
178.79	-0.000
179.01	-0.000
179.22	-0.000
179.44	-0.000
179.65	-0.000
179.87	-0.000
180.08	-0.000
180.30	-0.000
180.52	-0.000
180.73	-0.000
180.95	-0.000
181.16	-0.000
181.38	-0.000
181.59	-0.000
181.81	-0.000
182.03	-0.000
182.24	-0.000
182.46	-0.000
182.67	-0.000
182.89	-0.000
183.10	-0.000
183.32	-0.000
183.54	-0.000
183.75	-0.000
183.97	-0.000
184.18	-0.000
184.40	-0.000
184.61	-0.000
184.83	-0.000
185.04	-0.000
185.26	-0.000
185.48	-0.000
185.69	-0.000
185.91	-0.000
186.12	-0.000
186.34	-0.000
186.55	-0.000
186.77	-0.000
186.98	-0.000
187.20	-0.000
187.42	-0.000
187.63	-0.000
187.85	-0.000
188.06	-0.000
188.28	-0.000
188.49	-0.000
188.71	-0.000
188.92	-0.000
189.14	-0.000
189.36	-0.000
189.57	-0.000
189.79	-0.000
190.00	-0.000
190.22	-0.000
190.43	-0.000
190.65	-0.000
190.86	-0.000
191.08	-0.000
191.29	-0.000
191.51	-0.000
191.72	-0.000
191.94	-0.000
192.16	-0.000
192.37	-0.000
192.59	-0.000
192.80	-0.000
193.02	-0.000
193.23	-0.000
193.45	-0.000
193.66	-0.000
193.88	-0.000
194.09	-0.000
194.31	-0.000
194.52	-0.000
194.74	-0.000
194.95	-0.000
195.17	-0.000
195.38	-0.000
195.60	-0.000
195.81	-0.000
196.03	-0.000
196.25	-0.000
196.46	-0.000
196.68	-0.000
196.89	-0.000
197.11	-0.000
197.32	-0.000
197.54	-0.000
197.75	-0.000
197.97	-0.000
198.18	-0.000
198.40	-0.000
198.61	-0.000
198.83	-0.000
199.04	-0.000
199.26	-0.000
199.47	-0.000
199.69	-0.000
199.90	-0.000
200.12	-0.000
200.33	-0.000
200.55	-0.000
200.76	-0.000
200.98	-0.000
201.19	-0.000
201.41	-0.000
201.62	-0.000
201.84	-0.000
202.05	-0.000
202.27	-0.000
202.48	-0.000
202.70	-0.000
202.91	-0.000
203.13	-0.000
203.34	-0.000
203.56	-0.000
203.77	-0.000
203.99	-0.000
204.20	-0.000
204.42	-0.000
204.63	-0.000
204.85	-0.000
205.06	-0.000
205.28	-0.000
205.49	-0.000
205.71	-0.000
205.92	-0.000
206.14	-0.000
206.35	-0.000
206.56	-0.000
206.78	-0.000
206.99	-0.000
207.21	-0.000
207.42	-0.000
207.64	-0.000
207.85	-0.000
208.07	-0.000
208.28	-0.000
208.50	-0.000
208.71	-0.000
208.93	-0.000
209.14	-0.000
209.36	-0.000
209.57	-0.000
209.79	-0.000
210.00	-0.000
210.22	-0.000
210.43	-0.000
210.64	-0.000
210.86	-0.000
211.07	-0.000
211.29	-0.000
211.50	-0.000
211.72	-0.000
211.93	-0.000
212.15	-0.000
212.36	-0.000
212.58	-0.000
212.79	-0.000
213.01	-0.000
213.22	-0.000
213.43	-0.000
213.65	-0.000
213.86	-0.000
214.08	-0.000
214.29	-0.000
214.51	-0.000
214.72	-0.000
214.94	-0.000
215.15	-0.000
215.36	-0.000
215.58	-0.000
215.79	-0.000
216.01	-0.000
216.22	-0.000
216.44	-0.000
216.65	-0.000
216.87	-0.000
217.08	-0.000
217.29	-0.000
217.51	-0.000
217.72	-0.000
217.94	-0.000
218.15	-0.000
218.37	-0.000
218.58	-0.000
218.80	-0.000
219.01	-0.000
219.22	-0.000
219.44	-0.000
219.65	-0.000
219.87	-0.000
220.08	-0.000
220.30	-0.000
220.51	-0.000
220.72	-0.000
220.94	-0.000
221.15	-0.000
221.37	-0.000
221.58	-0.000
221.79	-0.000
222.01	-0.000
222.22	-0.000
222.44	-0.000
222.65	-0.000
222.87	-0.000
223.08	-0.000
223.29	-0.000
223.51	-0.000
223.72	-0.000
223.94	-0.000
224.15	-0.000
224.36	-0.000
224.58	-0.000
224.79	-0.000
225.01	-0.000
225.22	-0.000
225.44	-0.000
225.65	-0.000
225.86	-0.000
226.08	-0.000
226.29	-0.000
226.51	-0.000
226.72	-0.000
226.93	-0.000
227.15	-0.000
227.36	-0.000
227.58	-0.000
227.79	-0.000
228.00	-0.000
228.22	-0.000
228.43	-0.000
228.65	-0.000
228.86	-0.000
229.07	-0.000
229.29	-0.000
229.50	-0.000
229.72	-0.000
229.93	-0.000
230.14	-0.000
230.36	-0.000
230.57	-0.000
230.78	-0.000
231.00	-0.000
231.21	-0.000
231.43	-0.000
231.64	-0.000
231.85	-0.000
232.07	-0.000
232.28	-0.000
232.50	-0.000
232.71	-0.000
232.92	-0.000
233.14	-0.000
233.35	-0.000
233.56	-0.000
233.78	-0.000
233.99	-0.000
234.21	-0.000
234.42	-0.000
234.63	-0.000
234.85	-0.000
235.06	-0.000
235.27	-0.000
235.49	-0.000
235.70	-0.000
235.91	-0.000
236.13	-0.000
236.34	-0.000
236.56	-0.000
236.77	-0.000
236.98	-0.000
237.20	-0.000
237.41	-0.000
237.62	-0.000
237.84	-0.000
238.05	-0.000
238.26	-0.000
238.48	-0.000
238.69	-0.000
238.91	-0.000
239.12	-0.000
239.33	-0.000
239.55	-0.000
239.76	-0.000
239.97	-0.000
240.19	-0.000
240.40	-0.000
240.61	-0.000
240.83	-0.000
241.04	-0.000
241.25	-0.000
241.47	-0.000
241.68	-0.000
241.89	-0.000
242.11	-0.000
242.32	-0.000
242.53	-0.000
242.75	-0.000
242.96	-0.000
243.17	-0.000
243.39	-0.000
243.60	-0.000
243.81	-0.000
244.03	-0.000
244.24	-0.000
244.45	-0.000
244.67	-0.000
244.88	-0.000
245.09	-0.000
245.31	-0.000
245.52	-0.000
245.73	-0.000
245.95	-0.000
246.16	-0.000
246.37	-0.000
246.59	-0.000
246.80	-0.000
247.01	-0.000
247.23	-0.000
247.44	-0.000
247.65	-0.000
247.87	-0.000
248.08	-0.000
248.29	-0.000
248.51	-0.000
248.72	-0.000
248.93	-0.000
249.15	-0.000
249.36	-0.000
249.57	-0.000
249.78	-0.000
250.00	-0.000
250.21	-0.000
250.42	-0.000
250.64	-0.000
250.85	-0.000
251.06	-0.000
251.28	-0.000
251.49	-0.000
251.70	-0.000
251.92	-0.000
252.13	-0.000
252.34	-0.000
252.55	-0.000
252.77	-0.000
252.98	-0.000
253.19	-0.000
253.41	-0.000
253.62	-0.000
253.83	-0.000
254.05	-0.000
254.26	-0.000
254.47	-0.000
254.68	-0.000
254.90	-0.000
255.11	-0.000
255.32	-0.000
255.54	-0.000
255.75	-0.000
255.96	-0.000
256.17	-0.000
256.39	-0.000
256.60	-0.000
256.81	-0.000
257.03	-0.000
257.24	-0.000
257.45	-0.000
257.66	-0.000
257.88	-0.000
258.09	-0.000
258.30	-0.000
258.51	-0.000
258.73	-0.000
258.94	-0.000
259.15	-0.000
259.37	-0.000
259.58	-0.000
259.79	-0.000
260.00	-0.000
260.22	-0.000
260.43	-0.000
260.64	-0.000
260.85	-0.000
261.07	-0.000
261.28	-0.000
261.49	-0.000
261.71	-0.000
261.92	-0.000
262.13	-0.000
262.34	-0.000
262.56	-0.000
262.77	-0.000
262.98	-0.000
263.19	-0.000
263.41	-0.000
263.62	-0.000
263.83	-0.000
264.04	-0.000
264.26	-0.000
264.47	-0.000
264.68	-0.000
264.89	-0.000
265.11	-0.000
265.32	-0.000
265.53	-0.000
265.74	-0.000
265.96	-0.000
266.17	-0.000
266.38	-0.000
266.59	-0.000
266.81	-0.000
267.02	-0.000
267.23	-0.000
267.44	-0.000
267.65	-0.000
267.87	-0.000
268.08	-0.000
268.29	-0.000
268.50	-0.000
268.72	-0.000
268.93	-0.000
269.14	-0.000
269.35	-0.000
269.57	-0.000
269.78	-0.000
269.99	-0.000
270.20	-0.000
270.41	-0.000
270.63	-0.000
270.84	-0.000
271.05	-0.000
271.26	-0.000
271.48	-0.000
271.69	-0.000
271.90	-0.000
272.11	-0.000
272.32	-0.000
272.54	-0.000
272.75	-0.000
272.96	-0.000
273.17	-0.000
273.39	-0.000
273.60	-0.000
273.81	-0.000
274.02	-0.000
274.23	-0.000
274.45	-0.000
274.66	-0.000
274.87	-0.000
275.08	-0.000
275.29	-0.000
275.51	-0.000
275.72	-0.000
275.93	-0.000
276.14	-0.000
276.35	-0.000
276.57	-0.000
276.78	-0.000
276.99	-0.000
277.20	-0.000
277.41	-0.000
277.63	-0.000
277.84	-0.000
278.05	-0.000
278.26	-0.000
278.47	-0.000
278.69	-0.000
278.90	-0.000
279.11	-0.000
279.32	-0.000
279.53	-0.000
279.74	-0.000
279.96	-0.000
280.17	-0.000
280.38	-0.000
280.59	-0.000
280.80	-0.000
281.02	-0.000
281.23	-0.000
281.44	-0.000
281.65	-0.000
281.86	-0.000
282.07	-0.000
282.29	-0.000
282.50	-0.000
282.71	-0.000
282.92	-0.000
283.13	-0.000
283.35	-0.000
283.56	-0.000
283.77	-0.000
283.98	-0.000
284.19	-0.000
284.40	-0.000
284.62	-0.000
284.83	-0.000
285.04	-0.000
285.25	-0.000
285.46	-0.000
285.67	-0.000
285.88	-0.000
286.10	-0.000
286.31	-0.000
286.52	-0.000
286.73	-0.000
286.94	-0.000
287.15	-0.000
287.37	-0.000
287.58	-0.000
287.79	-0.000
288.00	-0.000
288.21	-0.000
288.42	-0.000
288.63	-0.000
288.85	-0.000
289.06	-0.000
289.27	-0.000
289.48	-0.000
289.69	-0.000
289.90	-0.000
290.11	-0.000
290.33	-0.000
290.54	-0.000
290.75	-0.000
290.96	-0.000
291.17	-0.000
291.38	-0.000
291.59	-0.000
291.81	-0.000
292.02	-0.000
292.23	-0.000
292.44	-0.000
292.65	-0.000
292.86	-0.000
293.07	-0.000
293.28	-0.000
293.50	-0.000
293.71	-0.000
293.92	-0.000
294.13	-0.000
294.34	-0.000
294.55	-0.000
294.76	-0.000
294.97	-0.000
295.19	-0.000
295.40	-0.000
295.61	-0.000
295.82	-0.000
296.03	-0.000
296.24	-0.000
296.45	-0.000
296.66	2.488
296.87	2.598
297.09	-0.000
297.30	-0.000
297.51	2.205
297.72	2.057
297.93	2.378
298.14	2.273
298.35	2.116
298.56	2.066
298.77	2.619
298.99	2.430
299.20	2.288
299.41	2.192
299.62	2.102
299.83	2.058
300.04	1.910
300.25	1.864
300.46	1.956
300.67	1.899
300.88	1.776
301.10	1.782
301.31	1.915
301.52	1.789
301.73	1.676
301.94	1.669
302.15	1.696
302.36	1.626
302.57	1.542
302.78	1.552
302.99	1.617
303.20	1.647
303.41	1.513
303.63	1.490
303.84	1.504
304.05	1.504
304.26	1.425
304.47	1.430
304.68	1.431
304.89	1.417
305.10	1.363
305.31	1.343
305.52	1.393
305.73	1.385
305.94	1.336
306.15	1.326
306.37	1.353
306.58	1.363
306.79	1.327
307.00	1.353
307.21	1.401
307.42	1.390
307.63	1.349
307.84	1.308
308.05	1.353
308.26	1.355
308.47	1.326
308.68	1.321
308.89	1.324
309.10	1.320
309.31	1.271
309.52	1.260
309.73	1.276
309.95	1.268
310.16	1.236
310.37	1.220
310.58	1.241
310.79	1.239
311.00	1.233
311.21	1.229
311.42	1.231
311.63	1.224
311.84	1.204
312.05	1.202
312.26	1.224
312.47	1.236
312.68	1.210
312.89	1.192
313.10	1.198
313.31	1.169
313.52	1.172
313.73	1.173
313.94	1.179
314.15	1.160
314.36	1.136
314.57	1.131
314.78	1.116
314.99	1.112
315.21	1.098
315.42	1.104
315.63	1.118
315.84	1.091
316.05	1.075
316.26	1.081
316.47	1.101
316.68	1.095
316.89	1.074
317.10	1.096
317.31	1.101
317.52	1.103
317.73	1.080
317.94	1.078
318.15	1.126
318.36	1.128
318.57	1.108
318.78	1.098
318.99	1.138
319.20	1.137
319.41	1.099
319.62	1.100
319.83	1.114
320.04	1.108
320.25	1.091
320.46	1.055
320.67	1.056
320.88	1.053
321.09	1.035
321.30	1.019
321.51	1.035
321.72	1.035
321.93	1.017
322.14	1.009
322.35	1.039
322.56	1.042
322.77	1.028
322.98	1.040
323.19	1.049
323.40	1.056
323.61	1.034
323.82	1.028
324.03	1.031
324.24	1.029
324.45	1.015
324.66	0.993
324.87	0.990
325.08	0.991
325.29	0.969
325.50	0.962
325.71	0.968
325.92	0.975
326.13	0.960
326.34	0.961
326.55	0.970
326.76	0.968
326.97	0.957
327.18	0.951
327.39	0.978
327.60	0.978
327.80	0.978
328.01	0.975
328.22	0.974
328.43	0.977
328.64	0.965
328.85	0.969
329.06	0.972
329.27	0.971
329.48	0.966
329.69	0.947
329.90	0.958
330.11	0.950
330.32	0.942
330.53	0.937
330.74	0.936
330.95	0.935
331.16	0.919
331.37	0.927
331.58	0.927
331.79	0.926
332.00	0.917
332.21	0.911
332.42	0.916
332.63	0.908
332.83	0.904
333.04	0.906
333.25	0.919
333.46	0.918
333.67	0.903
333.88	0.906
334.09	0.916
334.30	0.912
334.51	0.902
334.72	0.899
334.93	0.902
335.14	0.901
335.35	0.894
335.56	0.888
335.77	0.896
335.98	0.894
336.18	0.887
336.39	0.881
336.60	0.887
336.81	0.885
337.02	0.883
337.23	0.887
337.44	0.890
337.65	0.892
337.86	0.883
338.07	0.878
338.28	0.883
338.49	0.881
338.70	0.873
338.91	0.879
339.11	0.887
339.32	0.883
339.53	0.871
339.74	0.868
339.95	0.866
340.16	0.864
340.37	0.856
340.58	0.855
340.79	0.859
341.00	0.858
341.21	0.847
341.41	0.847
341.62	0.847
341.83	0.847
342.04	0.842
342.25	0.852
342.46	0.856
342.67	0.854
342.88	0.846
343.09	0.845
343.30	0.853
343.50	0.856
343.71	0.846
343.92	0.846
344.13	0.851
344.34	0.851
344.55	0.834
344.76	0.833
344.97	0.838
345.18	0.837
345.38	0.834
345.59	0.828
345.80	0.829
346.01	0.827
346.22	0.822
346.43	0.816
346.64	0.825
346.85	0.825
347.06	0.817
347.26	0.818
347.47	0.822
347.68	0.818
347.89	0.813
348.10	0.807
348.31	0.815
348.52	0.814
348.73	0.811
348.93	0.807
349.14	0.811
349.35	0.810
349.56	0.804
349.77	0.798
349.98	0.803
350.19	0.801
350.39	0.796
350.60	0.791
350.81	0.807
351.02	0.806
351.23	0.801
351.44	0.804
351.65	0.807
351.86	0.804
352.06	0.803
352.27	0.804
352.48	0.806
352.69	0.806
352.90	0.801
353.11	0.787
353.31	0.793
353.52	0.790
353.73	0.781
353.94	0.783
354.15	0.789
354.36	0.789
354.57	0.780
354.77	0.781
354.98	0.781
355.19	0.780
355.40	0.779
355.61	0.785
355.82	0.790
356.02	0.789
356.23	0.782
356.44	0.785
356.65	0.788
356.86	0.789
357.07	0.782
357.27	0.786
357.48	0.788
357.69	0.784
357.90	0.769
358.11	0.765
358.32	0.770
358.52	0.772
358.73	0.761
358.94	0.764
359.15	0.769
359.36	0.769
359.56	0.763
359.77	0.760
359.98	0.768
360.19	0.767
360.40	0.763
360.61	0.763
360.81	0.762
361.02	0.763
361.23	0.754
361.44	0.752
361.65	0.753
361.85	0.753
362.06	0.751
362.27	0.754
362.48	0.755
362.69	0.757
362.89	0.752
363.10	0.754
363.31	0.759
363.52	0.762
363.73	0.757
363.93	0.757
364.14	0.759
364.35	0.761
364.56	0.750
364.77	0.751
364.97	0.754
365.18	0.753
365.39	0.747
365.60	0.744
365.81	0.745
366.01	0.745
366.22	0.742
366.43	0.741
366.64	0.742
366.84	0.747
367.05	0.744
367.26	0.743
367.47	0.745
367.68	0.745
367.88	0.742
368.09	0.740
368.30	0.743
368.51	0.742
368.71	0.741
368.92	0.746
369.13	0.745
369.34	0.744
369.55	0.742
369.75	0.742
369.96	0.749
370.17	0.749
370.38	0.745
370.58	0.745
370.79	0.751
371.00	0.749
371.21	0.740
371.41	0.745
371.62	0.749
371.83	0.745
372.04	0.743
372.24	0.736
372.45	0.737
372.66	0.738
372.87	0.734
373.07	0.731
373.28	0.732
373.49	0.736
373.70	0.727
373.90	0.726
374.11	0.735
374.32	0.735
374.53	0.733
374.73	0.734
374.94	0.737
375.15	0.737
375.36	0.734
375.56	0.743
375.77	0.743
375.98	0.744
376.19	0.741
376.39	0.734
376.60	0.738
376.81	0.738
377.02	0.735
377.22	0.734
377.43	0.734
377.64	0.733
377.84	0.724
378.05	0.728
378.26	0.734
378.47	0.733
378.67	0.729
378.88	0.727
379.09	0.728
379.30	0.728
379.50	0.725
379.71	0.727
379.92	0.730
380.12	0.730
380.33	0.722
380.54	0.718
380.75	0.725
380.95	0.725
381.16	0.723
381.37	0.723
381.57	0.725
381.78	0.725
381.99	0.725
382.20	0.724
382.40	0.726
382.61	0.727
382.82	0.724
383.02	0.716
383.23	0.721
383.44	0.721
383.64	0.719
383.85	0.722
384.06	0.725
384.27	0.722
384.47	0.720
384.68	0.722
384.89	0.727
385.09	0.726
385.30	0.725
385.51	0.723
385.71	0.727
385.92	0.727
386.13	0.725
386.33	0.727
386.54	0.728
386.75	0.727
386.95	0.722
387.16	0.718
387.37	0.720
387.58	0.721
387.78	0.718
387.99	0.716
388.20	0.718
388.40	0.715
388.61	0.710
388.82	0.714
389.02	0.716
389.23	0.716
389.44	0.715
389.64	0.714
389.85	0.725
390.06	0.725
390.26	0.725
390.47	0.725
390.68	0.727
390.88	0.726
391.09	0.721
391.30	0.721
391.50	0.721
391.71	0.720
391.92	0.718
392.12	0.710
392.33	0.711
392.53	0.710
392.74	0.710
392.95	0.710
393.15	0.713
393.36	0.714
393.57	0.711
393.77	0.715
393.98	0.717
394.19	0.716
394.39	0.715
394.60	0.717
394.81	0.719
395.01	0.716
395.22	0.713
395.43	0.714
395.63	0.719
395.84	0.720
396.04	0.716
396.25	0.718
396.46	0.720
396.66	0.718
396.87	0.715
397.08	0.711
397.28	0.715
397.49	0.717
397.69	0.713
397.90	0.708
398.11	0.709
398.31	0.710
398.52	0.706
398.73	0.707
398.93	0.708
399.14	0.707
399.34	0.706
399.55	0.707
399.76	0.706
399.96	0.708
400.17	0.706
400.37	0.704
400.58	0.710
400.79	0.712
400.99	0.709
401.20	0.715
401.41	0.717
401.61	0.718
401.82	0.723
402.02	0.723
402.23	0.724
402.44	0.723
402.64	0.723
402.85	0.718
403.05	0.716
403.26	0.715
403.47	0.708
403.67	0.707
403.88	0.708
404.08	0.702
404.29	0.700
404.50	0.700
404.70	0.701
404.91	0.700
405.11	0.697
405.32	0.697
405.52	0.697
405.73	0.697
405.94	0.696
406.14	0.698
406.35	0.700
406.55	0.699
406.76	0.697
406.97	0.698
407.17	0.700
407.38	0.700
407.58	0.699
407.79	0.702
407.99	0.705
408.20	0.705
408.41	0.701
408.61	0.699
408.82	0.700
409.02	0.699
409.23	0.697
409.43	0.696
409.64	0.698
409.84	0.697
410.05	0.694
410.26	0.692
410.46	0.692
410.67	0.691
410.87	0.693
411.08	0.695
411.28	0.697
411.49	0.698
411.69	0.696
411.90	0.697
412.11	0.699
412.31	0.700
412.52	0.698
412.72	0.699
412.93	0.700
413.13	0.699
413.34	0.695
413.54	0.696
413.75	0.698
413.95	0.697
414.16	0.693
414.37	0.696
414.57	0.697
414.78	0.699
414.98	0.696
415.19	0.697
415.39	0.695
415.60	0.697
415.80	0.695
416.01	0.694
416.21	0.696
416.42	0.696
416.62	0.691
416.83	0.691
417.03	0.691
417.24	0.692
417.44	0.689
417.65	0.689
417.86	0.690
418.06	0.688
418.27	0.686
418.47	0.688
418.68	0.688
418.88	0.689
419.09	0.687
419.29	0.687
419.50	0.688
419.70	0.687
419.91	0.686
420.11	0.683
420.32	0.686
420.52	0.686
420.73	0.685
420.93	0.685
421.14	0.687
421.34	0.686
421.55	0.683
421.75	0.682
421.96	0.684
422.16	0.684
422.37	0.683
422.57	0.680
422.78	0.681
422.98	0.677
423.19	0.676
423.39	0.674
423.60	0.678
423.80	0.679
424.01	0.678
424.21	0.680
424.42	0.681
424.62	0.681
424.83	0.680
425.03	0.680
425.23	0.683
425.44	0.683
425.64	0.683
425.85	0.682
426.05	0.683
426.26	0.683
426.46	0.679
426.67	0.679
426.87	0.684
427.08	0.685
427.28	0.682
427.49	0.683
427.69	0.684
427.90	0.683
428.10	0.681
428.31	0.680
428.51	0.682
428.71	0.682
428.92	0.682
429.12	0.679
429.33	0.680
429.53	0.684
429.74	0.687
429.94	0.688
430.15	0.687
430.35	0.686
430.56	0.684
430.76	0.683
430.96	0.684
431.17	0.681
431.37	0.679
431.58	0.677
431.78	0.674
431.99	0.667
432.19	0.669
432.40	0.670
432.60	0.672
432.80	0.674
433.01	0.673
433.21	0.672
433.42	0.675
433.62	0.675
433.83	0.675
434.03	0.678
434.23	0.681
434.44	0.680
434.64	0.678
434.85	0.683
435.05	0.684
435.26	0.684
435.46	0.683
435.66	0.682
435.87	0.682
436.07	0.682
436.28	0.677
436.48	0.675
436.69	0.674
436.89	0.674
437.09	0.667
437.30	0.666
437.50	0.667
437.71	0.678
437.91	0.677
438.11	0.678
438.32	0.683
438.52	0.684
438.73	0.682
438.93	0.681
439.13	0.681
439.34	0.685
439.54	0.683
439.75	0.683
439.95	0.673
440.15	0.677
440.36	0.675
440.56	0.672
440.77	0.673
440.97	0.673
441.17	0.672
441.38	0.673
441.58	0.671
441.79	0.670
441.99	0.668
442.19	0.667
442.40	0.665
442.60	0.666
442.81	0.663
443.01	0.664
443.21	0.664
443.42	0.663
443.62	0.662
443.82	0.661
444.03	0.663
444.23	0.663
444.44	0.664
444.64	0.663
444.84	0.664
445.05	0.664
445.25	0.661
445.45	0.662
445.66	0.665
445.86	0.664
446.06	0.665
446.27	0.664
446.47	0.667
446.68	0.665
446.88	0.663
447.08	0.662
447.29	0.664
447.49	0.665
447.69	0.664
447.90	0.663
448.10	0.667
448.30	0.665
448.51	0.665
448.71	0.663
448.91	0.666
449.12	0.665
449.32	0.666
449.52	0.665
449.73	0.668
449.93	0.667
450.14	0.668
450.34	0.667
450.54	0.670
450.75	0.667
450.95	0.667
451.15	0.666
451.36	0.669
451.56	0.666
451.76	0.665
451.97	0.662
452.17	0.663
452.37	0.661
452.58	0.658
452.78	0.657
452.98	0.660
453.19	0.658
453.39	0.659
453.59	0.658
453.79	0.659
454.00	0.659
454.20	0.658
454.40	0.659
454.61	0.662
454.81	0.663
455.01	0.661
455.22	0.662
455.42	0.665
455.62	0.662
455.83	0.662
456.03	0.665
456.23	0.666
456.44	0.667
456.64	0.665
456.84	0.665
457.04	0.667
457.25	0.666
457.45	0.663
457.65	0.661
457.86	0.662
458.06	0.661
458.26	0.656
458.47	0.655
458.67	0.657
458.87	0.657
459.07	0.654
459.28	0.656
459.48	0.658
459.68	0.658
459.89	0.657
460.09	0.656
460.29	0.657
460.49	0.659
460.70	0.658
460.90	0.658
461.10	0.658
461.31	0.658
461.51	0.655
461.71	0.656
461.91	0.657
462.12	0.657
462.32	0.655
462.52	0.656
462.72	0.660
462.93	0.660
463.13	0.658
463.33	0.659
463.53	0.661
463.74	0.660
463.94	0.656
464.14	0.657
464.35	0.659
464.55	0.659
464.75	0.657
464.95	0.654
465.16	0.657
465.36	0.656
465.56	0.655
465.76	0.654
465.97	0.655
466.17	0.656
466.37	0.653
466.57	0.654
466.78	0.655
466.98	0.655
467.18	0.653
467.38	0.651
467.59	0.653
467.79	0.654
467.99	0.653
468.19	0.654
468.39	0.657
468.60	0.657
468.80	0.655
469.00	0.656
469.20	0.658
469.41	0.658
469.61	0.657
469.81	0.657
470.01	0.657
470.22	0.657
470.42	0.656
470.62	0.653
470.82	0.655
471.02	0.654
471.23	0.651
471.43	0.651
471.63	0.654
471.83	0.653
472.04	0.651
472.24	0.650
472.44	0.656
472.64	0.656
472.84	0.654
473.05	0.653
473.25	0.657
473.45	0.656
473.65	0.655
473.85	0.656
474.06	0.658
474.26	0.658
474.46	0.659
474.66	0.655
474.86	0.656
475.07	0.656
475.27	0.654
475.47	0.651
475.67	0.652
475.87	0.654
476.08	0.651
476.28	0.651
476.48	0.652
476.68	0.651
476.88	0.649
477.09	0.651
477.29	0.653
477.49	0.652
477.69	0.651
477.89	0.651
478.09	0.651
478.30	0.653
478.50	0.650
478.70	0.649
478.90	0.650
479.10	0.652
479.31	0.653
479.51	0.651
479.71	0.652
479.91	0.652
480.11	0.651
480.31	0.651
480.52	0.650
480.72	0.649
480.92	0.648
481.12	0.647
481.32	0.644
481.52	0.642
481.72	0.642
481.93	0.645
482.13	0.646
482.33	0.645
482.53	0.643
482.73	0.644
482.93	0.646
483.14	0.645
483.34	0.644
483.54	0.646
483.74	0.645
483.94	0.644
484.14	0.640
484.34	0.639
484.55	0.640
484.75	0.640
484.95	0.638
485.15	0.638
485.35	0.638
485.55	0.638
485.75	0.636
485.96	0.636
486.16	0.638
486.36	0.637
486.56	0.636
486.76	0.636
486.96	0.637
487.16	0.636
487.36	0.634
487.57	0.634
487.77	0.635
487.97	0.635
488.17	0.633
488.37	0.632
488.57	0.633
488.77	0.634
488.97	0.632
489.18	0.632
489.38	0.634
489.58	0.635
489.78	0.634
489.98	0.634
490.18	0.634
490.38	0.634
490.58	0.633
490.78	0.634
490.98	0.635
491.19	0.636
491.39	0.635
491.59	0.634
491.79	0.637
491.99	0.637
492.19	0.636
492.39	0.639
492.59	0.640
492.79	0.641
492.99	0.642
493.20	0.642
493.40	0.642
493.60	0.643
493.80	0.642
494.00	0.640
494.20	0.641
494.40	0.640
494.60	0.637
494.80	0.642
495.00	0.641
495.20	0.639
495.40	0.638
495.61	0.640
495.81	0.640
496.01	0.643
496.21	0.644
496.41	0.643
496.61	0.644
496.81	0.643
497.01	0.638
497.21	0.637
497.41	0.638
497.61	0.637
497.81	0.635
498.01	0.635
498.21	0.633
498.41	0.630
498.61	0.630
498.82	0.632
499.02	0.634
499.22	0.634
499.42	0.634
499.62	0.635
499.82	0.636
500.02	0.637
500.22	0.635
500.42	0.638
500.62	0.639
500.82	0.640
501.02	0.637
501.22	0.637
501.42	0.637
501.62	0.639
501.82	0.638
502.02	0.638
502.22	0.638
502.42	0.639
502.62	0.636
502.82	0.636
503.02	0.636
503.22	0.636
503.42	0.634
503.63	0.634
503.83	0.632
504.03	0.631
504.23	0.630
504.43	0.631
504.63	0.632
504.83	0.632
505.03	0.631
505.23	0.633
505.43	0.635
505.63	0.636
505.83	0.635
506.03	0.637
506.23	0.639
506.43	0.639
506.63	0.638
506.83	0.637
507.03	0.639
507.23	0.639
507.43	0.636
507.63	0.637
507.83	0.637
508.03	0.637
508.23	0.637
508.43	0.635
508.63	0.637
508.83	0.637
509.03	0.638
509.23	0.637
509.43	0.638
509.63	0.639
509.83	0.637
510.03	0.640
510.23	0.642
510.43	0.643
510.63	0.643
510.83	0.643
511.03	0.645
511.23	0.642
511.43	0.642
511.63	0.643
511.83	0.646
512.03	0.646
512.22	0.642
512.42	0.642
512.62	0.643
512.82	0.642
513.02	0.642
513.22	0.642
513.42	0.644
513.62	0.646
513.82	0.645
514.02	0.644
514.22	0.644
514.42	0.645
514.62	0.644
514.82	0.644
515.02	0.647
515.22	0.650
515.42	0.649
515.62	0.651
515.82	0.650
516.02	0.651
516.22	0.651
516.42	0.652
516.62	0.654
516.82	0.655
517.01	0.653
517.21	0.653
517.41	0.656
517.61	0.656
517.81	0.652
518.01	0.652
518.21	0.652
518.41	0.651
518.61	0.650
518.81	0.650
519.01	0.651
519.21	0.651
519.41	0.650
519.61	0.645
519.81	0.648
520.00	0.648
520.20	0.648
520.40	0.651
520.60	0.652
520.80	0.652
521.00	0.652
521.20	0.653
521.40	0.658
521.60	0.658
521.80	0.657
522.00	0.657
522.20	0.659
522.39	0.659
522.59	0.656
522.79	0.658
522.99	0.660
523.19	0.658
523.39	0.656
523.59	0.654
523.79	0.656
523.99	0.659
524.19	0.658
524.38	0.657
524.58	0.659
524.78	0.659
524.98	0.657
525.18	0.660
525.38	0.661
525.58	0.661
525.78	0.659
525.98	0.658
526.18	0.657
526.37	0.657
526.57	0.658
526.77	0.658
526.97	0.658
527.17	0.658
527.37	0.653
527.57	0.656
527.77	0.658
527.96	0.658
528.16	0.657
528.36	0.658
528.56	0.660
528.76	0.657
528.96	0.656
529.16	0.658
529.36	0.661
529.55	0.661
529.75	0.657
529.95	0.657
530.15	0.659
530.35	0.662
530.55	0.659
530.75	0.660
530.94	0.662
531.14	0.662
531.34	0.660
531.54	0.658
531.74	0.662
531.94	0.665
532.13	0.664
532.33	0.665
532.53	0.663
532.73	0.664
532.93	0.661
533.13	0.663
533.33	0.663
533.52	0.663
533.72	0.666
533.92	0.664
534.12	0.662
534.32	0.663
534.52	0.661
534.71	0.663
534.91	0.665
535.11	0.668
535.31	0.665
535.51	0.668
535.71	0.669
535.90	0.666
536.10	0.667
536.30	0.669
536.50	0.670
536.70	0.670
536.89	0.668
537.09	0.667
537.29	0.668
537.49	0.669
537.69	0.667
537.89	0.668
538.08	0.668
538.28	0.667
538.48	0.666
538.68	0.668
538.88	0.671
539.07	0.670
539.27	0.668
539.47	0.667
539.67	0.667
539.87	0.669
540.06	0.666
540.26	0.667
540.46	0.669
540.66	0.666
540.86	0.664
541.05	0.664
541.25	0.666
541.45	0.666
541.65	0.665
541.84	0.667
542.04	0.668
542.24	0.669
542.44	0.667
542.64	0.669
542.83	0.672
543.03	0.671
543.23	0.669
543.43	0.670
543.62	0.672
543.82	0.672
544.02	0.670
544.22	0.671
544.42	0.674
544.61	0.674
544.81	0.671
545.01	0.670
545.21	0.672
545.40	0.673
545.60	0.670
545.80	0.673
546.00	0.673
546.19	0.672
546.39	0.671
546.59	0.669
546.79	0.670
546.98	0.671
547.18	0.671
547.38	0.672
547.58	0.674
547.77	0.674
547.97	0.671
548.17	0.672
548.37	0.673
548.56	0.673
548.76	0.672
548.96	0.674
549.16	0.676
549.35	0.675
549.55	0.673
549.75	0.673
549.95	0.677
550.14	0.677
550.34	0.675
550.54	0.680
550.73	0.684
550.93	0.685
551.13	0.682
551.33	0.680
551.52	0.682
551.72	0.682
551.92	0.679
552.12	0.680
552.31	0.680
552.51	0.680
552.71	0.674
552.90	0.675
553.10	0.676
553.30	0.676
553.50	0.675
553.69	0.677
553.89	0.678
554.09	0.677
554.28	0.674
554.48	0.676
554.68	0.679
554.87	0.679
555.07	0.675
555.27	0.675
555.47	0.677
555.66	0.678
555.86	0.676
556.06	0.678
556.25	0.680
556.45	0.688
556.65	0.686
556.84	0.689
557.04	0.692
557.24	0.693
557.43	0.693
557.63	0.696
557.83	0.698
558.02	0.698
558.22	0.702
558.42	0.702
558.61	0.695
558.81	0.696
559.01	0.692
559.21	0.691
559.40	0.692
559.60	0.692
559.80	0.689
559.99	0.690
560.19	0.692
560.39	0.686
560.58	0.683
560.78	0.684
560.97	0.687
561.17	0.686
561.37	0.683
561.56	0.684
561.76	0.686
561.96	0.685
562.15	0.683
562.35	0.685
562.55	0.687
562.74	0.687
562.94	0.685
563.14	0.683
563.33	0.684
563.53	0.684
563.73	0.683
563.92	0.684
564.12	0.687
564.31	0.689
564.51	0.686
564.71	0.688
564.90	0.692
565.10	0.692
565.30	0.695
565.49	0.696
565.69	0.699
565.89	0.698
566.08	0.695
566.28	0.696
566.47	0.698
566.67	0.697
566.87	0.694
567.06	0.695
567.26	0.701
567.46	0.697
567.65	0.696
567.85	0.698
568.04	0.701
568.24	0.700
568.44	0.697
568.63	0.695
568.83	0.696
569.02	0.695
569.22	0.690
569.42	0.686
569.61	0.689
569.81	0.687
570.00	0.685
570.20	0.686
570.40	0.688
570.59	0.687
570.79	0.685
570.98	0.684
571.18	0.685
571.38	0.685
571.57	0.682
571.77	0.679
571.96	0.683
572.16	0.680
572.35	0.675
572.55	0.676
572.75	0.675
572.94	0.674
573.14	0.673
573.33	0.673
573.53	0.673
573.73	0.672
573.92	0.671
574.12	0.669
574.31	0.672
574.51	0.672
574.70	0.669
574.90	0.670
575.09	0.673
575.29	0.673
575.49	0.670
575.68	0.671
575.88	0.673
576.07	0.674
576.27	0.671
576.46	0.670
576.66	0.669
576.86	0.669
577.05	0.667
577.25	0.665
577.44	0.666
577.64	0.666
577.83	0.664
578.03	0.666
578.22	0.666
578.42	0.665
578.61	0.663
578.81	0.664
579.00	0.665
579.20	0.664
579.40	0.663
579.59	0.662
579.79	0.662
579.98	0.662
580.18	0.661
580.37	0.661
580.57	0.663
580.76	0.667
580.96	0.665
581.15	0.666
581.35	0.668
581.54	0.667
581.74	0.667
581.93	0.668
582.13	0.670
582.32	0.667
582.52	0.665
582.71	0.664
582.91	0.661
583.10	0.661
583.30	0.660
583.49	0.660
583.69	0.663
583.88	0.664
584.08	0.663
584.27	0.665
584.47	0.669
584.66	0.670
584.86	0.669
585.05	0.671
585.25	0.673
585.44	0.672
585.64	0.670
585.83	0.667
586.03	0.668
586.22	0.666
586.42	0.662
586.61	0.664
586.81	0.666
587.00	0.666
587.20	0.663
587.39	0.664
587.59	0.667
587.78	0.668
587.98	0.668
588.17	0.669
588.37	0.672
588.56	0.674
588.76	0.670
588.95	0.670
589.15	0.674
589.34	0.677
589.54	0.675
589.73	0.676
589.92	0.679
590.12	0.679
590.31	0.677
590.51	0.681
590.70	0.683
590.90	0.683
591.09	0.681
591.29	0.679
591.48	0.679
591.68	0.680
591.87	0.678
592.06	0.678
592.26	0.681
592.45	0.680
592.65	0.674
592.84	0.674
593.04	0.677
593.23	0.680
593.43	0.677
593.62	0.676
593.81	0.678
594.01	0.677
594.20	0.674
594.40	0.673
594.59	0.675
594.79	0.676
594.98	0.674
595.17	0.674
595.37	0.674
595.56	0.676
595.76	0.675
595.95	0.677
596.14	0.680
596.34	0.681
596.53	0.679
596.73	0.681
596.92	0.682
597.12	0.685
597.31	0.684
597.50	0.683
597.70	0.686
597.89	0.685
598.09	0.681
598.28	0.683
598.47	0.685
598.67	0.683
598.86	0.680
599.06	0.682
599.25	0.682
599.44	0.680
599.64	0.677
599.83	0.675
600.03	0.677
600.22	0.678
600.41	0.677
600.61	0.675
600.80	0.678
601.00	0.678
601.19	0.674
601.38	0.673
601.58	0.675
601.77	0.676
601.96	0.678
602.16	0.678
602.35	0.687
602.55	0.686
602.74	0.686
602.93	0.687
603.13	0.693
603.32	0.694
603.51	0.694
603.71	0.697
603.90	0.699
604.09	0.699
604.29	0.696
604.48	0.690
604.68	0.691
604.87	0.690
605.06	0.686
605.26	0.683
605.45	0.684
605.64	0.683
605.84	0.678
606.03	0.677
606.22	0.676
606.42	0.676
606.61	0.672
606.80	0.673
607.00	0.675
607.19	0.675
607.38	0.673
607.58	0.674
607.77	0.676
607.96	0.676
608.16	0.675
608.35	0.680
608.54	0.683
608.74	0.686
608.93	0.690
609.12	0.693
609.32	0.696
609.51	0.700
609.70	0.699
609.90	0.701
610.09	0.706
610.28	0.711
610.48	0.705
610.67	0.706
610.86	0.707
611.06	0.702
611.25	0.699
611.44	0.700
611.64	0.700
611.83	0.703
612.02	0.698
612.21	0.697
612.41	0.696
612.60	0.695
612.79	0.690
612.99	0.691
613.18	0.693
613.37	0.691
613.57	0.688
613.76	0.689
613.95	0.688
614.14	0.687
614.34	0.685
614.53	0.686
614.72	0.689
614.92	0.690
615.11	0.687
615.30	0.684
615.49	0.686
615.69	0.688
615.88	0.685
616.07	0.686
616.26	0.689
616.46	0.690
616.65	0.686
616.84	0.685
617.04	0.687
617.23	0.690
617.42	0.690
617.61	0.695
617.81	0.696
618.00	0.697
618.19	0.695
618.38	0.699
618.58	0.703
618.77	0.705
618.96	0.704
619.15	0.706
619.35	0.709
619.54	0.709
619.73	0.704
619.92	0.706
620.12	0.711
620.31	0.711
620.50	0.706
620.69	0.706
620.89	0.709
621.08	0.708
621.27	0.708
621.46	0.706
621.66	0.710
621.85	0.710
622.04	0.706
622.23	0.706
622.43	0.708
622.62	0.707
622.81	0.705
623.00	0.705
623.19	0.709
623.39	0.708
623.58	0.705
623.77	0.704
623.96	0.708
624.16	0.708
624.35	0.703
624.54	0.705
624.73	0.710
624.92	0.708
625.12	0.705
625.31	0.705
625.50	0.708
625.69	0.709
625.88	0.705
626.08	0.705
626.27	0.707
626.46	0.707
626.65	0.704
626.84	0.703
627.04	0.709
627.23	0.709
627.42	0.705
627.61	0.707
627.80	0.710
628.00	0.710
628.19	0.708
628.38	0.711
628.57	0.715
628.76	0.715
628.96	0.711
629.15	0.711
629.34	0.713
629.53	0.714
629.72	0.708
629.91	0.709
630.11	0.714
630.30	0.714
630.49	0.716
630.68	0.716
630.87	0.719
631.06	0.723
631.26	0.718
631.45	0.719
631.64	0.728
631.83	0.731
632.02	0.728
632.21	0.727
632.41	0.734
632.60	0.728
632.79	0.726
632.98	0.728
633.17	0.728
633.36	0.729
633.55	0.727
633.75	0.722
633.94	0.722
634.13	0.722
634.32	0.719
634.51	0.714
634.70	0.716
634.89	0.715
635.09	0.711
635.28	0.712
635.47	0.715
635.66	0.718
635.85	0.714
636.04	0.716
636.23	0.721
636.43	0.723
636.62	0.721
636.81	0.721
637.00	0.724
637.19	0.727
637.38	0.724
637.57	0.723
637.76	0.725
637.95	0.727
638.15	0.723
638.34	0.719
638.53	0.723
638.72	0.725
638.91	0.721
639.10	0.719
639.29	0.721
639.48	0.721
639.67	0.720
639.87	0.718
640.06	0.724
640.25	0.723
640.44	0.724
640.63	0.724
640.82	0.727
641.01	0.727
641.20	0.726
641.39	0.727
641.58	0.729
641.78	0.728
641.97	0.724
642.16	0.739
642.35	0.740
642.54	0.739
642.73	0.733
642.92	0.731
643.11	0.735
643.30	0.735
643.49	0.730
643.68	0.731
643.87	0.732
644.06	0.733
644.25	0.712
644.45	0.715
644.64	0.716
644.83	0.716
645.02	0.713
645.21	0.713
645.40	0.715
645.59	0.714
645.78	0.709
645.97	0.711
646.16	0.711
646.35	0.710
646.54	0.708
646.73	0.709
646.92	0.712
647.11	0.711
647.30	0.707
647.49	0.708
647.68	0.709
647.88	0.707
648.07	0.700
648.26	0.703
648.45	0.706
648.64	0.702
648.83	0.699
649.02	0.701
649.21	0.712
649.40	0.712
649.59	0.706
649.78	0.707
649.97	0.723
650.16	0.722
650.35	0.717
650.54	0.719
650.73	0.727
650.92	0.723
651.11	0.717
651.30	0.714
651.49	0.717
651.68	0.718
651.87	0.714
652.06	0.704
652.25	0.708
652.44	0.710
652.63	0.707
652.82	0.707
653.01	0.707
653.20	0.703
653.39	0.692
653.58	0.690
653.77	0.689
653.96	0.684
654.15	0.675
654.34	0.673
654.53	0.668
654.72	0.663
654.91	0.653
655.10	0.649
655.29	0.648
655.48	0.646
655.67	0.640
655.86	0.637
656.05	0.636
656.24	0.636
656.43	0.631
656.62	0.630
656.81	0.630
657.00	0.628
657.19	0.625
657.38	0.625
657.57	0.625
657.76	0.628
657.95	0.626
658.14	0.629
658.33	0.633
658.51	0.638
658.70	0.638
658.89	0.640
659.08	0.650
659.27	0.658
659.46	0.658
659.65	0.665
659.84	0.667
660.03	0.672
660.22	0.672
660.41	0.676
660.60	0.676
660.79	0.677
660.98	0.683
661.17	0.682
661.36	0.681
661.55	0.682
661.74	0.680
661.92	0.683
662.11	0.685
662.30	0.684
662.49	0.677
662.68	0.676
662.87	0.679
663.06	0.672
663.25	0.672
663.44	0.673
663.63	0.674
663.82	0.672
664.01	0.667
664.20	0.666
664.38	0.667
664.57	0.668
664.76	0.667
664.95	0.668
665.14	0.673
665.33	0.668
665.52	0.675
665.71	0.680
665.90	0.680
666.09	0.680
666.28	0.678
666.46	0.678
666.65	0.679
666.84	0.677
667.03	0.672
667.22	0.668
667.41	0.672
667.60	0.661
667.79	0.654
667.98	0.655
668.16	0.657
668.35	0.657
668.54	0.652
668.73	0.653
668.92	0.654
669.11	0.653
669.30	0.647
669.49	0.644
669.67	0.646
669.86	0.649
670.05	0.646
670.24	0.644
670.43	0.642
670.62	0.641
670.81	0.635
671.00	0.637
671.18	0.636
671.37	0.635
671.56	0.633
671.75	0.632
671.94	0.629
672.13	0.626
672.32	0.621
672.50	0.620
672.69	0.621
672.88	0.621
673.07	0.616
673.26	0.619
673.45	0.621
673.63	0.621
673.82	0.617
674.01	0.618
674.20	0.618
674.39	0.617
674.58	0.617
674.76	0.617
674.95	0.616
675.14	0.616
675.33	0.611
675.52	0.610
675.71	0.610
675.89	0.610
676.08	0.606
676.27	0.606
676.46	0.606
676.65	0.605
676.84	0.604
677.02	0.606
677.21	0.609
677.40	0.608
677.59	0.606
677.78	0.606
677.96	0.608
678.15	0.607
678.34	0.605
678.53	0.606
678.72	0.606
678.90	0.603
679.09	0.598
679.28	0.594
679.47	0.593
679.66	0.593
679.84	0.589
680.03	0.587
680.22	0.586
680.41	0.588
680.60	0.583
680.78	0.583
680.97	0.586
681.16	0.586
681.35	0.586
681.53	0.585
681.72	0.586
681.91	0.588
682.10	0.587
682.29	0.590
682.47	0.587
682.66	0.587
682.85	0.586
683.04	0.584
683.22	0.584
683.41	0.586
683.60	0.584
683.79	0.585
683.97	0.585
684.16	0.583
684.35	0.578
684.54	0.580
684.72	0.580
684.91	0.580
685.10	0.578
685.29	0.579
685.47	0.576
685.66	0.575
685.85	0.571
686.04	0.570
686.22	0.574
686.41	0.577
686.60	0.574
686.79	0.578
686.97	0.579
687.16	0.580
687.35	0.578
687.54	0.581
687.72	0.585
687.91	0.585
688.10	0.586
688.29	0.585
688.47	0.583
688.66	0.582
688.85	0.578
689.03	0.576
689.22	0.580
689.41	0.580
689.60	0.575
689.78	0.573
689.97	0.575
690.16	0.573
690.34	0.569
690.53	0.568
690.72	0.568
690.91	0.566
691.09	0.563
691.28	0.557
691.47	0.556
691.65	0.555
691.84	0.552
692.03	0.550
692.21	0.548
692.40	0.548
692.59	0.546
692.77	0.545
692.96	0.547
693.15	0.547
693.34	0.545
693.52	0.545
693.71	0.545
693.90	0.547
694.08	0.547
694.27	0.548
694.46	0.558
694.64	0.559
694.83	0.558
695.02	0.556
695.20	0.556
695.39	0.556
695.58	0.556
695.76	0.557
695.95	0.557
696.14	0.556
696.32	0.554
696.51	0.544
696.70	0.544
696.88	0.546
697.07	0.545
697.26	0.547
697.44	0.548
697.63	0.547
697.81	0.544
698.00	0.544
698.19	0.543
698.37	0.543
698.56	0.542
698.75	0.542
698.93	0.542
699.12	0.542
699.31	0.541
699.49	0.540
699.68	0.541
699.87	0.544
700.05	0.544
700.24	0.543
700.42	0.544
700.61	0.544
700.80	0.542
700.98	0.542
701.17	0.543
701.36	0.542
701.54	0.541
701.73	0.543
701.91	0.540
702.10	0.539
702.29	0.538
702.47	0.537
702.66	0.539
702.84	0.540
703.03	0.538
703.22	0.540
703.40	0.540
703.59	0.541
703.77	0.540
703.96	0.540
704.15	0.541
704.33	0.541
704.52	0.539
704.70	0.538
704.89	0.538
705.08	0.537
705.26	0.533
705.45	0.533
705.63	0.533
705.82	0.530
706.00	0.528
706.19	0.528
706.38	0.528
706.56	0.528
706.75	0.526
706.93	0.525
707.12	0.527
707.30	0.527
707.49	0.524
707.68	0.522
707.86	0.523
708.05	0.522
708.23	0.520
708.42	0.520
708.60	0.522
708.79	0.522
708.98	0.520
709.16	0.520
709.35	0.522
709.53	0.526
709.72	0.525
709.90	0.527
710.09	0.529
710.27	0.530
710.46	0.534
710.64	0.532
710.83	0.534
711.02	0.535
711.20	0.533
711.39	0.532
711.57	0.530
711.76	0.530
711.94	0.528
712.13	0.529
712.31	0.529
712.50	0.525
712.68	0.522
712.87	0.524
713.05	0.524
713.24	0.525
713.42	0.524
713.61	0.525
713.79	0.526
713.98	0.525
714.16	0.526
714.35	0.526
714.54	0.527
714.72	0.527
714.91	0.525
715.09	0.531
715.28	0.535
715.46	0.534
715.65	0.532
715.83	0.532
716.02	0.535
716.20	0.531
716.39	0.531
716.57	0.532
716.76	0.534
716.94	0.535
717.12	0.527
717.31	0.527
717.49	0.531
717.68	0.532
717.86	0.531
718.05	0.533
718.23	0.535
718.42	0.537
718.60	0.538
718.79	0.547
718.97	0.549
719.16	0.549
719.34	0.546
719.53	0.546
719.71	0.546
719.90	0.547
720.08	0.544
720.27	0.545
720.45	0.545
720.63	0.544
720.82	0.537
721.00	0.540
721.19	0.544
721.37	0.543
721.56	0.544
721.74	0.547
721.93	0.557
722.11	0.565
722.30	0.563
722.48	0.568
722.66	0.570
722.85	0.569
723.03	0.570
723.22	0.570
723.40	0.573
723.59	0.572
723.77	0.576
723.95	0.568
724.14	0.569
724.32	0.572
724.51	0.571
724.69	0.572
724.88	0.572
725.06	0.571
725.24	0.571
725.43	0.572
725.61	0.575
725.80	0.569
725.98	0.566
726.16	0.563
726.35	0.569
726.53	0.567
726.72	0.566
726.90	0.577
727.09	0.578
727.27	0.584
727.45	0.580
727.64	0.589
727.82	0.598
728.01	0.602
728.19	0.599
728.37	0.605
728.56	0.610
728.74	0.616
728.92	0.604
729.11	0.606
729.29	0.605
729.48	0.607
729.66	0.597
729.84	0.597
730.03	0.601
730.21	0.603
730.40	0.591
730.58	0.591
730.76	0.592
730.95	0.596
731.13	0.595
731.31	0.609
731.50	0.619
731.68	0.623
731.86	0.619
732.05	0.634
732.23	0.636
732.42	0.640
732.60	0.645
732.78	0.651
732.97	0.669
733.15	0.677
733.33	0.664
733.52	0.672
733.70	0.683
733.88	0.693
734.07	0.678
734.25	0.708
734.43	0.715
734.62	0.719
734.80	0.713
734.98	0.703
735.17	0.710
735.35	0.716
735.53	0.705
735.72	0.709
735.90	0.732
736.08	0.752
736.27	0.726
736.45	0.738
736.63	0.752
736.82	0.761
737.00	0.761
737.18	0.773
737.37	0.810
737.55	0.833
737.73	0.827
737.92	0.831
738.10	0.828
738.28	0.854
738.46	0.841
738.65	0.855
738.83	0.881
739.01	0.942
739.20	0.934
739.38	0.912
739.56	0.905
739.75	0.911
739.93	0.872
740.11	0.898
740.29	0.889
740.48	0.899
740.66	0.873
740.84	0.866
741.03	0.829
741.21	0.837
741.39	0.816
741.57	0.829
741.76	0.848
741.94	0.856
742.12	0.818
742.31	0.834
742.49	0.857
742.67	0.886
742.85	0.898
743.04	0.903
743.22	0.915
743.40	0.976
743.58	0.955
743.77	0.978
743.95	1.021
744.13	1.081
744.31	1.050
744.50	1.042
744.68	1.046
744.86	1.021
745.04	1.036
745.23	1.115
745.41	1.098
745.59	1.108
745.77	1.058
745.96	1.038
746.14	1.044
746.32	1.047
746.50	1.035
746.69	1.015
746.87	1.028
747.05	1.006
747.23	0.918
747.42	0.904
747.60	0.937
747.78	0.938
747.96	0.971
748.14	0.927
748.33	0.952
748.51	0.945
748.69	0.934
748.87	0.963
749.06	0.966
749.24	0.972
749.42	0.947
749.60	0.923
749.78	0.938
749.97	0.887
750.15	0.883
750.33	0.891
750.51	0.924
750.69	0.930
750.88	0.935
751.06	0.945
751.24	0.973
751.42	0.967
751.60	0.952
751.79	1.035
751.97	1.099
752.15	1.087
752.33	1.043
752.51	1.112
752.69	1.136
752.88	1.095
753.06	1.152
753.24	1.122
753.42	1.173
753.60	1.411
753.78	1.203
753.97	1.220
754.15	1.258
754.33	1.302
754.51	1.135
754.69	1.109
754.87	1.151
755.06	1.056
755.24	1.052
755.42	1.057
755.60	0.946
755.78	0.951
755.96	0.891
756.15	0.889
756.33	0.897
756.51	0.918
756.69	0.902
756.87	0.864
757.05	0.886
757.23	0.870
757.42	0.834
757.60	0.833
757.78	0.828
757.96	0.825
758.14	0.804
758.32	0.784
758.50	0.800
758.69	0.797
758.87	0.788
759.05	0.793
759.23	0.806
759.41	0.807
759.59	0.795
759.77	0.817
759.95	0.850
760.13	0.906
760.32	0.907
760.50	0.900
760.68	0.927
760.86	0.930
761.04	0.899
761.22	0.904
761.40	0.959
761.58	0.965
761.76	0.931
761.95	0.907
762.13	0.856
762.31	0.855
762.49	0.820
762.67	0.843
762.85	0.856
763.03	0.851
763.21	0.828
763.39	0.806
763.57	0.809
763.75	0.804
763.94	0.789
764.12	0.794
764.30	0.822
764.48	0.826
764.66	0.785
764.84	0.784
765.02	0.823
765.20	0.830
765.38	0.810
765.56	0.815
765.74	0.859
765.92	0.861
766.10	0.867
766.28	0.857
766.46	0.886
766.65	0.887
766.83	0.873
767.01	0.854
767.19	0.862
767.37	0.862
767.55	0.849
767.73	0.827
767.91	0.830
768.09	0.819
768.27	0.808
768.45	0.798
768.63	0.804
768.81	0.806
768.99	0.779
769.17	0.808
769.35	0.825
769.53	0.820
769.71	0.799
769.89	0.807
770.07	0.813
770.25	0.793
770.43	0.770
770.61	0.794
770.79	0.799
770.97	0.811
771.15	0.776
771.33	0.777
771.51	0.784
771.69	0.795
771.87	0.802
772.05	0.806
772.24	0.816
772.42	0.827
772.60	0.804
772.78	0.870
772.96	0.903
773.14	0.899
773.32	0.876
773.49	0.880
773.67	0.875
773.85	0.855
774.03	0.844
774.21	0.880
774.39	0.897
774.57	0.924
774.75	0.839
774.93	0.831
775.11	0.853
775.29	0.862
775.47	0.863
775.65	0.876
775.83	0.894
776.01	0.919
776.19	0.862
776.37	0.859
776.55	0.858
776.73	0.854
776.91	0.848
777.09	0.832
777.27	0.829
777.45	0.818
777.63	0.791
777.81	0.786
777.99	0.775
778.17	0.778
778.35	0.756
778.53	0.745
778.71	0.752
778.89	0.734
779.07	0.723
779.24	0.729
779.42	0.729
779.60	0.752
779.78	0.749
779.96	0.753
780.14	0.760
780.32	0.781
780.50	0.763
780.68	0.764
780.86	0.759
781.04	0.777
781.22	0.781
781.40	0.794
781.58	0.784
781.75	0.776
781.93	0.758
782.11	0.760
782.29	0.745
782.47	0.743
782.65	0.730
782.83	0.763
783.01	0.757
783.19	0.747
783.37	0.730
783.55	0.733
783.72	0.753
783.90	0.762
784.08	0.751
784.26	0.766
784.44	0.786
784.62	0.789
784.80	0.748
784.98	0.755
785.16	0.760
785.33	0.773
785.51	0.759
785.69	0.744
785.87	0.746
786.05	0.756
786.23	0.749
786.41	0.748
786.59	0.757
786.77	0.760
786.94	0.743
787.12	0.748
787.30	0.751
787.48	0.748
787.66	0.735
787.84	0.734
788.02	0.724
788.19	0.721
788.37	0.705
788.55	0.706
788.73	0.705
788.91	0.699
789.09	0.682
789.27	0.670
789.44	0.681
789.62	0.685
789.80	0.693
789.98	0.721
790.16	0.707
790.34	0.705
790.51	0.691
790.69	0.713
790.87	0.723
791.05	0.721
791.23	0.713
791.41	0.715
791.58	0.724
791.76	0.704
791.94	0.671
792.12	0.681
792.30	0.684
792.48	0.680
792.65	0.673
792.83	0.678
793.01	0.687
793.19	0.685
793.37	0.668
793.54	0.665
793.72	0.675
793.90	0.674
794.08	0.661
794.26	0.664
794.43	0.675
794.61	0.657
794.79	0.644
794.97	0.642
795.15	0.648
795.32	0.652
795.50	0.641
795.68	0.636
795.86	0.641
796.04	0.642
796.21	0.634
796.39	0.632
796.57	0.647
796.75	0.656
796.92	0.656
797.10	0.663
797.28	0.668
797.46	0.672
797.64	0.672
797.81	0.680
797.99	0.686
798.17	0.690
798.35	0.683
798.52	0.688
798.70	0.684
798.88	0.693
799.06	0.691
799.23	0.692
799.41	0.700
799.59	0.694
799.77	0.683
799.94	0.693
800.12	0.703
800.30	0.721
800.48	0.719
800.65	0.719
800.83	0.710
801.01	0.702
801.19	0.700
801.36	0.697
801.54	0.703
801.72	0.712
801.90	0.697
802.07	0.692
802.25	0.678
802.43	0.661
802.60	0.657
802.78	0.664
802.96	0.669
803.14	0.664
803.31	0.661
803.49	0.660
803.67	0.656
803.84	0.660
804.02	0.650
804.20	0.651
804.38	0.658
804.55	0.655
804.73	0.638
804.91	0.639
805.08	0.652
805.26	0.647
805.44	0.714
805.61	0.718
805.79	0.718
805.97	0.719
806.15	0.712
806.32	0.706
806.50	0.714
806.68	0.714
806.85	0.706
807.03	0.697
807.21	0.717
807.38	0.645
807.56	0.633
807.74	0.644
807.91	0.650
808.09	0.651
808.27	0.672
808.44	0.698
808.62	0.710
808.80	0.710
808.97	0.704
809.15	0.696
809.33	0.715
809.50	0.721
809.68	0.707
809.86	0.717
810.03	0.753
810.21	0.729
810.39	0.710
810.56	0.714
810.74	0.742
810.91	0.818
811.09	0.808
811.27	0.830
811.44	0.840
811.62	0.842
811.80	0.820
811.97	0.784
812.15	0.785
812.33	0.779
812.50	0.766
812.68	0.753
812.85	0.693
813.03	0.697
813.21	0.664
813.38	0.656
813.56	0.659
813.74	0.670
813.91	0.679
814.09	0.712
814.26	0.708
814.44	0.709
814.62	0.697
814.79	0.702
814.97	0.704
815.14	0.708
815.32	0.713
815.50	0.733
815.67	0.737
815.85	0.726
816.02	0.713
816.20	0.719
816.38	0.738
816.55	0.747
816.73	0.744
816.90	0.756
817.08	0.788
817.26	0.793
817.43	0.768
817.61	0.795
817.78	0.818
817.96	0.798
818.13	0.786
818.31	0.784
818.49	0.794
818.66	0.784
818.84	0.771
819.01	0.749
819.19	0.756
819.36	0.757
819.54	0.725
819.71	0.773
819.89	0.788
820.07	0.803
820.24	0.798
820.42	0.802
820.59	0.827
820.77	0.854
820.94	0.848
821.12	0.871
821.29	0.893
821.47	0.896
821.64	0.819
821.82	0.832
822.00	0.835
822.17	0.830
822.35	0.819
822.52	0.820
822.70	0.809
822.87	0.818
823.05	0.793
823.22	0.803
823.40	0.834
823.57	0.859
823.75	0.840
823.92	0.863
824.10	0.892
824.27	0.943
824.45	0.932
824.62	1.006
824.80	1.026
824.97	1.049
825.15	1.037
825.32	1.053
825.50	1.065
825.67	1.078
825.85	1.051
826.02	1.076
826.20	1.113
826.37	1.298
826.55	1.181
826.72	1.544
826.90	1.765
827.07	1.970
827.25	1.778
827.42	-0.000
827.60	-0.000
827.77	-0.000
827.95	-0.000
828.12	-0.000
828.30	-0.000
828.47	-0.000
828.65	1.685
828.82	1.889
829.00	2.333
829.17	-0.000
829.34	-0.000
829.52	-0.000
829.69	-0.000
829.87	-0.000
830.04	-0.000
830.22	-0.000
830.39	-0.000
830.57	-0.000
830.74	-0.000
830.92	-0.000
831.09	-0.000
831.26	-0.000
831.44	-0.000
831.61	-0.000
831.79	-0.000
831.96	-0.000
832.14	-0.000
832.31	-0.000
832.49	-0.000
832.66	-0.000
832.83	-0.000
833.01	-0.000
833.18	-0.000
833.36	-0.000
833.53	-0.000
833.70	-0.000
833.88	-0.000
834.05	-0.000
834.23	-0.000
834.40	-0.000
834.58	-0.000
834.75	-0.000
834.92	-0.000
835.10	-0.000
835.27	-0.000
835.45	-0.000
835.62	-0.000
835.79	-0.000
835.97	-0.000
836.14	-0.000
836.32	-0.000
836.49	-0.000
836.66	-0.000
836.84	-0.000
837.01	-0.000
837.18	-0.000
837.36	-0.000
837.53	-0.000
837.71	-0.000
837.88	-0.000
838.05	-0.000
838.23	-0.000
838.40	-0.000
838.58	-0.000
838.75	-0.000
838.92	-0.000
839.10	-0.000
839.27	-0.000
839.44	-0.000
839.62	-0.000
839.79	-0.000
839.96	-0.000
840.14	-0.000
840.31	-0.000
840.48	-0.000
840.66	-0.000
840.83	-0.000
841.01	-0.000
841.18	-0.000
841.35	-0.000
841.53	-0.000
841.70	-0.000
841.87	-0.000
842.05	-0.000
842.22	-0.000
842.39	-0.000
842.57	-0.000
842.74	-0.000
842.91	-0.000
843.09	-0.000
843.26	-0.000
843.43	-0.000
843.60	-0.000
843.78	-0.000
843.95	-0.000
844.12	-0.000
844.30	-0.000
844.47	-0.000
844.64	-0.000
844.82	-0.000
844.99	-0.000
845.16	-0.000
845.34	-0.000
845.51	-0.000
845.68	-0.000
845.85	-0.000
846.03	-0.000
846.20	-0.000
846.37	-0.000
846.55	-0.000
846.72	-0.000
846.89	-0.000
847.06	-0.000
847.24	-0.000
847.41	-0.000
847.58	-0.000
847.76	-0.000
847.93	-0.000
848.10	-0.000
848.27	-0.000
848.45	-0.000
848.62	-0.000
848.79	-0.000
848.97	-0.000
849.14	-0.000
849.31	-0.000
849.48	-0.000
849.66	-0.000
849.83	-0.000
850.00	-0.000
850.17	-0.000
850.35	-0.000
850.52	-0.000
850.69	-0.000
850.86	-0.000
851.04	-0.000
851.21	-0.000
851.38	-0.000
851.55	-0.000
851.72	-0.000
851.90	-0.000
852.07	-0.000
852.24	-0.000
852.41	-0.000
852.59	-0.000
852.76	-0.000
852.93	-0.000
853.10	-0.000
853.28	-0.000
853.45	-0.000
853.62	-0.000
853.79	-0.000
853.96	-0.000
854.14	-0.000
854.31	-0.000
854.48	-0.000
854.65	-0.000
854.82	-0.000
855.00	-0.000
855.17	-0.000
855.34	-0.000
855.51	-0.000
855.68	-0.000
855.86	-0.000
856.03	-0.000
856.20	-0.000
856.37	-0.000
856.54	-0.000
856.72	-0.000
856.89	-0.000
857.06	-0.000
857.23	-0.000
857.40	-0.000
857.57	-0.000
857.75	-0.000
857.92	-0.000
858.09	-0.000
858.26	-0.000
858.43	-0.000
858.60	-0.000
858.78	-0.000
858.95	-0.000
859.12	-0.000
859.29	-0.000
859.46	-0.000
859.63	-0.000
859.81	-0.000
859.98	-0.000
860.15	-0.000
860.32	-0.000
860.49	-0.000
860.66	-0.000
860.83	-0.000
861.01	-0.000
861.18	-0.000
861.35	-0.000
861.52	-0.000
861.69	-0.000
861.86	-0.000
862.03	-0.000
862.21	-0.000
862.38	-0.000
862.55	-0.000
862.72	-0.000
862.89	-0.000
863.06	-0.000
863.23	-0.000
863.40	-0.000
863.58	-0.000
863.75	-0.000
863.92	-0.000
864.09	-0.000
864.26	-0.000
864.43	-0.000
864.60	-0.000
864.77	-0.000
864.94	-0.000
865.11	-0.000
865.29	-0.000
865.46	-0.000
865.63	-0.000
865.80	-0.000
865.97	-0.000
866.14	-0.000
866.31	-0.000
866.48	-0.000
866.65	-0.000
866.82	-0.000
866.99	-0.000
867.16	-0.000
867.34	-0.000
867.51	-0.000
867.68	-0.000
867.85	-0.000
868.02	-0.000
868.19	-0.000
868.36	-0.000
868.53	-0.000
868.70	-0.000
868.87	-0.000
869.04	-0.000
869.21	-0.000
869.38	-0.000
869.55	-0.000
869.72	-0.000
869.89	-0.000
870.06	-0.000
870.24	-0.000
870.41	-0.000
870.58	-0.000
870.75	-0.000
870.92	-0.000
871.09	-0.000
871.26	-0.000
871.43	-0.000
871.60	-0.000
871.77	-0.000
871.94	-0.000
872.11	-0.000
872.28	-0.000
872.45	-0.000
872.62	-0.000
872.79	-0.000
872.96	-0.000
873.13	-0.000
873.30	-0.000
873.47	-0.000
873.64	-0.000
873.81	-0.000
873.98	-0.000
874.15	-0.000
874.32	-0.000
874.49	-0.000
874.66	-0.000
874.83	-0.000
875.00	-0.000
875.17	-0.000
875.34	-0.000
875.51	-0.000
875.68	-0.000
875.85	-0.000
876.02	-0.000
876.19	-0.000
876.36	-0.000
876.53	-0.000
876.70	-0.000
876.87	-0.000
877.04	-0.000
877.21	-0.000
877.38	-0.000
877.55	-0.000
877.72	-0.000
877.89	-0.000
878.06	-0.000
878.23	-0.000
878.39	-0.000
878.56	-0.000
878.73	-0.000
878.90	-0.000
879.07	-0.000
879.24	-0.000
879.41	-0.000
879.58	-0.000
879.75	-0.000
879.92	-0.000
880.09	-0.000
880.26	-0.000
880.43	-0.000
880.60	-0.000
880.77	-0.000
880.94	-0.000
881.11	-0.000
881.27	-0.000
881.44	-0.000
881.61	-0.000
881.78	-0.000
881.95	-0.000
882.12	-0.000
882.29	-0.000
882.46	-0.000
882.63	-0.000
882.80	-0.000
882.97	-0.000
883.14	-0.000
883.30	-0.000
883.47	-0.000
883.64	-0.000
883.81	-0.000
883.98	-0.000
884.15	-0.000
884.32	-0.000
884.49	-0.000
884.66	-0.000
884.82	-0.000
884.99	-0.000
885.16	-0.000
885.33	-0.000
885.50	-0.000
885.67	-0.000
885.84	-0.000
886.01	-0.000
886.17	-0.000
886.34	-0.000
886.51	-0.000
886.68	-0.000
886.85	-0.000
887.02	-0.000
887.19	-0.000
887.36	-0.000
887.52	-0.000
887.69	-0.000
887.86	-0.000
888.03	-0.000
888.20	-0.000
888.37	-0.000
888.54	-0.000
888.70	-0.000
888.87	-0.000
889.04	-0.000
889.21	-0.000
889.38	-0.000
889.55	-0.000
889.71	-0.000
889.88	-0.000
890.05	-0.000
890.22	-0.000
890.39	-0.000
>>>>>End Processed Spectral Data<<<<<
