SpectraSuite Data File
++++++++++++++++++++++++++++++++++++
Date: Fri Jun 19 14:20:02 CEST 2015
User: introlabs
Dark Spectrum Present: Yes
Reference Spectrum Present: Yes
Number of Sampled Component Spectra: 1
Spectrometers: USB4H08886
Integration Time (usec): 745692 (USB4H08886)
Spectra Averaged: 5 (USB4H08886)
Boxcar Smoothing: 5 (USB4H08886)
Correct for Electrical Dark: Yes (USB4H08886)
Strobe/Lamp Enabled: No (USB4H08886)
Correct for Detector Non-linearity: Yes (USB4H08886)
Correct for Stray Light: Yes (USB4H08886)
Number of Pixels in Processed Spectrum: 3648
>>>>>Begin Processed Spectral Data<<<<<
178.14	-0.000
178.36	-0.000
178.57	-0.000
178.79	-0.000
179.01	-0.000
179.22	-0.000
179.44	-0.000
179.65	-0.000
179.87	-0.000
180.08	-0.000
180.30	-0.000
180.52	-0.000
180.73	-0.000
180.95	-0.000
181.16	-0.000
181.38	-0.000
181.59	-0.000
181.81	-0.000
182.03	-0.000
182.24	-0.000
182.46	-0.000
182.67	-0.000
182.89	-0.000
183.10	-0.000
183.32	-0.000
183.54	-0.000
183.75	-0.000
183.97	-0.000
184.18	-0.000
184.40	-0.000
184.61	-0.000
184.83	-0.000
185.04	-0.000
185.26	-0.000
185.48	-0.000
185.69	-0.000
185.91	-0.000
186.12	-0.000
186.34	-0.000
186.55	-0.000
186.77	-0.000
186.98	-0.000
187.20	-0.000
187.42	-0.000
187.63	-0.000
187.85	-0.000
188.06	-0.000
188.28	-0.000
188.49	-0.000
188.71	-0.000
188.92	-0.000
189.14	-0.000
189.36	-0.000
189.57	-0.000
189.79	-0.000
190.00	-0.000
190.22	-0.000
190.43	-0.000
190.65	-0.000
190.86	-0.000
191.08	-0.000
191.29	-0.000
191.51	-0.000
191.72	-0.000
191.94	-0.000
192.16	-0.000
192.37	-0.000
192.59	-0.000
192.80	-0.000
193.02	-0.000
193.23	-0.000
193.45	-0.000
193.66	-0.000
193.88	-0.000
194.09	-0.000
194.31	-0.000
194.52	-0.000
194.74	-0.000
194.95	-0.000
195.17	-0.000
195.38	-0.000
195.60	-0.000
195.81	-0.000
196.03	-0.000
196.25	-0.000
196.46	-0.000
196.68	-0.000
196.89	-0.000
197.11	-0.000
197.32	-0.000
197.54	-0.000
197.75	-0.000
197.97	-0.000
198.18	-0.000
198.40	-0.000
198.61	-0.000
198.83	-0.000
199.04	-0.000
199.26	-0.000
199.47	-0.000
199.69	-0.000
199.90	-0.000
200.12	-0.000
200.33	-0.000
200.55	-0.000
200.76	-0.000
200.98	-0.000
201.19	-0.000
201.41	-0.000
201.62	-0.000
201.84	-0.000
202.05	-0.000
202.27	-0.000
202.48	-0.000
202.70	-0.000
202.91	-0.000
203.13	-0.000
203.34	-0.000
203.56	-0.000
203.77	-0.000
203.99	-0.000
204.20	-0.000
204.42	-0.000
204.63	-0.000
204.85	-0.000
205.06	-0.000
205.28	-0.000
205.49	-0.000
205.71	-0.000
205.92	-0.000
206.14	-0.000
206.35	-0.000
206.56	-0.000
206.78	-0.000
206.99	-0.000
207.21	-0.000
207.42	-0.000
207.64	-0.000
207.85	-0.000
208.07	-0.000
208.28	-0.000
208.50	-0.000
208.71	-0.000
208.93	-0.000
209.14	-0.000
209.36	-0.000
209.57	-0.000
209.79	-0.000
210.00	-0.000
210.22	-0.000
210.43	-0.000
210.64	-0.000
210.86	-0.000
211.07	-0.000
211.29	-0.000
211.50	-0.000
211.72	-0.000
211.93	-0.000
212.15	-0.000
212.36	-0.000
212.58	-0.000
212.79	-0.000
213.01	-0.000
213.22	-0.000
213.43	-0.000
213.65	-0.000
213.86	-0.000
214.08	-0.000
214.29	-0.000
214.51	-0.000
214.72	-0.000
214.94	-0.000
215.15	-0.000
215.36	-0.000
215.58	-0.000
215.79	-0.000
216.01	-0.000
216.22	-0.000
216.44	-0.000
216.65	-0.000
216.87	-0.000
217.08	-0.000
217.29	-0.000
217.51	-0.000
217.72	-0.000
217.94	-0.000
218.15	-0.000
218.37	-0.000
218.58	-0.000
218.80	-0.000
219.01	-0.000
219.22	-0.000
219.44	-0.000
219.65	-0.000
219.87	-0.000
220.08	-0.000
220.30	-0.000
220.51	-0.000
220.72	-0.000
220.94	-0.000
221.15	-0.000
221.37	-0.000
221.58	-0.000
221.79	-0.000
222.01	-0.000
222.22	-0.000
222.44	-0.000
222.65	-0.000
222.87	-0.000
223.08	-0.000
223.29	-0.000
223.51	-0.000
223.72	-0.000
223.94	-0.000
224.15	-0.000
224.36	-0.000
224.58	-0.000
224.79	-0.000
225.01	-0.000
225.22	-0.000
225.44	-0.000
225.65	-0.000
225.86	-0.000
226.08	-0.000
226.29	-0.000
226.51	-0.000
226.72	-0.000
226.93	-0.000
227.15	-0.000
227.36	-0.000
227.58	-0.000
227.79	-0.000
228.00	-0.000
228.22	-0.000
228.43	-0.000
228.65	-0.000
228.86	-0.000
229.07	-0.000
229.29	-0.000
229.50	-0.000
229.72	-0.000
229.93	-0.000
230.14	-0.000
230.36	-0.000
230.57	-0.000
230.78	-0.000
231.00	-0.000
231.21	-0.000
231.43	-0.000
231.64	-0.000
231.85	-0.000
232.07	-0.000
232.28	-0.000
232.50	-0.000
232.71	-0.000
232.92	-0.000
233.14	-0.000
233.35	-0.000
233.56	-0.000
233.78	-0.000
233.99	-0.000
234.21	-0.000
234.42	-0.000
234.63	-0.000
234.85	-0.000
235.06	-0.000
235.27	-0.000
235.49	-0.000
235.70	-0.000
235.91	-0.000
236.13	-0.000
236.34	-0.000
236.56	-0.000
236.77	-0.000
236.98	-0.000
237.20	-0.000
237.41	-0.000
237.62	-0.000
237.84	-0.000
238.05	-0.000
238.26	-0.000
238.48	-0.000
238.69	-0.000
238.91	-0.000
239.12	-0.000
239.33	-0.000
239.55	-0.000
239.76	-0.000
239.97	-0.000
240.19	-0.000
240.40	-0.000
240.61	-0.000
240.83	-0.000
241.04	-0.000
241.25	-0.000
241.47	-0.000
241.68	-0.000
241.89	-0.000
242.11	-0.000
242.32	-0.000
242.53	-0.000
242.75	-0.000
242.96	-0.000
243.17	-0.000
243.39	-0.000
243.60	-0.000
243.81	-0.000
244.03	-0.000
244.24	-0.000
244.45	-0.000
244.67	-0.000
244.88	-0.000
245.09	-0.000
245.31	-0.000
245.52	-0.000
245.73	-0.000
245.95	-0.000
246.16	-0.000
246.37	-0.000
246.59	-0.000
246.80	-0.000
247.01	-0.000
247.23	-0.000
247.44	-0.000
247.65	-0.000
247.87	-0.000
248.08	-0.000
248.29	-0.000
248.51	-0.000
248.72	-0.000
248.93	-0.000
249.15	-0.000
249.36	-0.000
249.57	-0.000
249.78	-0.000
250.00	-0.000
250.21	-0.000
250.42	-0.000
250.64	-0.000
250.85	-0.000
251.06	-0.000
251.28	-0.000
251.49	-0.000
251.70	-0.000
251.92	-0.000
252.13	-0.000
252.34	-0.000
252.55	-0.000
252.77	-0.000
252.98	-0.000
253.19	-0.000
253.41	-0.000
253.62	-0.000
253.83	-0.000
254.05	-0.000
254.26	-0.000
254.47	-0.000
254.68	-0.000
254.90	-0.000
255.11	-0.000
255.32	-0.000
255.54	-0.000
255.75	-0.000
255.96	-0.000
256.17	-0.000
256.39	-0.000
256.60	-0.000
256.81	-0.000
257.03	-0.000
257.24	-0.000
257.45	-0.000
257.66	-0.000
257.88	-0.000
258.09	-0.000
258.30	-0.000
258.51	-0.000
258.73	-0.000
258.94	-0.000
259.15	-0.000
259.37	-0.000
259.58	-0.000
259.79	-0.000
260.00	-0.000
260.22	-0.000
260.43	-0.000
260.64	-0.000
260.85	-0.000
261.07	-0.000
261.28	-0.000
261.49	-0.000
261.71	-0.000
261.92	-0.000
262.13	-0.000
262.34	-0.000
262.56	-0.000
262.77	-0.000
262.98	-0.000
263.19	-0.000
263.41	-0.000
263.62	-0.000
263.83	-0.000
264.04	-0.000
264.26	-0.000
264.47	-0.000
264.68	-0.000
264.89	-0.000
265.11	-0.000
265.32	-0.000
265.53	-0.000
265.74	-0.000
265.96	-0.000
266.17	-0.000
266.38	-0.000
266.59	-0.000
266.81	-0.000
267.02	-0.000
267.23	-0.000
267.44	-0.000
267.65	-0.000
267.87	-0.000
268.08	-0.000
268.29	-0.000
268.50	-0.000
268.72	-0.000
268.93	-0.000
269.14	-0.000
269.35	-0.000
269.57	-0.000
269.78	-0.000
269.99	-0.000
270.20	-0.000
270.41	-0.000
270.63	-0.000
270.84	-0.000
271.05	-0.000
271.26	-0.000
271.48	-0.000
271.69	-0.000
271.90	-0.000
272.11	-0.000
272.32	-0.000
272.54	-0.000
272.75	-0.000
272.96	-0.000
273.17	-0.000
273.39	-0.000
273.60	-0.000
273.81	-0.000
274.02	-0.000
274.23	-0.000
274.45	-0.000
274.66	-0.000
274.87	-0.000
275.08	-0.000
275.29	-0.000
275.51	-0.000
275.72	-0.000
275.93	-0.000
276.14	-0.000
276.35	-0.000
276.57	-0.000
276.78	-0.000
276.99	-0.000
277.20	-0.000
277.41	-0.000
277.63	-0.000
277.84	-0.000
278.05	-0.000
278.26	-0.000
278.47	-0.000
278.69	-0.000
278.90	-0.000
279.11	-0.000
279.32	-0.000
279.53	-0.000
279.74	-0.000
279.96	-0.000
280.17	-0.000
280.38	-0.000
280.59	-0.000
280.80	-0.000
281.02	-0.000
281.23	-0.000
281.44	-0.000
281.65	-0.000
281.86	-0.000
282.07	-0.000
282.29	-0.000
282.50	-0.000
282.71	-0.000
282.92	-0.000
283.13	-0.000
283.35	-0.000
283.56	-0.000
283.77	-0.000
283.98	-0.000
284.19	-0.000
284.40	-0.000
284.62	-0.000
284.83	-0.000
285.04	-0.000
285.25	-0.000
285.46	-0.000
285.67	-0.000
285.88	-0.000
286.10	-0.000
286.31	-0.000
286.52	-0.000
286.73	-0.000
286.94	-0.000
287.15	-0.000
287.37	-0.000
287.58	-0.000
287.79	-0.000
288.00	-0.000
288.21	-0.000
288.42	-0.000
288.63	-0.000
288.85	-0.000
289.06	-0.000
289.27	-0.000
289.48	-0.000
289.69	-0.000
289.90	-0.000
290.11	-0.000
290.33	-0.000
290.54	-0.000
290.75	-0.000
290.96	-0.000
291.17	-0.000
291.38	-0.000
291.59	-0.000
291.81	-0.000
292.02	-0.000
292.23	-0.000
292.44	-0.000
292.65	-0.000
292.86	-0.000
293.07	-0.000
293.28	-0.000
293.50	-0.000
293.71	-0.000
293.92	-0.000
294.13	-0.000
294.34	-0.000
294.55	-0.000
294.76	-0.000
294.97	-0.000
295.19	-0.000
295.40	-0.000
295.61	-0.000
295.82	-0.000
296.03	2.638
296.24	3.884
296.45	1.968
296.66	1.689
296.87	1.694
297.09	1.761
297.30	1.936
297.51	1.642
297.72	1.636
297.93	1.725
298.14	1.686
298.35	1.642
298.56	1.615
298.77	1.718
298.99	1.697
299.20	1.677
299.41	1.667
299.62	1.628
299.83	1.613
300.04	1.533
300.25	1.527
300.46	1.567
300.67	1.543
300.88	1.490
301.10	1.498
301.31	1.565
301.52	1.509
301.73	1.452
301.94	1.454
302.15	1.467
302.36	1.428
302.57	1.368
302.78	1.378
302.99	1.416
303.20	1.432
303.41	1.349
303.63	1.330
303.84	1.335
304.05	1.332
304.26	1.274
304.47	1.285
304.68	1.290
304.89	1.286
305.10	1.246
305.31	1.236
305.52	1.277
305.73	1.271
305.94	1.234
306.15	1.229
306.37	1.252
306.58	1.262
306.79	1.229
307.00	1.247
307.21	1.285
307.42	1.279
307.63	1.244
307.84	1.215
308.05	1.250
308.26	1.254
308.47	1.229
308.68	1.224
308.89	1.225
309.10	1.222
309.31	1.183
309.52	1.173
309.73	1.188
309.95	1.181
310.16	1.153
310.37	1.146
310.58	1.159
310.79	1.157
311.00	1.152
311.21	1.154
311.42	1.157
311.63	1.155
311.84	1.137
312.05	1.137
312.26	1.161
312.47	1.172
312.68	1.146
312.89	1.132
313.10	1.140
313.31	1.115
313.52	1.114
313.73	1.115
313.94	1.117
314.15	1.100
314.36	1.079
314.57	1.069
314.78	1.057
314.99	1.052
315.21	1.040
315.42	1.044
315.63	1.058
315.84	1.039
316.05	1.025
316.26	1.033
316.47	1.050
316.68	1.046
316.89	1.029
317.10	1.050
317.31	1.054
317.52	1.054
317.73	1.035
317.94	1.032
318.15	1.070
318.36	1.069
318.57	1.052
318.78	1.041
318.99	1.075
319.20	1.072
319.41	1.038
319.62	1.042
319.83	1.057
320.04	1.050
320.25	1.038
320.46	1.007
320.67	1.012
320.88	1.008
321.09	0.995
321.30	0.982
321.51	0.997
321.72	0.995
321.93	0.977
322.14	0.969
322.35	0.996
322.56	0.998
322.77	0.986
322.98	0.996
323.19	1.003
323.40	1.009
323.61	0.987
323.82	0.982
324.03	0.989
324.24	0.987
324.45	0.975
324.66	0.958
324.87	0.954
325.08	0.954
325.29	0.936
325.50	0.934
325.71	0.938
325.92	0.945
326.13	0.932
326.34	0.932
326.55	0.939
326.76	0.938
326.97	0.928
327.18	0.922
327.39	0.948
327.60	0.947
327.80	0.943
328.01	0.943
328.22	0.944
328.43	0.947
328.64	0.936
328.85	0.941
329.06	0.943
329.27	0.941
329.48	0.937
329.69	0.919
329.90	0.931
330.11	0.925
330.32	0.919
330.53	0.912
330.74	0.913
330.95	0.911
331.16	0.896
331.37	0.904
331.58	0.904
331.79	0.904
332.00	0.893
332.21	0.885
332.42	0.889
332.63	0.879
332.83	0.875
333.04	0.877
333.25	0.890
333.46	0.887
333.67	0.873
333.88	0.876
334.09	0.886
334.30	0.884
334.51	0.876
334.72	0.873
334.93	0.876
335.14	0.876
335.35	0.868
335.56	0.864
335.77	0.873
335.98	0.873
336.18	0.866
336.39	0.860
336.60	0.864
336.81	0.862
337.02	0.860
337.23	0.865
337.44	0.866
337.65	0.868
337.86	0.857
338.07	0.853
338.28	0.857
338.49	0.855
338.70	0.847
338.91	0.853
339.11	0.861
339.32	0.857
339.53	0.845
339.74	0.843
339.95	0.840
340.16	0.838
340.37	0.830
340.58	0.829
340.79	0.833
341.00	0.833
341.21	0.822
341.41	0.822
341.62	0.824
341.83	0.825
342.04	0.820
342.25	0.831
342.46	0.837
342.67	0.834
342.88	0.827
343.09	0.826
343.30	0.833
343.50	0.837
343.71	0.828
343.92	0.827
344.13	0.832
344.34	0.830
344.55	0.814
344.76	0.812
344.97	0.818
345.18	0.817
345.38	0.814
345.59	0.809
345.80	0.807
346.01	0.806
346.22	0.802
346.43	0.796
346.64	0.805
346.85	0.805
347.06	0.797
347.26	0.797
347.47	0.799
347.68	0.796
347.89	0.792
348.10	0.787
348.31	0.794
348.52	0.792
348.73	0.789
348.93	0.786
349.14	0.789
349.35	0.789
349.56	0.783
349.77	0.780
349.98	0.785
350.19	0.782
350.39	0.777
350.60	0.773
350.81	0.788
351.02	0.787
351.23	0.782
351.44	0.784
351.65	0.788
351.86	0.784
352.06	0.783
352.27	0.784
352.48	0.786
352.69	0.786
352.90	0.782
353.11	0.769
353.31	0.777
353.52	0.773
353.73	0.765
353.94	0.766
354.15	0.772
354.36	0.772
354.57	0.763
354.77	0.765
354.98	0.765
355.19	0.764
355.40	0.763
355.61	0.768
355.82	0.772
356.02	0.772
356.23	0.765
356.44	0.766
356.65	0.770
356.86	0.770
357.07	0.764
357.27	0.767
357.48	0.769
357.69	0.765
357.90	0.751
358.11	0.748
358.32	0.752
358.52	0.754
358.73	0.744
358.94	0.746
359.15	0.751
359.36	0.751
359.56	0.746
359.77	0.743
359.98	0.751
360.19	0.749
360.40	0.746
360.61	0.746
360.81	0.746
361.02	0.747
361.23	0.739
361.44	0.737
361.65	0.738
361.85	0.737
362.06	0.735
362.27	0.735
362.48	0.736
362.69	0.738
362.89	0.732
363.10	0.732
363.31	0.737
363.52	0.739
363.73	0.734
363.93	0.734
364.14	0.737
364.35	0.738
364.56	0.729
364.77	0.731
364.97	0.733
365.18	0.734
365.39	0.729
365.60	0.726
365.81	0.727
366.01	0.728
366.22	0.725
366.43	0.725
366.64	0.728
366.84	0.734
367.05	0.731
367.26	0.730
367.47	0.733
367.68	0.734
367.88	0.731
368.09	0.729
368.30	0.730
368.51	0.729
368.71	0.728
368.92	0.732
369.13	0.729
369.34	0.729
369.55	0.728
369.75	0.728
369.96	0.734
370.17	0.734
370.38	0.731
370.58	0.731
370.79	0.737
371.00	0.735
371.21	0.726
371.41	0.732
371.62	0.735
371.83	0.731
372.04	0.729
372.24	0.723
372.45	0.724
372.66	0.724
372.87	0.721
373.07	0.718
373.28	0.719
373.49	0.723
373.70	0.713
373.90	0.713
374.11	0.721
374.32	0.721
374.53	0.719
374.73	0.720
374.94	0.723
375.15	0.723
375.36	0.721
375.56	0.730
375.77	0.730
375.98	0.730
376.19	0.727
376.39	0.722
376.60	0.725
376.81	0.726
377.02	0.724
377.22	0.722
377.43	0.722
377.64	0.722
377.84	0.712
378.05	0.716
378.26	0.722
378.47	0.722
378.67	0.719
378.88	0.716
379.09	0.716
379.30	0.716
379.50	0.714
379.71	0.716
379.92	0.719
380.12	0.718
380.33	0.710
380.54	0.706
380.75	0.712
380.95	0.712
381.16	0.710
381.37	0.711
381.57	0.713
381.78	0.713
381.99	0.714
382.20	0.713
382.40	0.717
382.61	0.718
382.82	0.715
383.02	0.707
383.23	0.711
383.44	0.711
383.64	0.709
383.85	0.711
384.06	0.713
384.27	0.710
384.47	0.708
384.68	0.709
384.89	0.715
385.09	0.715
385.30	0.714
385.51	0.713
385.71	0.717
385.92	0.718
386.13	0.716
386.33	0.719
386.54	0.720
386.75	0.719
386.95	0.715
387.16	0.711
387.37	0.714
387.58	0.713
387.78	0.711
387.99	0.709
388.20	0.711
388.40	0.708
388.61	0.704
388.82	0.707
389.02	0.709
389.23	0.709
389.44	0.707
389.64	0.707
389.85	0.719
390.06	0.719
390.26	0.719
390.47	0.718
390.68	0.720
390.88	0.718
391.09	0.714
391.30	0.714
391.50	0.714
391.71	0.713
391.92	0.710
392.12	0.703
392.33	0.704
392.53	0.704
392.74	0.704
392.95	0.703
393.15	0.706
393.36	0.707
393.57	0.704
393.77	0.707
393.98	0.710
394.19	0.710
394.39	0.709
394.60	0.711
394.81	0.712
395.01	0.710
395.22	0.709
395.43	0.709
395.63	0.714
395.84	0.716
396.04	0.712
396.25	0.714
396.46	0.715
396.66	0.714
396.87	0.711
397.08	0.709
397.28	0.712
397.49	0.713
397.69	0.709
397.90	0.704
398.11	0.705
398.31	0.705
398.52	0.701
398.73	0.702
398.93	0.702
399.14	0.701
399.34	0.700
399.55	0.701
399.76	0.701
399.96	0.702
400.17	0.700
400.37	0.699
400.58	0.706
400.79	0.708
400.99	0.706
401.20	0.713
401.41	0.715
401.61	0.716
401.82	0.721
402.02	0.721
402.23	0.721
402.44	0.721
402.64	0.721
402.85	0.715
403.05	0.714
403.26	0.713
403.47	0.706
403.67	0.705
403.88	0.705
404.08	0.698
404.29	0.696
404.50	0.697
404.70	0.697
404.91	0.696
405.11	0.693
405.32	0.693
405.52	0.693
405.73	0.693
405.94	0.691
406.14	0.694
406.35	0.696
406.55	0.696
406.76	0.694
406.97	0.695
407.17	0.697
407.38	0.697
407.58	0.695
407.79	0.698
407.99	0.700
408.20	0.701
408.41	0.697
408.61	0.695
408.82	0.696
409.02	0.696
409.23	0.694
409.43	0.693
409.64	0.694
409.84	0.693
410.05	0.690
410.26	0.689
410.46	0.689
410.67	0.689
410.87	0.690
411.08	0.692
411.28	0.693
411.49	0.694
411.69	0.691
411.90	0.693
412.11	0.695
412.31	0.696
412.52	0.695
412.72	0.696
412.93	0.696
413.13	0.696
413.34	0.691
413.54	0.693
413.75	0.695
413.95	0.694
414.16	0.690
414.37	0.692
414.57	0.692
414.78	0.695
414.98	0.693
415.19	0.694
415.39	0.692
415.60	0.695
415.80	0.694
416.01	0.692
416.21	0.695
416.42	0.695
416.62	0.690
416.83	0.690
417.03	0.690
417.24	0.690
417.44	0.687
417.65	0.686
417.86	0.687
418.06	0.685
418.27	0.683
418.47	0.684
418.68	0.685
418.88	0.686
419.09	0.683
419.29	0.684
419.50	0.685
419.70	0.685
419.91	0.683
420.11	0.681
420.32	0.683
420.52	0.683
420.73	0.682
420.93	0.683
421.14	0.684
421.34	0.683
421.55	0.680
421.75	0.680
421.96	0.681
422.16	0.681
422.37	0.680
422.57	0.678
422.78	0.679
422.98	0.676
423.19	0.673
423.39	0.672
423.60	0.675
423.80	0.677
424.01	0.675
424.21	0.678
424.42	0.679
424.62	0.679
424.83	0.677
425.03	0.678
425.23	0.680
425.44	0.681
425.64	0.681
425.85	0.680
426.05	0.681
426.26	0.682
426.46	0.677
426.67	0.676
426.87	0.681
427.08	0.681
427.28	0.679
427.49	0.680
427.69	0.681
427.90	0.680
428.10	0.677
428.31	0.677
428.51	0.679
428.71	0.679
428.92	0.680
429.12	0.677
429.33	0.679
429.53	0.682
429.74	0.686
429.94	0.686
430.15	0.686
430.35	0.686
430.56	0.682
430.76	0.682
430.96	0.682
431.17	0.680
431.37	0.677
431.58	0.675
431.78	0.672
431.99	0.665
432.19	0.667
432.40	0.669
432.60	0.669
432.80	0.672
433.01	0.670
433.21	0.670
433.42	0.672
433.62	0.672
433.83	0.671
434.03	0.674
434.23	0.676
434.44	0.675
434.64	0.673
434.85	0.678
435.05	0.679
435.26	0.680
435.46	0.678
435.66	0.678
435.87	0.677
436.07	0.677
436.28	0.672
436.48	0.670
436.69	0.669
436.89	0.669
437.09	0.663
437.30	0.662
437.50	0.662
437.71	0.674
437.91	0.673
438.11	0.674
438.32	0.679
438.52	0.680
438.73	0.678
438.93	0.677
439.13	0.677
439.34	0.680
439.54	0.677
439.75	0.677
439.95	0.667
440.15	0.672
440.36	0.671
440.56	0.668
440.77	0.669
440.97	0.669
441.17	0.668
441.38	0.670
441.58	0.668
441.79	0.667
441.99	0.666
442.19	0.665
442.40	0.663
442.60	0.662
442.81	0.660
443.01	0.660
443.21	0.661
443.42	0.660
443.62	0.658
443.82	0.658
444.03	0.660
444.23	0.660
444.44	0.660
444.64	0.659
444.84	0.660
445.05	0.660
445.25	0.658
445.45	0.658
445.66	0.661
445.86	0.660
446.06	0.661
446.27	0.661
446.47	0.664
446.68	0.662
446.88	0.661
447.08	0.660
447.29	0.663
447.49	0.663
447.69	0.662
447.90	0.660
448.10	0.664
448.30	0.662
448.51	0.662
448.71	0.660
448.91	0.663
449.12	0.662
449.32	0.664
449.52	0.662
449.73	0.666
449.93	0.665
450.14	0.665
450.34	0.664
450.54	0.666
450.75	0.664
450.95	0.663
451.15	0.662
451.36	0.664
451.56	0.661
451.76	0.659
451.97	0.657
452.17	0.657
452.37	0.655
452.58	0.652
452.78	0.651
452.98	0.653
453.19	0.653
453.39	0.654
453.59	0.653
453.79	0.654
454.00	0.654
454.20	0.653
454.40	0.653
454.61	0.656
454.81	0.656
455.01	0.655
455.22	0.655
455.42	0.657
455.62	0.655
455.83	0.655
456.03	0.658
456.23	0.658
456.44	0.659
456.64	0.657
456.84	0.657
457.04	0.657
457.25	0.657
457.45	0.654
457.65	0.652
457.86	0.653
458.06	0.652
458.26	0.647
458.47	0.647
458.67	0.649
458.87	0.649
459.07	0.647
459.28	0.650
459.48	0.652
459.68	0.652
459.89	0.652
460.09	0.651
460.29	0.652
460.49	0.653
460.70	0.652
460.90	0.651
461.10	0.653
461.31	0.652
461.51	0.649
461.71	0.650
461.91	0.652
462.12	0.651
462.32	0.650
462.52	0.651
462.72	0.654
462.93	0.655
463.13	0.653
463.33	0.654
463.53	0.655
463.74	0.655
463.94	0.650
464.14	0.651
464.35	0.653
464.55	0.653
464.75	0.651
464.95	0.649
465.16	0.651
465.36	0.650
465.56	0.649
465.76	0.648
465.97	0.649
466.17	0.650
466.37	0.648
466.57	0.649
466.78	0.650
466.98	0.650
467.18	0.648
467.38	0.646
467.59	0.648
467.79	0.649
467.99	0.648
468.19	0.649
468.39	0.651
468.60	0.652
468.80	0.649
469.00	0.651
469.20	0.652
469.41	0.652
469.61	0.651
469.81	0.651
470.01	0.651
470.22	0.652
470.42	0.650
470.62	0.648
470.82	0.649
471.02	0.649
471.23	0.647
471.43	0.647
471.63	0.649
471.83	0.649
472.04	0.647
472.24	0.646
472.44	0.651
472.64	0.652
472.84	0.649
473.05	0.649
473.25	0.653
473.45	0.652
473.65	0.650
473.85	0.650
474.06	0.652
474.26	0.651
474.46	0.652
474.66	0.648
474.86	0.649
475.07	0.649
475.27	0.647
475.47	0.644
475.67	0.645
475.87	0.647
476.08	0.644
476.28	0.645
476.48	0.646
476.68	0.645
476.88	0.643
477.09	0.644
477.29	0.646
477.49	0.646
477.69	0.645
477.89	0.645
478.09	0.644
478.30	0.647
478.50	0.644
478.70	0.643
478.90	0.644
479.10	0.646
479.31	0.647
479.51	0.645
479.71	0.646
479.91	0.647
480.11	0.646
480.31	0.646
480.52	0.645
480.72	0.645
480.92	0.644
481.12	0.643
481.32	0.641
481.52	0.639
481.72	0.639
481.93	0.643
482.13	0.643
482.33	0.642
482.53	0.640
482.73	0.641
482.93	0.642
483.14	0.641
483.34	0.640
483.54	0.641
483.74	0.640
483.94	0.639
484.14	0.635
484.34	0.635
484.55	0.636
484.75	0.636
484.95	0.634
485.15	0.634
485.35	0.634
485.55	0.634
485.75	0.632
485.96	0.633
486.16	0.635
486.36	0.634
486.56	0.633
486.76	0.633
486.96	0.632
487.16	0.632
487.36	0.630
487.57	0.630
487.77	0.630
487.97	0.631
488.17	0.629
488.37	0.628
488.57	0.629
488.77	0.628
488.97	0.627
489.18	0.627
489.38	0.629
489.58	0.630
489.78	0.629
489.98	0.629
490.18	0.629
490.38	0.629
490.58	0.627
490.78	0.628
490.98	0.630
491.19	0.630
491.39	0.630
491.59	0.629
491.79	0.632
491.99	0.632
492.19	0.631
492.39	0.634
492.59	0.635
492.79	0.637
492.99	0.637
493.20	0.637
493.40	0.637
493.60	0.638
493.80	0.636
494.00	0.634
494.20	0.635
494.40	0.634
494.60	0.632
494.80	0.635
495.00	0.635
495.20	0.633
495.40	0.632
495.61	0.634
495.81	0.633
496.01	0.637
496.21	0.638
496.41	0.637
496.61	0.638
496.81	0.637
497.01	0.632
497.21	0.631
497.41	0.632
497.61	0.631
497.81	0.629
498.01	0.629
498.21	0.627
498.41	0.626
498.61	0.626
498.82	0.627
499.02	0.629
499.22	0.629
499.42	0.629
499.62	0.630
499.82	0.631
500.02	0.633
500.22	0.632
500.42	0.633
500.62	0.634
500.82	0.634
501.02	0.632
501.22	0.631
501.42	0.631
501.62	0.634
501.82	0.633
502.02	0.633
502.22	0.632
502.42	0.634
502.62	0.631
502.82	0.632
503.02	0.633
503.22	0.633
503.42	0.631
503.63	0.631
503.83	0.629
504.03	0.628
504.23	0.627
504.43	0.628
504.63	0.629
504.83	0.628
505.03	0.627
505.23	0.629
505.43	0.631
505.63	0.631
505.83	0.631
506.03	0.633
506.23	0.634
506.43	0.634
506.63	0.633
506.83	0.632
507.03	0.634
507.23	0.635
507.43	0.632
507.63	0.633
507.83	0.633
508.03	0.633
508.23	0.632
508.43	0.631
508.63	0.633
508.83	0.633
509.03	0.634
509.23	0.632
509.43	0.634
509.63	0.634
509.83	0.632
510.03	0.635
510.23	0.637
510.43	0.637
510.63	0.638
510.83	0.637
511.03	0.639
511.23	0.637
511.43	0.636
511.63	0.638
511.83	0.641
512.03	0.641
512.22	0.637
512.42	0.636
512.62	0.637
512.82	0.637
513.02	0.636
513.22	0.635
513.42	0.638
513.62	0.640
513.82	0.638
514.02	0.637
514.22	0.638
514.42	0.638
514.62	0.638
514.82	0.638
515.02	0.641
515.22	0.644
515.42	0.643
515.62	0.645
515.82	0.645
516.02	0.646
516.22	0.646
516.42	0.647
516.62	0.649
516.82	0.650
517.01	0.649
517.21	0.648
517.41	0.652
517.61	0.652
517.81	0.648
518.01	0.647
518.21	0.647
518.41	0.646
518.61	0.645
518.81	0.645
519.01	0.646
519.21	0.646
519.41	0.645
519.61	0.639
519.81	0.641
520.00	0.642
520.20	0.642
520.40	0.645
520.60	0.646
520.80	0.645
521.00	0.645
521.20	0.646
521.40	0.651
521.60	0.652
521.80	0.652
522.00	0.652
522.20	0.655
522.39	0.654
522.59	0.651
522.79	0.653
522.99	0.655
523.19	0.653
523.39	0.650
523.59	0.648
523.79	0.651
523.99	0.653
524.19	0.652
524.38	0.650
524.58	0.652
524.78	0.652
524.98	0.650
525.18	0.652
525.38	0.653
525.58	0.654
525.78	0.651
525.98	0.649
526.18	0.649
526.37	0.648
526.57	0.650
526.77	0.650
526.97	0.651
527.17	0.652
527.37	0.648
527.57	0.651
527.77	0.653
527.96	0.653
528.16	0.652
528.36	0.653
528.56	0.656
528.76	0.654
528.96	0.652
529.16	0.653
529.36	0.656
529.55	0.656
529.75	0.652
529.95	0.652
530.15	0.654
530.35	0.656
530.55	0.653
530.75	0.654
530.94	0.655
531.14	0.656
531.34	0.655
531.54	0.653
531.74	0.657
531.94	0.660
532.13	0.658
532.33	0.660
532.53	0.659
532.73	0.658
532.93	0.657
533.13	0.657
533.33	0.657
533.52	0.656
533.72	0.660
533.92	0.657
534.12	0.656
534.32	0.656
534.52	0.654
534.71	0.656
534.91	0.659
535.11	0.660
535.31	0.658
535.51	0.661
535.71	0.664
535.90	0.661
536.10	0.662
536.30	0.664
536.50	0.665
536.70	0.664
536.89	0.661
537.09	0.661
537.29	0.662
537.49	0.663
537.69	0.660
537.89	0.660
538.08	0.659
538.28	0.657
538.48	0.658
538.68	0.660
538.88	0.662
539.07	0.662
539.27	0.660
539.47	0.660
539.67	0.660
539.87	0.662
540.06	0.660
540.26	0.661
540.46	0.663
540.66	0.661
540.86	0.658
541.05	0.658
541.25	0.660
541.45	0.660
541.65	0.658
541.84	0.660
542.04	0.661
542.24	0.661
542.44	0.660
542.64	0.661
542.83	0.664
543.03	0.665
543.23	0.662
543.43	0.663
543.62	0.665
543.82	0.665
544.02	0.663
544.22	0.663
544.42	0.667
544.61	0.667
544.81	0.664
545.01	0.663
545.21	0.665
545.40	0.665
545.60	0.663
545.80	0.667
546.00	0.668
546.19	0.667
546.39	0.666
546.59	0.664
546.79	0.665
546.98	0.666
547.18	0.665
547.38	0.665
547.58	0.668
547.77	0.668
547.97	0.664
548.17	0.665
548.37	0.666
548.56	0.666
548.76	0.665
548.96	0.666
549.16	0.668
549.35	0.669
549.55	0.667
549.75	0.667
549.95	0.670
550.14	0.671
550.34	0.669
550.54	0.673
550.73	0.677
550.93	0.677
551.13	0.674
551.33	0.673
551.52	0.674
551.72	0.674
551.92	0.672
552.12	0.672
552.31	0.673
552.51	0.673
552.71	0.669
552.90	0.669
553.10	0.670
553.30	0.670
553.50	0.669
553.69	0.671
553.89	0.672
554.09	0.672
554.28	0.669
554.48	0.671
554.68	0.673
554.87	0.673
555.07	0.670
555.27	0.670
555.47	0.672
555.66	0.673
555.86	0.671
556.06	0.674
556.25	0.676
556.45	0.683
556.65	0.681
556.84	0.684
557.04	0.688
557.24	0.689
557.43	0.689
557.63	0.691
557.83	0.693
558.02	0.693
558.22	0.697
558.42	0.697
558.61	0.689
558.81	0.690
559.01	0.685
559.21	0.685
559.40	0.686
559.60	0.686
559.80	0.683
559.99	0.684
560.19	0.686
560.39	0.679
560.58	0.677
560.78	0.678
560.97	0.682
561.17	0.681
561.37	0.679
561.56	0.679
561.76	0.680
561.96	0.680
562.15	0.678
562.35	0.680
562.55	0.682
562.74	0.682
562.94	0.680
563.14	0.678
563.33	0.678
563.53	0.678
563.73	0.676
563.92	0.678
564.12	0.680
564.31	0.682
564.51	0.681
564.71	0.682
564.90	0.685
565.10	0.686
565.30	0.690
565.49	0.691
565.69	0.694
565.89	0.694
566.08	0.691
566.28	0.693
566.47	0.694
566.67	0.691
566.87	0.688
567.06	0.690
567.26	0.696
567.46	0.691
567.65	0.690
567.85	0.691
568.04	0.694
568.24	0.693
568.44	0.690
568.63	0.688
568.83	0.690
569.02	0.689
569.22	0.684
569.42	0.680
569.61	0.683
569.81	0.681
570.00	0.679
570.20	0.681
570.40	0.682
570.59	0.682
570.79	0.680
570.98	0.678
571.18	0.680
571.38	0.680
571.57	0.677
571.77	0.674
571.96	0.678
572.16	0.676
572.35	0.671
572.55	0.672
572.75	0.670
572.94	0.670
573.14	0.668
573.33	0.668
573.53	0.669
573.73	0.669
573.92	0.667
574.12	0.665
574.31	0.668
574.51	0.668
574.70	0.666
574.90	0.667
575.09	0.669
575.29	0.669
575.49	0.666
575.68	0.667
575.88	0.668
576.07	0.669
576.27	0.667
576.46	0.666
576.66	0.665
576.86	0.664
577.05	0.662
577.25	0.660
577.44	0.662
577.64	0.662
577.83	0.660
578.03	0.662
578.22	0.661
578.42	0.660
578.61	0.658
578.81	0.660
579.00	0.660
579.20	0.660
579.40	0.659
579.59	0.658
579.79	0.658
579.98	0.658
580.18	0.657
580.37	0.657
580.57	0.659
580.76	0.664
580.96	0.662
581.15	0.663
581.35	0.664
581.54	0.664
581.74	0.663
581.93	0.664
582.13	0.665
582.32	0.663
582.52	0.661
582.71	0.661
582.91	0.657
583.10	0.657
583.30	0.656
583.49	0.655
583.69	0.659
583.88	0.660
584.08	0.659
584.27	0.662
584.47	0.665
584.66	0.666
584.86	0.664
585.05	0.666
585.25	0.668
585.44	0.668
585.64	0.666
585.83	0.663
586.03	0.663
586.22	0.662
586.42	0.658
586.61	0.660
586.81	0.662
587.00	0.662
587.20	0.659
587.39	0.660
587.59	0.662
587.78	0.663
587.98	0.663
588.17	0.664
588.37	0.666
588.56	0.668
588.76	0.664
588.95	0.664
589.15	0.668
589.34	0.671
589.54	0.669
589.73	0.670
589.92	0.674
590.12	0.674
590.31	0.672
590.51	0.678
590.70	0.679
590.90	0.679
591.09	0.677
591.29	0.675
591.48	0.675
591.68	0.676
591.87	0.673
592.06	0.673
592.26	0.675
592.45	0.674
592.65	0.668
592.84	0.667
593.04	0.671
593.23	0.673
593.43	0.671
593.62	0.671
593.81	0.672
594.01	0.671
594.20	0.668
594.40	0.667
594.59	0.669
594.79	0.670
594.98	0.668
595.17	0.667
595.37	0.669
595.56	0.670
595.76	0.669
595.95	0.671
596.14	0.674
596.34	0.676
596.53	0.674
596.73	0.675
596.92	0.677
597.12	0.680
597.31	0.680
597.50	0.678
597.70	0.681
597.89	0.680
598.09	0.676
598.28	0.677
598.47	0.680
598.67	0.679
598.86	0.675
599.06	0.677
599.25	0.677
599.44	0.675
599.64	0.673
599.83	0.671
600.03	0.674
600.22	0.675
600.41	0.674
600.61	0.672
600.80	0.675
601.00	0.676
601.19	0.671
601.38	0.669
601.58	0.671
601.77	0.673
601.96	0.674
602.16	0.675
602.35	0.683
602.55	0.681
602.74	0.681
602.93	0.682
603.13	0.687
603.32	0.689
603.51	0.688
603.71	0.691
603.90	0.693
604.09	0.694
604.29	0.690
604.48	0.685
604.68	0.686
604.87	0.684
605.06	0.681
605.26	0.678
605.45	0.679
605.64	0.678
605.84	0.673
606.03	0.673
606.22	0.672
606.42	0.671
606.61	0.667
606.80	0.668
607.00	0.670
607.19	0.670
607.38	0.668
607.58	0.669
607.77	0.672
607.96	0.672
608.16	0.670
608.35	0.675
608.54	0.678
608.74	0.682
608.93	0.687
609.12	0.689
609.32	0.692
609.51	0.696
609.70	0.694
609.90	0.696
610.09	0.701
610.28	0.706
610.48	0.699
610.67	0.700
610.86	0.702
611.06	0.696
611.25	0.693
611.44	0.695
611.64	0.695
611.83	0.697
612.02	0.693
612.21	0.692
612.41	0.691
612.60	0.690
612.79	0.686
612.99	0.685
613.18	0.688
613.37	0.685
613.57	0.682
613.76	0.683
613.95	0.681
614.14	0.681
614.34	0.678
614.53	0.679
614.72	0.682
614.92	0.682
615.11	0.679
615.30	0.675
615.49	0.677
615.69	0.680
615.88	0.677
616.07	0.678
616.26	0.681
616.46	0.682
616.65	0.679
616.84	0.678
617.04	0.679
617.23	0.683
617.42	0.683
617.61	0.687
617.81	0.687
618.00	0.689
618.19	0.687
618.38	0.691
618.58	0.695
618.77	0.696
618.96	0.695
619.15	0.697
619.35	0.700
619.54	0.701
619.73	0.696
619.92	0.698
620.12	0.702
620.31	0.702
620.50	0.697
620.69	0.697
620.89	0.701
621.08	0.701
621.27	0.700
621.46	0.699
621.66	0.703
621.85	0.703
622.04	0.699
622.23	0.699
622.43	0.700
622.62	0.699
622.81	0.698
623.00	0.697
623.19	0.701
623.39	0.700
623.58	0.698
623.77	0.696
623.96	0.699
624.16	0.700
624.35	0.694
624.54	0.697
624.73	0.702
624.92	0.700
625.12	0.698
625.31	0.697
625.50	0.701
625.69	0.701
625.88	0.697
626.08	0.697
626.27	0.698
626.46	0.698
626.65	0.695
626.84	0.695
627.04	0.700
627.23	0.700
627.42	0.696
627.61	0.698
627.80	0.701
628.00	0.701
628.19	0.700
628.38	0.704
628.57	0.706
628.76	0.706
628.96	0.703
629.15	0.704
629.34	0.707
629.53	0.707
629.72	0.701
629.91	0.702
630.11	0.707
630.30	0.707
630.49	0.709
630.68	0.709
630.87	0.713
631.06	0.715
631.26	0.709
631.45	0.711
631.64	0.719
631.83	0.721
632.02	0.717
632.21	0.716
632.41	0.723
632.60	0.718
632.79	0.715
632.98	0.716
633.17	0.717
633.36	0.719
633.55	0.715
633.75	0.711
633.94	0.714
634.13	0.714
634.32	0.710
634.51	0.704
634.70	0.707
634.89	0.707
635.09	0.703
635.28	0.703
635.47	0.704
635.66	0.707
635.85	0.703
636.04	0.704
636.23	0.709
636.43	0.711
636.62	0.710
636.81	0.708
637.00	0.711
637.19	0.715
637.38	0.712
637.57	0.711
637.76	0.713
637.95	0.714
638.15	0.710
638.34	0.707
638.53	0.711
638.72	0.713
638.91	0.710
639.10	0.707
639.29	0.706
639.48	0.707
639.67	0.707
639.87	0.707
640.06	0.712
640.25	0.712
640.44	0.713
640.63	0.714
640.82	0.716
641.01	0.716
641.20	0.715
641.39	0.718
641.58	0.721
641.78	0.720
641.97	0.716
642.16	0.730
642.35	0.731
642.54	0.729
642.73	0.723
642.92	0.721
643.11	0.725
643.30	0.725
643.49	0.720
643.68	0.722
643.87	0.723
644.06	0.723
644.25	0.702
644.45	0.705
644.64	0.707
644.83	0.708
645.02	0.705
645.21	0.703
645.40	0.705
645.59	0.705
645.78	0.699
645.97	0.701
646.16	0.703
646.35	0.702
646.54	0.699
646.73	0.701
646.92	0.703
647.11	0.702
647.30	0.698
647.49	0.700
647.68	0.699
647.88	0.698
648.07	0.691
648.26	0.694
648.45	0.695
648.64	0.692
648.83	0.688
649.02	0.691
649.21	0.702
649.40	0.701
649.59	0.695
649.78	0.696
649.97	0.711
650.16	0.711
650.35	0.704
650.54	0.708
650.73	0.717
650.92	0.713
651.11	0.707
651.30	0.704
651.49	0.709
651.68	0.710
651.87	0.707
652.06	0.696
652.25	0.700
652.44	0.702
652.63	0.699
652.82	0.698
653.01	0.698
653.20	0.695
653.39	0.684
653.58	0.681
653.77	0.681
653.96	0.676
654.15	0.669
654.34	0.666
654.53	0.663
654.72	0.657
654.91	0.648
655.10	0.644
655.29	0.642
655.48	0.640
655.67	0.635
655.86	0.633
656.05	0.631
656.24	0.631
656.43	0.626
656.62	0.625
656.81	0.626
657.00	0.624
657.19	0.622
657.38	0.622
657.57	0.621
657.76	0.623
657.95	0.621
658.14	0.624
658.33	0.626
658.51	0.631
658.70	0.631
658.89	0.632
659.08	0.640
659.27	0.647
659.46	0.648
659.65	0.654
659.84	0.657
660.03	0.660
660.22	0.661
660.41	0.666
660.60	0.665
660.79	0.666
660.98	0.672
661.17	0.671
661.36	0.671
661.55	0.672
661.74	0.669
661.92	0.672
662.11	0.675
662.30	0.674
662.49	0.667
662.68	0.666
662.87	0.670
663.06	0.664
663.25	0.665
663.44	0.665
663.63	0.666
663.82	0.665
664.01	0.660
664.20	0.659
664.38	0.660
664.57	0.660
664.76	0.659
664.95	0.660
665.14	0.664
665.33	0.660
665.52	0.667
665.71	0.671
665.90	0.670
666.09	0.671
666.28	0.668
666.46	0.668
666.65	0.668
666.84	0.666
667.03	0.660
667.22	0.658
667.41	0.660
667.60	0.650
667.79	0.643
667.98	0.645
668.16	0.646
668.35	0.646
668.54	0.642
668.73	0.643
668.92	0.644
669.11	0.644
669.30	0.638
669.49	0.635
669.67	0.637
669.86	0.640
670.05	0.638
670.24	0.635
670.43	0.633
670.62	0.632
670.81	0.627
671.00	0.628
671.18	0.628
671.37	0.627
671.56	0.624
671.75	0.623
671.94	0.620
672.13	0.617
672.32	0.612
672.50	0.612
672.69	0.612
672.88	0.613
673.07	0.608
673.26	0.611
673.45	0.613
673.63	0.613
673.82	0.609
674.01	0.611
674.20	0.610
674.39	0.610
674.58	0.609
674.76	0.610
674.95	0.609
675.14	0.608
675.33	0.603
675.52	0.602
675.71	0.602
675.89	0.601
676.08	0.597
676.27	0.597
676.46	0.598
676.65	0.597
676.84	0.597
677.02	0.598
677.21	0.601
677.40	0.600
677.59	0.597
677.78	0.598
677.96	0.601
678.15	0.600
678.34	0.597
678.53	0.597
678.72	0.597
678.90	0.594
679.09	0.589
679.28	0.586
679.47	0.586
679.66	0.586
679.84	0.583
680.03	0.580
680.22	0.579
680.41	0.582
680.60	0.578
680.78	0.577
680.97	0.580
681.16	0.581
681.35	0.580
681.53	0.578
681.72	0.580
681.91	0.581
682.10	0.580
682.29	0.582
682.47	0.580
682.66	0.580
682.85	0.577
683.04	0.575
683.22	0.575
683.41	0.576
683.60	0.575
683.79	0.576
683.97	0.575
684.16	0.574
684.35	0.570
684.54	0.571
684.72	0.571
684.91	0.573
685.10	0.571
685.29	0.572
685.47	0.570
685.66	0.569
685.85	0.565
686.04	0.564
686.22	0.567
686.41	0.570
686.60	0.567
686.79	0.570
686.97	0.571
687.16	0.573
687.35	0.570
687.54	0.573
687.72	0.577
687.91	0.577
688.10	0.578
688.29	0.577
688.47	0.575
688.66	0.574
688.85	0.569
689.03	0.567
689.22	0.572
689.41	0.572
689.60	0.567
689.78	0.564
689.97	0.565
690.16	0.563
690.34	0.559
690.53	0.559
690.72	0.560
690.91	0.558
691.09	0.556
691.28	0.550
691.47	0.549
691.65	0.548
691.84	0.545
692.03	0.544
692.21	0.542
692.40	0.542
692.59	0.540
692.77	0.539
692.96	0.541
693.15	0.541
693.34	0.539
693.52	0.539
693.71	0.539
693.90	0.541
694.08	0.541
694.27	0.543
694.46	0.552
694.64	0.552
694.83	0.552
695.02	0.550
695.20	0.550
695.39	0.551
695.58	0.551
695.76	0.552
695.95	0.550
696.14	0.549
696.32	0.546
696.51	0.537
696.70	0.537
696.88	0.538
697.07	0.537
697.26	0.538
697.44	0.539
697.63	0.538
697.81	0.535
698.00	0.536
698.19	0.536
698.37	0.536
698.56	0.536
698.75	0.535
698.93	0.535
699.12	0.534
699.31	0.534
699.49	0.533
699.68	0.534
699.87	0.537
700.05	0.536
700.24	0.535
700.42	0.536
700.61	0.535
700.80	0.533
700.98	0.535
701.17	0.536
701.36	0.534
701.54	0.533
701.73	0.534
701.91	0.532
702.10	0.531
702.29	0.529
702.47	0.528
702.66	0.530
702.84	0.531
703.03	0.528
703.22	0.530
703.40	0.530
703.59	0.532
703.77	0.530
703.96	0.530
704.15	0.531
704.33	0.532
704.52	0.531
704.70	0.530
704.89	0.530
705.08	0.528
705.26	0.524
705.45	0.525
705.63	0.524
705.82	0.522
706.00	0.520
706.19	0.519
706.38	0.519
706.56	0.519
706.75	0.517
706.93	0.516
707.12	0.518
707.30	0.518
707.49	0.515
707.68	0.513
707.86	0.512
708.05	0.512
708.23	0.509
708.42	0.510
708.60	0.513
708.79	0.513
708.98	0.512
709.16	0.511
709.35	0.513
709.53	0.517
709.72	0.516
709.90	0.518
710.09	0.520
710.27	0.523
710.46	0.526
710.64	0.525
710.83	0.526
711.02	0.528
711.20	0.527
711.39	0.525
711.57	0.523
711.76	0.523
711.94	0.521
712.13	0.522
712.31	0.522
712.50	0.517
712.68	0.514
712.87	0.515
713.05	0.515
713.24	0.515
713.42	0.514
713.61	0.515
713.79	0.516
713.98	0.517
714.16	0.517
714.35	0.516
714.54	0.517
714.72	0.517
714.91	0.515
715.09	0.521
715.28	0.525
715.46	0.525
715.65	0.522
715.83	0.522
716.02	0.524
716.20	0.521
716.39	0.520
716.57	0.521
716.76	0.524
716.94	0.523
717.12	0.515
717.31	0.516
717.49	0.518
717.68	0.521
717.86	0.519
718.05	0.521
718.23	0.524
718.42	0.527
718.60	0.528
718.79	0.535
718.97	0.538
719.16	0.538
719.34	0.536
719.53	0.536
719.71	0.535
719.90	0.537
720.08	0.535
720.27	0.535
720.45	0.535
720.63	0.534
720.82	0.527
721.00	0.530
721.19	0.534
721.37	0.533
721.56	0.533
721.74	0.536
721.93	0.544
722.11	0.551
722.30	0.550
722.48	0.555
722.66	0.556
722.85	0.556
723.03	0.555
723.22	0.553
723.40	0.557
723.59	0.557
723.77	0.560
723.95	0.552
724.14	0.554
724.32	0.556
724.51	0.555
724.69	0.556
724.88	0.557
725.06	0.556
725.24	0.557
725.43	0.558
725.61	0.561
725.80	0.555
725.98	0.555
726.16	0.551
726.35	0.557
726.53	0.556
726.72	0.555
726.90	0.565
727.09	0.566
727.27	0.571
727.45	0.569
727.64	0.577
727.82	0.586
728.01	0.589
728.19	0.586
728.37	0.590
728.56	0.594
728.74	0.600
728.92	0.586
729.11	0.590
729.29	0.588
729.48	0.591
729.66	0.580
729.84	0.580
730.03	0.584
730.21	0.586
730.40	0.577
730.58	0.578
730.76	0.578
730.95	0.581
731.13	0.580
731.31	0.593
731.50	0.601
731.68	0.606
731.86	0.600
732.05	0.613
732.23	0.615
732.42	0.620
732.60	0.623
732.78	0.628
732.97	0.646
733.15	0.653
733.33	0.642
733.52	0.649
733.70	0.660
733.88	0.671
734.07	0.656
734.25	0.683
734.43	0.692
734.62	0.693
734.80	0.687
734.98	0.678
735.17	0.684
735.35	0.688
735.53	0.675
735.72	0.676
735.90	0.697
736.08	0.716
736.27	0.691
736.45	0.698
736.63	0.710
736.82	0.722
737.00	0.722
737.18	0.733
737.37	0.767
737.55	0.790
737.73	0.785
737.92	0.787
738.10	0.785
738.28	0.806
738.46	0.794
738.65	0.808
738.83	0.826
739.01	0.878
739.20	0.866
739.38	0.843
739.56	0.833
739.75	0.838
739.93	0.803
740.11	0.827
740.29	0.829
740.48	0.835
740.66	0.811
740.84	0.806
741.03	0.772
741.21	0.782
741.39	0.765
741.57	0.780
741.76	0.795
741.94	0.799
742.12	0.764
742.31	0.768
742.49	0.786
742.67	0.809
742.85	0.821
743.04	0.826
743.22	0.837
743.40	0.890
743.58	0.865
743.77	0.882
743.95	0.917
744.13	0.962
744.31	0.945
744.50	0.937
744.68	0.944
744.86	0.921
745.04	0.929
745.23	0.988
745.41	0.973
745.59	0.987
745.77	0.952
745.96	0.941
746.14	0.949
746.32	0.945
746.50	0.936
746.69	0.915
746.87	0.922
747.05	0.909
747.23	0.838
747.42	0.824
747.60	0.847
747.78	0.848
747.96	0.871
748.14	0.834
748.33	0.863
748.51	0.860
748.69	0.853
748.87	0.883
749.06	0.881
749.24	0.880
749.42	0.863
749.60	0.847
749.78	0.857
749.97	0.814
750.15	0.807
750.33	0.806
750.51	0.831
750.69	0.835
750.88	0.836
751.06	0.849
751.24	0.879
751.42	0.867
751.60	0.860
751.79	0.926
751.97	0.979
752.15	0.979
752.33	0.946
752.51	1.008
752.69	1.023
752.88	0.991
753.06	1.029
753.24	1.002
753.42	1.044
753.60	1.208
753.78	1.067
753.97	1.079
754.15	1.099
754.33	1.133
754.51	1.008
754.69	0.997
754.87	1.030
755.06	0.959
755.24	0.962
755.42	0.968
755.60	0.875
755.78	0.883
755.96	0.830
756.15	0.833
756.33	0.837
756.51	0.856
756.69	0.842
756.87	0.808
757.05	0.830
757.23	0.813
757.42	0.781
757.60	0.778
757.78	0.769
757.96	0.768
758.14	0.750
758.32	0.736
758.50	0.749
758.69	0.747
758.87	0.740
759.05	0.743
759.23	0.753
759.41	0.754
759.59	0.745
759.77	0.767
759.95	0.797
760.13	0.842
760.32	0.840
760.50	0.836
760.68	0.859
760.86	0.858
761.04	0.831
761.22	0.832
761.40	0.879
761.58	0.880
761.76	0.851
761.95	0.829
762.13	0.789
762.31	0.790
762.49	0.762
762.67	0.781
762.85	0.795
763.03	0.792
763.21	0.773
763.39	0.757
763.57	0.762
763.75	0.759
763.94	0.746
764.12	0.745
764.30	0.768
764.48	0.769
764.66	0.730
764.84	0.727
765.02	0.763
765.20	0.774
765.38	0.753
765.56	0.757
765.74	0.795
765.92	0.793
766.10	0.801
766.28	0.796
766.46	0.825
766.65	0.827
766.83	0.816
767.01	0.800
767.19	0.804
767.37	0.803
767.55	0.791
767.73	0.771
767.91	0.776
768.09	0.765
768.27	0.752
768.45	0.740
768.63	0.747
768.81	0.749
768.99	0.724
769.17	0.749
769.35	0.763
769.53	0.760
769.71	0.739
769.89	0.745
770.07	0.751
770.25	0.737
770.43	0.716
770.61	0.740
770.79	0.748
770.97	0.757
771.15	0.726
771.33	0.729
771.51	0.734
771.69	0.747
771.87	0.756
772.05	0.762
772.24	0.770
772.42	0.779
772.60	0.755
772.78	0.809
772.96	0.836
773.14	0.829
773.32	0.808
773.49	0.813
773.67	0.811
773.85	0.790
774.03	0.777
774.21	0.805
774.39	0.818
774.57	0.839
774.75	0.771
774.93	0.769
775.11	0.790
775.29	0.797
775.47	0.797
775.65	0.805
775.83	0.820
776.01	0.840
776.19	0.796
776.37	0.797
776.55	0.798
776.73	0.791
776.91	0.783
777.09	0.767
777.27	0.765
777.45	0.756
777.63	0.736
777.81	0.734
777.99	0.722
778.17	0.722
778.35	0.699
778.53	0.689
778.71	0.698
778.89	0.688
779.07	0.679
779.24	0.685
779.42	0.685
779.60	0.702
779.78	0.699
779.96	0.706
780.14	0.715
780.32	0.733
780.50	0.718
780.68	0.715
780.86	0.707
781.04	0.725
781.22	0.732
781.40	0.743
781.58	0.736
781.75	0.729
781.93	0.711
782.11	0.710
782.29	0.699
782.47	0.698
782.65	0.688
782.83	0.718
783.01	0.714
783.19	0.706
783.37	0.693
783.55	0.694
783.72	0.713
783.90	0.724
784.08	0.714
784.26	0.725
784.44	0.742
784.62	0.741
784.80	0.706
784.98	0.707
785.16	0.710
785.33	0.721
785.51	0.706
785.69	0.693
785.87	0.693
786.05	0.704
786.23	0.701
786.41	0.701
786.59	0.709
786.77	0.708
786.94	0.697
787.12	0.702
787.30	0.705
787.48	0.704
787.66	0.693
787.84	0.693
788.02	0.683
788.19	0.681
788.37	0.667
788.55	0.668
788.73	0.669
788.91	0.663
789.09	0.648
789.27	0.638
789.44	0.647
789.62	0.652
789.80	0.660
789.98	0.684
790.16	0.671
790.34	0.668
790.51	0.656
790.69	0.675
790.87	0.683
791.05	0.679
791.23	0.673
791.41	0.675
791.58	0.683
791.76	0.665
791.94	0.635
792.12	0.645
792.30	0.649
792.48	0.648
792.65	0.640
792.83	0.646
793.01	0.654
793.19	0.652
793.37	0.636
793.54	0.632
793.72	0.642
793.90	0.641
794.08	0.629
794.26	0.630
794.43	0.637
794.61	0.621
794.79	0.611
794.97	0.611
795.15	0.617
795.32	0.623
795.50	0.612
795.68	0.607
795.86	0.612
796.04	0.614
796.21	0.608
796.39	0.606
796.57	0.623
796.75	0.630
796.92	0.628
797.10	0.633
797.28	0.635
797.46	0.640
797.64	0.641
797.81	0.650
797.99	0.653
798.17	0.656
798.35	0.651
798.52	0.653
798.70	0.649
798.88	0.659
799.06	0.659
799.23	0.659
799.41	0.667
799.59	0.659
799.77	0.646
799.94	0.656
800.12	0.666
800.30	0.682
800.48	0.679
800.65	0.678
800.83	0.668
801.01	0.657
801.19	0.657
801.36	0.652
801.54	0.656
801.72	0.667
801.90	0.654
802.07	0.649
802.25	0.636
802.43	0.621
802.60	0.617
802.78	0.623
802.96	0.630
803.14	0.624
803.31	0.623
803.49	0.625
803.67	0.620
803.84	0.625
804.02	0.618
804.20	0.619
804.38	0.625
804.55	0.623
804.73	0.610
804.91	0.611
805.08	0.622
805.26	0.618
805.44	0.679
805.61	0.682
805.79	0.681
805.97	0.679
806.15	0.672
806.32	0.666
806.50	0.674
806.68	0.674
806.85	0.664
807.03	0.654
807.21	0.672
807.38	0.607
807.56	0.597
807.74	0.606
807.91	0.613
808.09	0.615
808.27	0.634
808.44	0.659
808.62	0.669
808.80	0.671
808.97	0.668
809.15	0.662
809.33	0.680
809.50	0.686
809.68	0.673
809.86	0.681
810.03	0.712
810.21	0.692
810.39	0.673
810.56	0.679
810.74	0.704
810.91	0.774
811.09	0.763
811.27	0.782
811.44	0.789
811.62	0.789
811.80	0.770
811.97	0.741
812.15	0.740
812.33	0.737
812.50	0.721
812.68	0.709
812.85	0.655
813.03	0.657
813.21	0.626
813.38	0.621
813.56	0.626
813.74	0.636
813.91	0.644
814.09	0.672
814.26	0.665
814.44	0.669
814.62	0.657
814.79	0.659
814.97	0.664
815.14	0.666
815.32	0.669
815.50	0.684
815.67	0.684
815.85	0.674
816.02	0.662
816.20	0.671
816.38	0.686
816.55	0.692
816.73	0.692
816.90	0.700
817.08	0.734
817.26	0.739
817.43	0.716
817.61	0.743
817.78	0.765
817.96	0.744
818.13	0.729
818.31	0.730
818.49	0.741
818.66	0.732
818.84	0.717
819.01	0.695
819.19	0.702
819.36	0.705
819.54	0.675
819.71	0.714
819.89	0.729
820.07	0.742
820.24	0.734
820.42	0.732
820.59	0.751
820.77	0.775
820.94	0.764
821.12	0.780
821.29	0.795
821.47	0.799
821.64	0.735
821.82	0.746
822.00	0.744
822.17	0.742
822.35	0.735
822.52	0.738
822.70	0.727
822.87	0.739
823.05	0.719
823.22	0.731
823.40	0.759
823.57	0.783
823.75	0.768
823.92	0.794
824.10	0.814
824.27	0.858
824.45	0.846
824.62	0.909
824.80	0.925
824.97	0.938
825.15	0.929
825.32	0.939
825.50	0.941
825.67	0.949
825.85	0.920
826.02	0.940
826.20	0.959
826.37	1.079
826.55	0.992
826.72	1.185
826.90	1.251
827.07	1.297
827.25	1.220
827.42	1.366
827.60	1.508
827.77	1.675
827.95	1.595
828.12	1.689
828.30	1.373
828.47	1.495
828.65	1.150
828.82	1.198
829.00	1.245
829.17	1.327
829.34	1.313
829.52	1.358
829.69	-0.000
829.87	-0.000
830.04	-0.000
830.22	-0.000
830.39	-0.000
830.57	-0.000
830.74	-0.000
830.92	-0.000
831.09	-0.000
831.26	-0.000
831.44	-0.000
831.61	-0.000
831.79	-0.000
831.96	-0.000
832.14	-0.000
832.31	-0.000
832.49	-0.000
832.66	-0.000
832.83	-0.000
833.01	-0.000
833.18	-0.000
833.36	-0.000
833.53	-0.000
833.70	-0.000
833.88	-0.000
834.05	-0.000
834.23	-0.000
834.40	-0.000
834.58	-0.000
834.75	-0.000
834.92	-0.000
835.10	-0.000
835.27	-0.000
835.45	-0.000
835.62	-0.000
835.79	-0.000
835.97	-0.000
836.14	-0.000
836.32	-0.000
836.49	-0.000
836.66	-0.000
836.84	-0.000
837.01	-0.000
837.18	-0.000
837.36	-0.000
837.53	-0.000
837.71	-0.000
837.88	-0.000
838.05	-0.000
838.23	-0.000
838.40	-0.000
838.58	-0.000
838.75	-0.000
838.92	-0.000
839.10	-0.000
839.27	-0.000
839.44	-0.000
839.62	-0.000
839.79	-0.000
839.96	-0.000
840.14	-0.000
840.31	-0.000
840.48	-0.000
840.66	-0.000
840.83	-0.000
841.01	-0.000
841.18	-0.000
841.35	-0.000
841.53	-0.000
841.70	-0.000
841.87	-0.000
842.05	-0.000
842.22	-0.000
842.39	-0.000
842.57	-0.000
842.74	-0.000
842.91	-0.000
843.09	-0.000
843.26	-0.000
843.43	-0.000
843.60	-0.000
843.78	-0.000
843.95	-0.000
844.12	-0.000
844.30	-0.000
844.47	-0.000
844.64	-0.000
844.82	-0.000
844.99	-0.000
845.16	-0.000
845.34	-0.000
845.51	-0.000
845.68	-0.000
845.85	-0.000
846.03	-0.000
846.20	-0.000
846.37	-0.000
846.55	-0.000
846.72	-0.000
846.89	-0.000
847.06	-0.000
847.24	-0.000
847.41	-0.000
847.58	-0.000
847.76	-0.000
847.93	-0.000
848.10	-0.000
848.27	-0.000
848.45	-0.000
848.62	-0.000
848.79	-0.000
848.97	-0.000
849.14	-0.000
849.31	-0.000
849.48	-0.000
849.66	-0.000
849.83	-0.000
850.00	-0.000
850.17	-0.000
850.35	-0.000
850.52	-0.000
850.69	-0.000
850.86	-0.000
851.04	-0.000
851.21	-0.000
851.38	-0.000
851.55	-0.000
851.72	-0.000
851.90	-0.000
852.07	-0.000
852.24	-0.000
852.41	-0.000
852.59	-0.000
852.76	-0.000
852.93	-0.000
853.10	-0.000
853.28	-0.000
853.45	-0.000
853.62	-0.000
853.79	-0.000
853.96	-0.000
854.14	-0.000
854.31	-0.000
854.48	-0.000
854.65	-0.000
854.82	-0.000
855.00	-0.000
855.17	-0.000
855.34	-0.000
855.51	-0.000
855.68	-0.000
855.86	-0.000
856.03	-0.000
856.20	-0.000
856.37	-0.000
856.54	-0.000
856.72	-0.000
856.89	-0.000
857.06	-0.000
857.23	-0.000
857.40	-0.000
857.57	-0.000
857.75	-0.000
857.92	-0.000
858.09	-0.000
858.26	-0.000
858.43	-0.000
858.60	-0.000
858.78	-0.000
858.95	-0.000
859.12	-0.000
859.29	-0.000
859.46	-0.000
859.63	-0.000
859.81	-0.000
859.98	-0.000
860.15	-0.000
860.32	-0.000
860.49	-0.000
860.66	-0.000
860.83	-0.000
861.01	-0.000
861.18	-0.000
861.35	-0.000
861.52	-0.000
861.69	-0.000
861.86	-0.000
862.03	-0.000
862.21	-0.000
862.38	-0.000
862.55	-0.000
862.72	-0.000
862.89	-0.000
863.06	-0.000
863.23	-0.000
863.40	-0.000
863.58	-0.000
863.75	-0.000
863.92	-0.000
864.09	-0.000
864.26	-0.000
864.43	-0.000
864.60	-0.000
864.77	-0.000
864.94	-0.000
865.11	-0.000
865.29	-0.000
865.46	-0.000
865.63	-0.000
865.80	-0.000
865.97	-0.000
866.14	-0.000
866.31	-0.000
866.48	-0.000
866.65	-0.000
866.82	-0.000
866.99	-0.000
867.16	-0.000
867.34	-0.000
867.51	-0.000
867.68	-0.000
867.85	-0.000
868.02	-0.000
868.19	-0.000
868.36	-0.000
868.53	-0.000
868.70	-0.000
868.87	-0.000
869.04	-0.000
869.21	-0.000
869.38	-0.000
869.55	-0.000
869.72	-0.000
869.89	-0.000
870.06	-0.000
870.24	-0.000
870.41	-0.000
870.58	-0.000
870.75	-0.000
870.92	-0.000
871.09	-0.000
871.26	-0.000
871.43	-0.000
871.60	-0.000
871.77	-0.000
871.94	-0.000
872.11	-0.000
872.28	-0.000
872.45	-0.000
872.62	-0.000
872.79	-0.000
872.96	-0.000
873.13	-0.000
873.30	-0.000
873.47	-0.000
873.64	-0.000
873.81	-0.000
873.98	-0.000
874.15	-0.000
874.32	-0.000
874.49	-0.000
874.66	-0.000
874.83	-0.000
875.00	-0.000
875.17	-0.000
875.34	-0.000
875.51	-0.000
875.68	-0.000
875.85	-0.000
876.02	-0.000
876.19	-0.000
876.36	-0.000
876.53	-0.000
876.70	-0.000
876.87	-0.000
877.04	-0.000
877.21	-0.000
877.38	-0.000
877.55	-0.000
877.72	-0.000
877.89	-0.000
878.06	-0.000
878.23	-0.000
878.39	-0.000
878.56	-0.000
878.73	-0.000
878.90	-0.000
879.07	-0.000
879.24	-0.000
879.41	-0.000
879.58	-0.000
879.75	-0.000
879.92	-0.000
880.09	-0.000
880.26	-0.000
880.43	-0.000
880.60	-0.000
880.77	-0.000
880.94	-0.000
881.11	-0.000
881.27	-0.000
881.44	-0.000
881.61	-0.000
881.78	-0.000
881.95	-0.000
882.12	-0.000
882.29	-0.000
882.46	-0.000
882.63	-0.000
882.80	-0.000
882.97	-0.000
883.14	-0.000
883.30	-0.000
883.47	-0.000
883.64	-0.000
883.81	-0.000
883.98	-0.000
884.15	-0.000
884.32	-0.000
884.49	-0.000
884.66	-0.000
884.82	-0.000
884.99	-0.000
885.16	-0.000
885.33	-0.000
885.50	-0.000
885.67	-0.000
885.84	-0.000
886.01	-0.000
886.17	-0.000
886.34	-0.000
886.51	-0.000
886.68	-0.000
886.85	-0.000
887.02	-0.000
887.19	-0.000
887.36	-0.000
887.52	-0.000
887.69	-0.000
887.86	-0.000
888.03	-0.000
888.20	-0.000
888.37	-0.000
888.54	-0.000
888.70	-0.000
888.87	-0.000
889.04	-0.000
889.21	-0.000
889.38	-0.000
889.55	-0.000
889.71	-0.000
889.88	-0.000
890.05	-0.000
890.22	-0.000
890.39	-0.000
>>>>>End Processed Spectral Data<<<<<
