SpectraSuite Data File
++++++++++++++++++++++++++++++++++++
Date: Fri Jun 19 12:28:30 CEST 2015
User: introlabs
Dark Spectrum Present: Yes
Reference Spectrum Present: Yes
Number of Sampled Component Spectra: 1
Spectrometers: USB4H08886
Integration Time (usec): 745692 (USB4H08886)
Spectra Averaged: 5 (USB4H08886)
Boxcar Smoothing: 5 (USB4H08886)
Correct for Electrical Dark: Yes (USB4H08886)
Strobe/Lamp Enabled: No (USB4H08886)
Correct for Detector Non-linearity: Yes (USB4H08886)
Correct for Stray Light: Yes (USB4H08886)
Number of Pixels in Processed Spectrum: 3648
>>>>>Begin Processed Spectral Data<<<<<
178.14	-0.000
178.36	-0.000
178.57	-0.000
178.79	-0.000
179.01	-0.000
179.22	-0.000
179.44	-0.000
179.65	-0.000
179.87	-0.000
180.08	-0.000
180.30	-0.000
180.52	-0.000
180.73	-0.000
180.95	-0.000
181.16	-0.000
181.38	-0.000
181.59	-0.000
181.81	-0.000
182.03	-0.000
182.24	-0.000
182.46	-0.000
182.67	-0.000
182.89	-0.000
183.10	-0.000
183.32	-0.000
183.54	-0.000
183.75	-0.000
183.97	-0.000
184.18	-0.000
184.40	-0.000
184.61	-0.000
184.83	-0.000
185.04	-0.000
185.26	-0.000
185.48	-0.000
185.69	-0.000
185.91	-0.000
186.12	-0.000
186.34	-0.000
186.55	-0.000
186.77	-0.000
186.98	-0.000
187.20	-0.000
187.42	-0.000
187.63	-0.000
187.85	-0.000
188.06	-0.000
188.28	-0.000
188.49	-0.000
188.71	-0.000
188.92	-0.000
189.14	-0.000
189.36	-0.000
189.57	-0.000
189.79	-0.000
190.00	-0.000
190.22	-0.000
190.43	-0.000
190.65	-0.000
190.86	-0.000
191.08	-0.000
191.29	-0.000
191.51	-0.000
191.72	-0.000
191.94	-0.000
192.16	-0.000
192.37	-0.000
192.59	-0.000
192.80	-0.000
193.02	-0.000
193.23	-0.000
193.45	-0.000
193.66	-0.000
193.88	-0.000
194.09	-0.000
194.31	-0.000
194.52	-0.000
194.74	-0.000
194.95	-0.000
195.17	-0.000
195.38	-0.000
195.60	-0.000
195.81	-0.000
196.03	-0.000
196.25	-0.000
196.46	-0.000
196.68	-0.000
196.89	-0.000
197.11	-0.000
197.32	-0.000
197.54	-0.000
197.75	-0.000
197.97	-0.000
198.18	-0.000
198.40	-0.000
198.61	-0.000
198.83	-0.000
199.04	-0.000
199.26	-0.000
199.47	-0.000
199.69	-0.000
199.90	-0.000
200.12	-0.000
200.33	-0.000
200.55	-0.000
200.76	-0.000
200.98	-0.000
201.19	-0.000
201.41	-0.000
201.62	-0.000
201.84	-0.000
202.05	-0.000
202.27	-0.000
202.48	-0.000
202.70	-0.000
202.91	-0.000
203.13	-0.000
203.34	-0.000
203.56	-0.000
203.77	-0.000
203.99	-0.000
204.20	-0.000
204.42	-0.000
204.63	-0.000
204.85	-0.000
205.06	-0.000
205.28	-0.000
205.49	-0.000
205.71	-0.000
205.92	-0.000
206.14	-0.000
206.35	-0.000
206.56	-0.000
206.78	-0.000
206.99	-0.000
207.21	-0.000
207.42	-0.000
207.64	-0.000
207.85	-0.000
208.07	-0.000
208.28	-0.000
208.50	-0.000
208.71	-0.000
208.93	-0.000
209.14	-0.000
209.36	-0.000
209.57	-0.000
209.79	-0.000
210.00	-0.000
210.22	-0.000
210.43	-0.000
210.64	-0.000
210.86	-0.000
211.07	-0.000
211.29	-0.000
211.50	-0.000
211.72	-0.000
211.93	-0.000
212.15	-0.000
212.36	-0.000
212.58	-0.000
212.79	-0.000
213.01	-0.000
213.22	-0.000
213.43	-0.000
213.65	-0.000
213.86	-0.000
214.08	-0.000
214.29	-0.000
214.51	-0.000
214.72	-0.000
214.94	-0.000
215.15	-0.000
215.36	-0.000
215.58	-0.000
215.79	-0.000
216.01	-0.000
216.22	-0.000
216.44	-0.000
216.65	-0.000
216.87	-0.000
217.08	-0.000
217.29	-0.000
217.51	-0.000
217.72	-0.000
217.94	-0.000
218.15	-0.000
218.37	-0.000
218.58	-0.000
218.80	-0.000
219.01	-0.000
219.22	-0.000
219.44	-0.000
219.65	-0.000
219.87	-0.000
220.08	-0.000
220.30	-0.000
220.51	-0.000
220.72	-0.000
220.94	-0.000
221.15	-0.000
221.37	-0.000
221.58	-0.000
221.79	-0.000
222.01	-0.000
222.22	-0.000
222.44	-0.000
222.65	-0.000
222.87	-0.000
223.08	-0.000
223.29	-0.000
223.51	-0.000
223.72	-0.000
223.94	-0.000
224.15	-0.000
224.36	-0.000
224.58	-0.000
224.79	-0.000
225.01	-0.000
225.22	-0.000
225.44	-0.000
225.65	-0.000
225.86	-0.000
226.08	-0.000
226.29	-0.000
226.51	-0.000
226.72	-0.000
226.93	-0.000
227.15	-0.000
227.36	-0.000
227.58	-0.000
227.79	-0.000
228.00	-0.000
228.22	-0.000
228.43	-0.000
228.65	-0.000
228.86	-0.000
229.07	-0.000
229.29	-0.000
229.50	-0.000
229.72	-0.000
229.93	-0.000
230.14	-0.000
230.36	-0.000
230.57	-0.000
230.78	-0.000
231.00	-0.000
231.21	-0.000
231.43	-0.000
231.64	-0.000
231.85	-0.000
232.07	-0.000
232.28	-0.000
232.50	-0.000
232.71	-0.000
232.92	-0.000
233.14	-0.000
233.35	-0.000
233.56	-0.000
233.78	-0.000
233.99	-0.000
234.21	-0.000
234.42	-0.000
234.63	-0.000
234.85	-0.000
235.06	-0.000
235.27	-0.000
235.49	-0.000
235.70	-0.000
235.91	-0.000
236.13	-0.000
236.34	-0.000
236.56	-0.000
236.77	-0.000
236.98	-0.000
237.20	-0.000
237.41	-0.000
237.62	-0.000
237.84	-0.000
238.05	-0.000
238.26	-0.000
238.48	-0.000
238.69	-0.000
238.91	-0.000
239.12	-0.000
239.33	-0.000
239.55	-0.000
239.76	-0.000
239.97	-0.000
240.19	-0.000
240.40	-0.000
240.61	-0.000
240.83	-0.000
241.04	-0.000
241.25	-0.000
241.47	-0.000
241.68	-0.000
241.89	-0.000
242.11	-0.000
242.32	-0.000
242.53	-0.000
242.75	-0.000
242.96	-0.000
243.17	-0.000
243.39	-0.000
243.60	-0.000
243.81	-0.000
244.03	-0.000
244.24	-0.000
244.45	-0.000
244.67	-0.000
244.88	-0.000
245.09	-0.000
245.31	-0.000
245.52	-0.000
245.73	-0.000
245.95	-0.000
246.16	-0.000
246.37	-0.000
246.59	-0.000
246.80	-0.000
247.01	-0.000
247.23	-0.000
247.44	-0.000
247.65	-0.000
247.87	-0.000
248.08	-0.000
248.29	-0.000
248.51	-0.000
248.72	-0.000
248.93	-0.000
249.15	-0.000
249.36	-0.000
249.57	-0.000
249.78	-0.000
250.00	-0.000
250.21	-0.000
250.42	-0.000
250.64	-0.000
250.85	-0.000
251.06	-0.000
251.28	-0.000
251.49	-0.000
251.70	-0.000
251.92	-0.000
252.13	-0.000
252.34	-0.000
252.55	-0.000
252.77	-0.000
252.98	-0.000
253.19	-0.000
253.41	-0.000
253.62	-0.000
253.83	-0.000
254.05	-0.000
254.26	-0.000
254.47	-0.000
254.68	-0.000
254.90	-0.000
255.11	-0.000
255.32	-0.000
255.54	-0.000
255.75	-0.000
255.96	-0.000
256.17	-0.000
256.39	-0.000
256.60	-0.000
256.81	-0.000
257.03	-0.000
257.24	-0.000
257.45	-0.000
257.66	-0.000
257.88	-0.000
258.09	-0.000
258.30	-0.000
258.51	-0.000
258.73	-0.000
258.94	-0.000
259.15	-0.000
259.37	-0.000
259.58	-0.000
259.79	-0.000
260.00	-0.000
260.22	-0.000
260.43	-0.000
260.64	-0.000
260.85	-0.000
261.07	-0.000
261.28	-0.000
261.49	-0.000
261.71	-0.000
261.92	-0.000
262.13	-0.000
262.34	-0.000
262.56	-0.000
262.77	-0.000
262.98	-0.000
263.19	-0.000
263.41	-0.000
263.62	-0.000
263.83	-0.000
264.04	-0.000
264.26	-0.000
264.47	-0.000
264.68	-0.000
264.89	-0.000
265.11	-0.000
265.32	-0.000
265.53	-0.000
265.74	-0.000
265.96	-0.000
266.17	-0.000
266.38	-0.000
266.59	-0.000
266.81	-0.000
267.02	-0.000
267.23	-0.000
267.44	-0.000
267.65	-0.000
267.87	-0.000
268.08	-0.000
268.29	-0.000
268.50	-0.000
268.72	-0.000
268.93	-0.000
269.14	-0.000
269.35	-0.000
269.57	-0.000
269.78	-0.000
269.99	-0.000
270.20	-0.000
270.41	-0.000
270.63	-0.000
270.84	-0.000
271.05	-0.000
271.26	-0.000
271.48	-0.000
271.69	-0.000
271.90	-0.000
272.11	-0.000
272.32	-0.000
272.54	-0.000
272.75	-0.000
272.96	-0.000
273.17	-0.000
273.39	-0.000
273.60	-0.000
273.81	-0.000
274.02	-0.000
274.23	-0.000
274.45	-0.000
274.66	-0.000
274.87	-0.000
275.08	-0.000
275.29	-0.000
275.51	-0.000
275.72	-0.000
275.93	-0.000
276.14	-0.000
276.35	-0.000
276.57	-0.000
276.78	-0.000
276.99	-0.000
277.20	-0.000
277.41	-0.000
277.63	-0.000
277.84	-0.000
278.05	-0.000
278.26	-0.000
278.47	-0.000
278.69	-0.000
278.90	-0.000
279.11	-0.000
279.32	-0.000
279.53	-0.000
279.74	-0.000
279.96	-0.000
280.17	-0.000
280.38	-0.000
280.59	-0.000
280.80	-0.000
281.02	-0.000
281.23	-0.000
281.44	-0.000
281.65	-0.000
281.86	-0.000
282.07	-0.000
282.29	-0.000
282.50	-0.000
282.71	-0.000
282.92	-0.000
283.13	-0.000
283.35	-0.000
283.56	-0.000
283.77	-0.000
283.98	-0.000
284.19	-0.000
284.40	-0.000
284.62	-0.000
284.83	-0.000
285.04	-0.000
285.25	-0.000
285.46	-0.000
285.67	-0.000
285.88	-0.000
286.10	-0.000
286.31	-0.000
286.52	-0.000
286.73	-0.000
286.94	-0.000
287.15	-0.000
287.37	-0.000
287.58	-0.000
287.79	-0.000
288.00	-0.000
288.21	-0.000
288.42	-0.000
288.63	-0.000
288.85	-0.000
289.06	-0.000
289.27	-0.000
289.48	-0.000
289.69	-0.000
289.90	-0.000
290.11	-0.000
290.33	-0.000
290.54	-0.000
290.75	-0.000
290.96	-0.000
291.17	-0.000
291.38	-0.000
291.59	-0.000
291.81	-0.000
292.02	-0.000
292.23	-0.000
292.44	2.303
292.65	1.938
292.86	2.312
293.07	2.134
293.28	1.761
293.50	1.835
293.71	2.060
293.92	1.934
294.13	2.018
294.34	2.053
294.55	2.238
294.76	2.153
294.97	1.892
295.19	2.006
295.40	2.690
295.61	2.401
295.82	1.828
296.03	1.694
296.24	1.752
296.45	1.540
296.66	1.392
296.87	1.400
297.09	1.443
297.30	1.509
297.51	1.365
297.72	1.339
297.93	1.389
298.14	1.367
298.35	1.342
298.56	1.327
298.77	1.395
298.99	1.384
299.20	1.361
299.41	1.353
299.62	1.338
299.83	1.332
300.04	1.293
300.25	1.287
300.46	1.321
300.67	1.302
300.88	1.266
301.10	1.264
301.31	1.318
301.52	1.281
301.73	1.239
301.94	1.240
302.15	1.252
302.36	1.227
302.57	1.183
302.78	1.188
302.99	1.218
303.20	1.230
303.41	1.171
303.63	1.151
303.84	1.155
304.05	1.153
304.26	1.111
304.47	1.119
304.68	1.125
304.89	1.119
305.10	1.084
305.31	1.077
305.52	1.107
305.73	1.101
305.94	1.075
306.15	1.072
306.37	1.092
306.58	1.098
306.79	1.070
307.00	1.084
307.21	1.115
307.42	1.113
307.63	1.085
307.84	1.059
308.05	1.087
308.26	1.086
308.47	1.067
308.68	1.065
308.89	1.069
309.10	1.066
309.31	1.037
309.52	1.030
309.73	1.043
309.95	1.038
310.16	1.018
310.37	1.010
310.58	1.027
310.79	1.026
311.00	1.018
311.21	1.017
311.42	1.020
311.63	1.014
311.84	1.000
312.05	0.998
312.26	1.018
312.47	1.025
312.68	1.006
312.89	0.993
313.10	1.001
313.31	0.980
313.52	0.980
313.73	0.982
313.94	0.988
314.15	0.973
314.36	0.954
314.57	0.947
314.78	0.939
314.99	0.934
315.21	0.923
315.42	0.925
315.63	0.936
315.84	0.920
316.05	0.907
316.26	0.912
316.47	0.928
316.68	0.926
316.89	0.910
317.10	0.926
317.31	0.933
317.52	0.935
317.73	0.919
317.94	0.920
318.15	0.960
318.36	0.960
318.57	0.943
318.78	0.935
318.99	0.964
319.20	0.962
319.41	0.934
319.62	0.935
319.83	0.945
320.04	0.941
320.25	0.927
320.46	0.895
320.67	0.900
320.88	0.898
321.09	0.885
321.30	0.874
321.51	0.887
321.72	0.886
321.93	0.869
322.14	0.864
322.35	0.885
322.56	0.887
322.77	0.876
322.98	0.884
323.19	0.892
323.40	0.898
323.61	0.879
323.82	0.875
324.03	0.882
324.24	0.882
324.45	0.871
324.66	0.855
324.87	0.855
325.08	0.855
325.29	0.837
325.50	0.831
325.71	0.838
325.92	0.844
326.13	0.832
326.34	0.831
326.55	0.838
326.76	0.837
326.97	0.827
327.18	0.823
327.39	0.843
327.60	0.844
327.80	0.843
328.01	0.841
328.22	0.842
328.43	0.845
328.64	0.834
328.85	0.839
329.06	0.842
329.27	0.843
329.48	0.837
329.69	0.823
329.90	0.834
330.11	0.828
330.32	0.821
330.53	0.816
330.74	0.817
330.95	0.816
331.16	0.802
331.37	0.808
331.58	0.808
331.79	0.808
332.00	0.800
332.21	0.794
332.42	0.798
332.63	0.791
332.83	0.787
333.04	0.788
333.25	0.799
333.46	0.797
333.67	0.785
333.88	0.788
334.09	0.797
334.30	0.795
334.51	0.787
334.72	0.784
334.93	0.788
335.14	0.787
335.35	0.781
335.56	0.777
335.77	0.786
335.98	0.785
336.18	0.779
336.39	0.773
336.60	0.778
336.81	0.776
337.02	0.774
337.23	0.777
337.44	0.781
337.65	0.781
337.86	0.772
338.07	0.769
338.28	0.773
338.49	0.772
338.70	0.765
338.91	0.770
339.11	0.778
339.32	0.774
339.53	0.764
339.74	0.761
339.95	0.760
340.16	0.758
340.37	0.751
340.58	0.751
340.79	0.756
341.00	0.757
341.21	0.747
341.41	0.747
341.62	0.749
341.83	0.750
342.04	0.745
342.25	0.754
342.46	0.759
342.67	0.758
342.88	0.751
343.09	0.750
343.30	0.755
343.50	0.758
343.71	0.749
343.92	0.748
344.13	0.753
344.34	0.754
344.55	0.738
344.76	0.737
344.97	0.742
345.18	0.741
345.38	0.737
345.59	0.733
345.80	0.735
346.01	0.734
346.22	0.729
346.43	0.724
346.64	0.732
346.85	0.732
347.06	0.726
347.26	0.726
347.47	0.731
347.68	0.727
347.89	0.724
348.10	0.719
348.31	0.725
348.52	0.724
348.73	0.722
348.93	0.719
349.14	0.722
349.35	0.722
349.56	0.716
349.77	0.712
349.98	0.718
350.19	0.716
350.39	0.711
350.60	0.708
350.81	0.722
351.02	0.721
351.23	0.717
351.44	0.720
351.65	0.724
351.86	0.721
352.06	0.721
352.27	0.721
352.48	0.723
352.69	0.723
352.90	0.718
353.11	0.706
353.31	0.713
353.52	0.709
353.73	0.700
353.94	0.701
354.15	0.707
354.36	0.707
354.57	0.698
354.77	0.700
354.98	0.700
355.19	0.699
355.40	0.699
355.61	0.704
355.82	0.709
356.02	0.710
356.23	0.703
356.44	0.705
356.65	0.708
356.86	0.709
357.07	0.703
357.27	0.706
357.48	0.710
357.69	0.705
357.90	0.692
358.11	0.689
358.32	0.693
358.52	0.696
358.73	0.686
358.94	0.689
359.15	0.694
359.36	0.695
359.56	0.689
359.77	0.686
359.98	0.694
360.19	0.694
360.40	0.691
360.61	0.691
360.81	0.692
361.02	0.692
361.23	0.684
361.44	0.683
361.65	0.685
361.85	0.685
362.06	0.683
362.27	0.684
362.48	0.685
362.69	0.687
362.89	0.681
363.10	0.682
363.31	0.688
363.52	0.691
363.73	0.686
363.93	0.687
364.14	0.690
364.35	0.691
364.56	0.682
364.77	0.684
364.97	0.686
365.18	0.688
365.39	0.682
365.60	0.679
365.81	0.680
366.01	0.680
366.22	0.677
366.43	0.676
366.64	0.680
366.84	0.685
367.05	0.681
367.26	0.682
367.47	0.684
367.68	0.683
367.88	0.680
368.09	0.680
368.30	0.683
368.51	0.682
368.71	0.681
368.92	0.685
369.13	0.684
369.34	0.684
369.55	0.681
369.75	0.682
369.96	0.689
370.17	0.688
370.38	0.684
370.58	0.684
370.79	0.689
371.00	0.687
371.21	0.678
371.41	0.684
371.62	0.687
371.83	0.683
372.04	0.679
372.24	0.673
372.45	0.675
372.66	0.675
372.87	0.672
373.07	0.670
373.28	0.671
373.49	0.675
373.70	0.665
373.90	0.665
374.11	0.674
374.32	0.675
374.53	0.673
374.73	0.674
374.94	0.676
375.15	0.677
375.36	0.673
375.56	0.681
375.77	0.682
375.98	0.683
376.19	0.680
376.39	0.674
376.60	0.678
376.81	0.678
377.02	0.675
377.22	0.674
377.43	0.673
377.64	0.673
377.84	0.664
378.05	0.667
378.26	0.673
378.47	0.672
378.67	0.669
378.88	0.667
379.09	0.668
379.30	0.669
379.50	0.666
379.71	0.669
379.92	0.673
380.12	0.673
380.33	0.665
380.54	0.661
380.75	0.669
380.95	0.669
381.16	0.666
381.37	0.667
381.57	0.669
381.78	0.669
381.99	0.668
382.20	0.668
382.40	0.670
382.61	0.670
382.82	0.666
383.02	0.660
383.23	0.663
383.44	0.663
383.64	0.661
383.85	0.663
384.06	0.667
384.27	0.664
384.47	0.662
384.68	0.663
384.89	0.668
385.09	0.667
385.30	0.665
385.51	0.664
385.71	0.668
385.92	0.668
386.13	0.666
386.33	0.667
386.54	0.668
386.75	0.666
386.95	0.662
387.16	0.657
387.37	0.661
387.58	0.661
387.78	0.659
387.99	0.656
388.20	0.659
388.40	0.656
388.61	0.652
388.82	0.655
389.02	0.658
389.23	0.658
389.44	0.656
389.64	0.656
389.85	0.667
390.06	0.666
390.26	0.666
390.47	0.665
390.68	0.667
390.88	0.665
391.09	0.661
391.30	0.660
391.50	0.660
391.71	0.659
391.92	0.656
392.12	0.648
392.33	0.649
392.53	0.648
392.74	0.648
392.95	0.648
393.15	0.651
393.36	0.652
393.57	0.650
393.77	0.653
393.98	0.656
394.19	0.656
394.39	0.655
394.60	0.657
394.81	0.658
395.01	0.657
395.22	0.654
395.43	0.655
395.63	0.660
395.84	0.661
396.04	0.656
396.25	0.658
396.46	0.659
396.66	0.658
396.87	0.654
397.08	0.651
397.28	0.654
397.49	0.654
397.69	0.650
397.90	0.646
398.11	0.647
398.31	0.648
398.52	0.644
398.73	0.645
398.93	0.644
399.14	0.643
399.34	0.642
399.55	0.643
399.76	0.644
399.96	0.645
400.17	0.643
400.37	0.641
400.58	0.647
400.79	0.649
400.99	0.646
401.20	0.652
401.41	0.654
401.61	0.655
401.82	0.658
402.02	0.658
402.23	0.659
402.44	0.659
402.64	0.659
402.85	0.654
403.05	0.654
403.26	0.652
403.47	0.646
403.67	0.645
403.88	0.647
404.08	0.641
404.29	0.639
404.50	0.638
404.70	0.638
404.91	0.637
405.11	0.634
405.32	0.633
405.52	0.635
405.73	0.634
405.94	0.631
406.14	0.633
406.35	0.636
406.55	0.636
406.76	0.633
406.97	0.633
407.17	0.636
407.38	0.636
407.58	0.634
407.79	0.636
407.99	0.639
408.20	0.639
408.41	0.635
408.61	0.632
408.82	0.634
409.02	0.634
409.23	0.632
409.43	0.632
409.64	0.633
409.84	0.632
410.05	0.629
410.26	0.628
410.46	0.628
410.67	0.627
410.87	0.628
411.08	0.629
411.28	0.631
411.49	0.632
411.69	0.629
411.90	0.630
412.11	0.632
412.31	0.633
412.52	0.632
412.72	0.633
412.93	0.634
413.13	0.633
413.34	0.629
413.54	0.631
413.75	0.633
413.95	0.633
414.16	0.630
414.37	0.632
414.57	0.633
414.78	0.634
414.98	0.632
415.19	0.633
415.39	0.631
415.60	0.633
415.80	0.632
416.01	0.631
416.21	0.633
416.42	0.633
416.62	0.628
416.83	0.628
417.03	0.629
417.24	0.630
417.44	0.627
417.65	0.626
417.86	0.628
418.06	0.626
418.27	0.624
418.47	0.626
418.68	0.627
418.88	0.628
419.09	0.625
419.29	0.625
419.50	0.626
419.70	0.626
419.91	0.625
420.11	0.622
420.32	0.625
420.52	0.624
420.73	0.622
420.93	0.623
421.14	0.625
421.34	0.624
421.55	0.621
421.75	0.621
421.96	0.622
422.16	0.623
422.37	0.622
422.57	0.619
422.78	0.622
422.98	0.619
423.19	0.616
423.39	0.616
423.60	0.619
423.80	0.621
424.01	0.620
424.21	0.622
424.42	0.623
424.62	0.624
424.83	0.623
425.03	0.623
425.23	0.626
425.44	0.626
425.64	0.626
425.85	0.625
426.05	0.626
426.26	0.626
426.46	0.623
426.67	0.622
426.87	0.627
427.08	0.627
427.28	0.625
427.49	0.626
427.69	0.627
427.90	0.626
428.10	0.623
428.31	0.622
428.51	0.624
428.71	0.623
428.92	0.624
429.12	0.622
429.33	0.623
429.53	0.627
429.74	0.630
429.94	0.630
430.15	0.630
430.35	0.631
430.56	0.629
430.76	0.628
430.96	0.630
431.17	0.628
431.37	0.625
431.58	0.623
431.78	0.621
431.99	0.614
432.19	0.616
432.40	0.618
432.60	0.619
432.80	0.621
433.01	0.620
433.21	0.620
433.42	0.622
433.62	0.623
433.83	0.622
434.03	0.625
434.23	0.629
434.44	0.628
434.64	0.625
434.85	0.630
435.05	0.630
435.26	0.631
435.46	0.628
435.66	0.627
435.87	0.627
436.07	0.628
436.28	0.623
436.48	0.620
436.69	0.620
436.89	0.620
437.09	0.615
437.30	0.614
437.50	0.615
437.71	0.626
437.91	0.626
438.11	0.628
438.32	0.632
438.52	0.633
438.73	0.632
438.93	0.630
439.13	0.631
439.34	0.634
439.54	0.632
439.75	0.632
439.95	0.623
440.15	0.626
440.36	0.625
440.56	0.623
440.77	0.624
440.97	0.624
441.17	0.623
441.38	0.624
441.58	0.622
441.79	0.621
441.99	0.619
442.19	0.619
442.40	0.618
442.60	0.617
442.81	0.614
443.01	0.615
443.21	0.617
443.42	0.616
443.62	0.614
443.82	0.615
444.03	0.617
444.23	0.617
444.44	0.616
444.64	0.615
444.84	0.617
445.05	0.617
445.25	0.615
445.45	0.615
445.66	0.618
445.86	0.617
446.06	0.618
446.27	0.618
446.47	0.622
446.68	0.620
446.88	0.619
447.08	0.619
447.29	0.621
447.49	0.621
447.69	0.620
447.90	0.619
448.10	0.623
448.30	0.620
448.51	0.620
448.71	0.618
448.91	0.622
449.12	0.621
449.32	0.621
449.52	0.621
449.73	0.625
449.93	0.625
450.14	0.624
450.34	0.624
450.54	0.627
450.75	0.624
450.95	0.623
451.15	0.623
451.36	0.625
451.56	0.623
451.76	0.622
451.97	0.619
452.17	0.620
452.37	0.618
452.58	0.615
452.78	0.615
452.98	0.618
453.19	0.617
453.39	0.617
453.59	0.617
453.79	0.618
454.00	0.619
454.20	0.618
454.40	0.618
454.61	0.620
454.81	0.621
455.01	0.619
455.22	0.620
455.42	0.622
455.62	0.620
455.83	0.619
456.03	0.622
456.23	0.623
456.44	0.625
456.64	0.624
456.84	0.623
457.04	0.625
457.25	0.624
457.45	0.621
457.65	0.620
457.86	0.621
458.06	0.619
458.26	0.615
458.47	0.614
458.67	0.616
458.87	0.616
459.07	0.614
459.28	0.617
459.48	0.619
459.68	0.619
459.89	0.619
460.09	0.619
460.29	0.621
460.49	0.622
460.70	0.621
460.90	0.620
461.10	0.622
461.31	0.621
461.51	0.617
461.71	0.617
461.91	0.620
462.12	0.619
462.32	0.617
462.52	0.618
462.72	0.621
462.93	0.621
463.13	0.619
463.33	0.620
463.53	0.623
463.74	0.622
463.94	0.619
464.14	0.618
464.35	0.620
464.55	0.620
464.75	0.618
464.95	0.616
465.16	0.618
465.36	0.616
465.56	0.615
465.76	0.614
465.97	0.615
466.17	0.615
466.37	0.613
466.57	0.615
466.78	0.616
466.98	0.616
467.18	0.614
467.38	0.614
467.59	0.616
467.79	0.618
467.99	0.616
468.19	0.618
468.39	0.621
468.60	0.622
468.80	0.619
469.00	0.621
469.20	0.622
469.41	0.622
469.61	0.621
469.81	0.621
470.01	0.621
470.22	0.622
470.42	0.620
470.62	0.618
470.82	0.620
471.02	0.619
471.23	0.617
471.43	0.617
471.63	0.619
471.83	0.619
472.04	0.617
472.24	0.616
472.44	0.621
472.64	0.621
472.84	0.618
473.05	0.618
473.25	0.620
473.45	0.620
473.65	0.618
473.85	0.619
474.06	0.621
474.26	0.621
474.46	0.622
474.66	0.619
474.86	0.620
475.07	0.621
475.27	0.618
475.47	0.615
475.67	0.617
475.87	0.619
476.08	0.615
476.28	0.615
476.48	0.617
476.68	0.616
476.88	0.613
477.09	0.615
477.29	0.617
477.49	0.617
477.69	0.616
477.89	0.616
478.09	0.616
478.30	0.618
478.50	0.615
478.70	0.615
478.90	0.615
479.10	0.618
479.31	0.618
479.51	0.616
479.71	0.617
479.91	0.617
480.11	0.616
480.31	0.616
480.52	0.615
480.72	0.615
480.92	0.614
481.12	0.613
481.32	0.611
481.52	0.609
481.72	0.609
481.93	0.612
482.13	0.613
482.33	0.613
482.53	0.611
482.73	0.612
482.93	0.613
483.14	0.613
483.34	0.612
483.54	0.613
483.74	0.612
483.94	0.611
484.14	0.607
484.34	0.607
484.55	0.608
484.75	0.608
484.95	0.606
485.15	0.606
485.35	0.607
485.55	0.606
485.75	0.604
485.96	0.604
486.16	0.606
486.36	0.606
486.56	0.604
486.76	0.604
486.96	0.605
487.16	0.605
487.36	0.603
487.57	0.603
487.77	0.604
487.97	0.604
488.17	0.603
488.37	0.602
488.57	0.603
488.77	0.603
488.97	0.601
489.18	0.600
489.38	0.603
489.58	0.604
489.78	0.603
489.98	0.602
490.18	0.602
490.38	0.603
490.58	0.601
490.78	0.602
490.98	0.604
491.19	0.604
491.39	0.604
491.59	0.603
491.79	0.606
491.99	0.606
492.19	0.606
492.39	0.609
492.59	0.609
492.79	0.611
492.99	0.612
493.20	0.612
493.40	0.612
493.60	0.614
493.80	0.611
494.00	0.609
494.20	0.610
494.40	0.610
494.60	0.607
494.80	0.611
495.00	0.610
495.20	0.608
495.40	0.607
495.61	0.609
495.81	0.609
496.01	0.613
496.21	0.614
496.41	0.613
496.61	0.614
496.81	0.613
497.01	0.608
497.21	0.607
497.41	0.609
497.61	0.608
497.81	0.606
498.01	0.606
498.21	0.604
498.41	0.602
498.61	0.602
498.82	0.603
499.02	0.605
499.22	0.606
499.42	0.605
499.62	0.606
499.82	0.607
500.02	0.609
500.22	0.607
500.42	0.609
500.62	0.610
500.82	0.610
501.02	0.608
501.22	0.608
501.42	0.608
501.62	0.610
501.82	0.609
502.02	0.609
502.22	0.609
502.42	0.611
502.62	0.608
502.82	0.609
503.02	0.610
503.22	0.610
503.42	0.608
503.63	0.607
503.83	0.606
504.03	0.605
504.23	0.603
504.43	0.604
504.63	0.606
504.83	0.605
505.03	0.604
505.23	0.606
505.43	0.608
505.63	0.608
505.83	0.607
506.03	0.609
506.23	0.612
506.43	0.612
506.63	0.610
506.83	0.609
507.03	0.612
507.23	0.612
507.43	0.609
507.63	0.610
507.83	0.611
508.03	0.612
508.23	0.611
508.43	0.609
508.63	0.611
508.83	0.611
509.03	0.612
509.23	0.611
509.43	0.612
509.63	0.612
509.83	0.611
510.03	0.613
510.23	0.615
510.43	0.615
510.63	0.615
510.83	0.615
511.03	0.617
511.23	0.615
511.43	0.614
511.63	0.616
511.83	0.619
512.03	0.619
512.22	0.615
512.42	0.615
512.62	0.616
512.82	0.615
513.02	0.614
513.22	0.614
513.42	0.616
513.62	0.618
513.82	0.616
514.02	0.615
514.22	0.617
514.42	0.617
514.62	0.617
514.82	0.618
515.02	0.621
515.22	0.624
515.42	0.622
515.62	0.625
515.82	0.624
516.02	0.625
516.22	0.625
516.42	0.626
516.62	0.628
516.82	0.629
517.01	0.627
517.21	0.626
517.41	0.630
517.61	0.631
517.81	0.626
518.01	0.626
518.21	0.626
518.41	0.625
518.61	0.623
518.81	0.624
519.01	0.625
519.21	0.625
519.41	0.623
519.61	0.618
519.81	0.621
520.00	0.621
520.20	0.622
520.40	0.624
520.60	0.625
520.80	0.625
521.00	0.624
521.20	0.625
521.40	0.631
521.60	0.632
521.80	0.631
522.00	0.631
522.20	0.634
522.39	0.633
522.59	0.630
522.79	0.631
522.99	0.633
523.19	0.631
523.39	0.628
523.59	0.626
523.79	0.629
523.99	0.632
524.19	0.630
524.38	0.629
524.58	0.631
524.78	0.631
524.98	0.630
525.18	0.632
525.38	0.634
525.58	0.635
525.78	0.632
525.98	0.630
526.18	0.631
526.37	0.630
526.57	0.631
526.77	0.631
526.97	0.632
527.17	0.632
527.37	0.628
527.57	0.631
527.77	0.633
527.96	0.634
528.16	0.632
528.36	0.633
528.56	0.636
528.76	0.633
528.96	0.632
529.16	0.634
529.36	0.638
529.55	0.637
529.75	0.634
529.95	0.635
530.15	0.637
530.35	0.639
530.55	0.637
530.75	0.637
530.94	0.639
531.14	0.639
531.34	0.637
531.54	0.635
531.74	0.638
531.94	0.641
532.13	0.639
532.33	0.640
532.53	0.639
532.73	0.638
532.93	0.636
533.13	0.637
533.33	0.638
533.52	0.639
533.72	0.641
533.92	0.639
534.12	0.638
534.32	0.638
534.52	0.636
534.71	0.639
534.91	0.642
535.11	0.644
535.31	0.642
535.51	0.644
535.71	0.647
535.90	0.644
536.10	0.645
536.30	0.647
536.50	0.648
536.70	0.648
536.89	0.645
537.09	0.644
537.29	0.646
537.49	0.646
537.69	0.643
537.89	0.643
538.08	0.643
538.28	0.641
538.48	0.641
538.68	0.643
538.88	0.645
539.07	0.645
539.27	0.643
539.47	0.642
539.67	0.643
539.87	0.645
540.06	0.642
540.26	0.643
540.46	0.646
540.66	0.643
540.86	0.640
541.05	0.641
541.25	0.643
541.45	0.643
541.65	0.641
541.84	0.643
542.04	0.644
542.24	0.645
542.44	0.643
542.64	0.643
542.83	0.647
543.03	0.648
543.23	0.644
543.43	0.645
543.62	0.647
543.82	0.648
544.02	0.646
544.22	0.647
544.42	0.650
544.61	0.651
544.81	0.648
545.01	0.646
545.21	0.649
545.40	0.649
545.60	0.647
545.80	0.650
546.00	0.650
546.19	0.649
546.39	0.647
546.59	0.645
546.79	0.647
546.98	0.648
547.18	0.647
547.38	0.648
547.58	0.651
547.77	0.651
547.97	0.647
548.17	0.649
548.37	0.650
548.56	0.651
548.76	0.650
548.96	0.651
549.16	0.655
549.35	0.655
549.55	0.652
549.75	0.653
549.95	0.657
550.14	0.656
550.34	0.654
550.54	0.659
550.73	0.662
550.93	0.663
551.13	0.659
551.33	0.657
551.52	0.658
551.72	0.658
551.92	0.656
552.12	0.655
552.31	0.657
552.51	0.657
552.71	0.652
552.90	0.652
553.10	0.654
553.30	0.654
553.50	0.653
553.69	0.654
553.89	0.655
554.09	0.655
554.28	0.653
554.48	0.655
554.68	0.658
554.87	0.658
555.07	0.654
555.27	0.654
555.47	0.656
555.66	0.656
555.86	0.655
556.06	0.658
556.25	0.660
556.45	0.668
556.65	0.666
556.84	0.668
557.04	0.672
557.24	0.674
557.43	0.673
557.63	0.676
557.83	0.678
558.02	0.678
558.22	0.681
558.42	0.681
558.61	0.674
558.81	0.674
559.01	0.669
559.21	0.669
559.40	0.671
559.60	0.671
559.80	0.666
559.99	0.667
560.19	0.670
560.39	0.664
560.58	0.661
560.78	0.661
560.97	0.665
561.17	0.664
561.37	0.661
561.56	0.662
561.76	0.664
561.96	0.663
562.15	0.661
562.35	0.663
562.55	0.665
562.74	0.665
562.94	0.663
563.14	0.661
563.33	0.662
563.53	0.663
563.73	0.660
563.92	0.662
564.12	0.665
564.31	0.668
564.51	0.665
564.71	0.667
564.90	0.670
565.10	0.671
565.30	0.674
565.49	0.674
565.69	0.677
565.89	0.677
566.08	0.673
566.28	0.675
566.47	0.676
566.67	0.674
566.87	0.671
567.06	0.672
567.26	0.679
567.46	0.674
567.65	0.673
567.85	0.675
568.04	0.678
568.24	0.677
568.44	0.673
568.63	0.672
568.83	0.674
569.02	0.673
569.22	0.667
569.42	0.664
569.61	0.666
569.81	0.664
570.00	0.661
570.20	0.663
570.40	0.665
570.59	0.665
570.79	0.662
570.98	0.660
571.18	0.662
571.38	0.662
571.57	0.659
571.77	0.657
571.96	0.662
572.16	0.659
572.35	0.654
572.55	0.655
572.75	0.653
572.94	0.653
573.14	0.651
573.33	0.652
573.53	0.653
573.73	0.652
573.92	0.650
574.12	0.648
574.31	0.650
574.51	0.651
574.70	0.648
574.90	0.649
575.09	0.653
575.29	0.653
575.49	0.650
575.68	0.651
575.88	0.653
576.07	0.654
576.27	0.651
576.46	0.650
576.66	0.650
576.86	0.649
577.05	0.647
577.25	0.645
577.44	0.647
577.64	0.646
577.83	0.644
578.03	0.644
578.22	0.644
578.42	0.643
578.61	0.641
578.81	0.642
579.00	0.644
579.20	0.643
579.40	0.642
579.59	0.641
579.79	0.642
579.98	0.641
580.18	0.641
580.37	0.641
580.57	0.644
580.76	0.649
580.96	0.647
581.15	0.647
581.35	0.649
581.54	0.648
581.74	0.647
581.93	0.649
582.13	0.651
582.32	0.648
582.52	0.646
582.71	0.646
582.91	0.643
583.10	0.643
583.30	0.642
583.49	0.641
583.69	0.646
583.88	0.647
584.08	0.646
584.27	0.648
584.47	0.651
584.66	0.652
584.86	0.650
585.05	0.652
585.25	0.655
585.44	0.654
585.64	0.652
585.83	0.649
586.03	0.651
586.22	0.649
586.42	0.646
586.61	0.647
586.81	0.650
587.00	0.650
587.20	0.647
587.39	0.648
587.59	0.650
587.78	0.652
587.98	0.652
588.17	0.653
588.37	0.655
588.56	0.657
588.76	0.653
588.95	0.654
589.15	0.658
589.34	0.661
589.54	0.659
589.73	0.659
589.92	0.662
590.12	0.661
590.31	0.658
590.51	0.663
590.70	0.665
590.90	0.664
591.09	0.661
591.29	0.660
591.48	0.660
591.68	0.661
591.87	0.659
592.06	0.659
592.26	0.662
592.45	0.662
592.65	0.655
592.84	0.655
593.04	0.658
593.23	0.660
593.43	0.657
593.62	0.657
593.81	0.659
594.01	0.658
594.20	0.656
594.40	0.656
594.59	0.659
594.79	0.660
594.98	0.658
595.17	0.657
595.37	0.658
595.56	0.659
595.76	0.657
595.95	0.659
596.14	0.662
596.34	0.662
596.53	0.659
596.73	0.660
596.92	0.661
597.12	0.663
597.31	0.662
597.50	0.661
597.70	0.664
597.89	0.663
598.09	0.659
598.28	0.660
598.47	0.663
598.67	0.662
598.86	0.659
599.06	0.661
599.25	0.662
599.44	0.661
599.64	0.658
599.83	0.656
600.03	0.660
600.22	0.661
600.41	0.661
600.61	0.660
600.80	0.663
601.00	0.664
601.19	0.659
601.38	0.658
601.58	0.661
601.77	0.662
601.96	0.664
602.16	0.663
602.35	0.673
602.55	0.669
602.74	0.670
602.93	0.671
603.13	0.676
603.32	0.677
603.51	0.675
603.71	0.677
603.90	0.679
604.09	0.679
604.29	0.676
604.48	0.670
604.68	0.672
604.87	0.671
605.06	0.667
605.26	0.664
605.45	0.665
605.64	0.665
605.84	0.661
606.03	0.659
606.22	0.659
606.42	0.658
606.61	0.655
606.80	0.655
607.00	0.658
607.19	0.659
607.38	0.657
607.58	0.658
607.77	0.662
607.96	0.662
608.16	0.660
608.35	0.665
608.54	0.669
608.74	0.673
608.93	0.677
609.12	0.680
609.32	0.683
609.51	0.686
609.70	0.684
609.90	0.686
610.09	0.691
610.28	0.696
610.48	0.688
610.67	0.690
610.86	0.690
611.06	0.684
611.25	0.681
611.44	0.681
611.64	0.681
611.83	0.683
612.02	0.679
612.21	0.677
612.41	0.677
612.60	0.676
612.79	0.671
612.99	0.672
613.18	0.675
613.37	0.673
613.57	0.669
613.76	0.671
613.95	0.670
614.14	0.671
614.34	0.668
614.53	0.669
614.72	0.672
614.92	0.673
615.11	0.669
615.30	0.666
615.49	0.668
615.69	0.672
615.88	0.668
616.07	0.669
616.26	0.672
616.46	0.674
616.65	0.670
616.84	0.669
617.04	0.672
617.23	0.676
617.42	0.676
617.61	0.681
617.81	0.682
618.00	0.683
618.19	0.680
618.38	0.684
618.58	0.688
618.77	0.689
618.96	0.688
619.15	0.689
619.35	0.690
619.54	0.691
619.73	0.685
619.92	0.687
620.12	0.692
620.31	0.692
620.50	0.686
620.69	0.686
620.89	0.690
621.08	0.690
621.27	0.689
621.46	0.688
621.66	0.693
621.85	0.694
622.04	0.689
622.23	0.690
622.43	0.692
622.62	0.692
622.81	0.691
623.00	0.690
623.19	0.696
623.39	0.695
623.58	0.692
623.77	0.691
623.96	0.694
624.16	0.694
624.35	0.688
624.54	0.691
624.73	0.695
624.92	0.692
625.12	0.689
625.31	0.690
625.50	0.694
625.69	0.695
625.88	0.690
626.08	0.689
626.27	0.693
626.46	0.693
626.65	0.689
626.84	0.690
627.04	0.696
627.23	0.696
627.42	0.690
627.61	0.692
627.80	0.695
628.00	0.696
628.19	0.695
628.38	0.697
628.57	0.701
628.76	0.701
628.96	0.696
629.15	0.698
629.34	0.701
629.53	0.702
629.72	0.695
629.91	0.695
630.11	0.702
630.30	0.702
630.49	0.705
630.68	0.706
630.87	0.710
631.06	0.712
631.26	0.706
631.45	0.708
631.64	0.717
631.83	0.719
632.02	0.716
632.21	0.713
632.41	0.721
632.60	0.715
632.79	0.711
632.98	0.713
633.17	0.715
633.36	0.716
633.55	0.711
633.75	0.707
633.94	0.710
634.13	0.711
634.32	0.707
634.51	0.701
634.70	0.704
634.89	0.705
635.09	0.700
635.28	0.702
635.47	0.706
635.66	0.709
635.85	0.705
636.04	0.705
636.23	0.711
636.43	0.712
636.62	0.710
636.81	0.709
637.00	0.713
637.19	0.715
637.38	0.709
637.57	0.708
637.76	0.711
637.95	0.713
638.15	0.708
638.34	0.705
638.53	0.710
638.72	0.711
638.91	0.707
639.10	0.704
639.29	0.706
639.48	0.707
639.67	0.707
639.87	0.705
640.06	0.712
640.25	0.711
640.44	0.711
640.63	0.711
640.82	0.715
641.01	0.714
641.20	0.713
641.39	0.715
641.58	0.719
641.78	0.717
641.97	0.712
642.16	0.727
642.35	0.729
642.54	0.728
642.73	0.721
642.92	0.720
643.11	0.726
643.30	0.726
643.49	0.719
643.68	0.721
643.87	0.724
644.06	0.724
644.25	0.702
644.45	0.704
644.64	0.707
644.83	0.708
645.02	0.704
645.21	0.702
645.40	0.705
645.59	0.705
645.78	0.698
645.97	0.700
646.16	0.702
646.35	0.701
646.54	0.699
646.73	0.700
646.92	0.702
647.11	0.701
647.30	0.696
647.49	0.697
647.68	0.699
647.88	0.698
648.07	0.690
648.26	0.693
648.45	0.697
648.64	0.692
648.83	0.688
649.02	0.690
649.21	0.700
649.40	0.699
649.59	0.693
649.78	0.693
649.97	0.709
650.16	0.708
650.35	0.702
650.54	0.703
650.73	0.713
650.92	0.710
651.11	0.703
651.30	0.702
651.49	0.707
651.68	0.708
651.87	0.704
652.06	0.693
652.25	0.697
652.44	0.697
652.63	0.690
652.82	0.688
653.01	0.687
653.20	0.684
653.39	0.671
653.58	0.668
653.77	0.668
653.96	0.663
654.15	0.654
654.34	0.653
654.53	0.649
654.72	0.646
654.91	0.637
655.10	0.634
655.29	0.633
655.48	0.632
655.67	0.627
655.86	0.624
656.05	0.624
656.24	0.624
656.43	0.619
656.62	0.619
656.81	0.621
657.00	0.621
657.19	0.619
657.38	0.621
657.57	0.621
657.76	0.625
657.95	0.624
658.14	0.628
658.33	0.632
658.51	0.637
658.70	0.638
658.89	0.638
659.08	0.645
659.27	0.652
659.46	0.650
659.65	0.655
659.84	0.658
660.03	0.661
660.22	0.661
660.41	0.665
660.60	0.665
660.79	0.666
660.98	0.672
661.17	0.671
661.36	0.671
661.55	0.671
661.74	0.668
661.92	0.671
662.11	0.675
662.30	0.673
662.49	0.666
662.68	0.666
662.87	0.670
663.06	0.663
663.25	0.662
663.44	0.663
663.63	0.665
663.82	0.664
664.01	0.658
664.20	0.656
664.38	0.658
664.57	0.658
664.76	0.657
664.95	0.657
665.14	0.663
665.33	0.658
665.52	0.665
665.71	0.669
665.90	0.670
666.09	0.672
666.28	0.668
666.46	0.667
666.65	0.670
666.84	0.668
667.03	0.662
667.22	0.660
667.41	0.663
667.60	0.653
667.79	0.645
667.98	0.646
668.16	0.648
668.35	0.648
668.54	0.643
668.73	0.643
668.92	0.645
669.11	0.644
669.30	0.637
669.49	0.634
669.67	0.635
669.86	0.638
670.05	0.634
670.24	0.632
670.43	0.630
670.62	0.629
670.81	0.623
671.00	0.624
671.18	0.624
671.37	0.623
671.56	0.620
671.75	0.619
671.94	0.617
672.13	0.614
672.32	0.609
672.50	0.609
672.69	0.610
672.88	0.611
673.07	0.605
673.26	0.607
673.45	0.609
673.63	0.609
673.82	0.605
674.01	0.607
674.20	0.607
674.39	0.606
674.58	0.604
674.76	0.604
674.95	0.603
675.14	0.603
675.33	0.597
675.52	0.596
675.71	0.597
675.89	0.596
676.08	0.591
676.27	0.591
676.46	0.592
676.65	0.592
676.84	0.591
677.02	0.593
677.21	0.595
677.40	0.595
677.59	0.591
677.78	0.593
677.96	0.596
678.15	0.595
678.34	0.593
678.53	0.594
678.72	0.595
678.90	0.592
679.09	0.588
679.28	0.585
679.47	0.586
679.66	0.585
679.84	0.581
680.03	0.578
680.22	0.577
680.41	0.579
680.60	0.574
680.78	0.574
680.97	0.577
681.16	0.576
681.35	0.574
681.53	0.573
681.72	0.575
681.91	0.577
682.10	0.575
682.29	0.578
682.47	0.576
682.66	0.576
682.85	0.574
683.04	0.571
683.22	0.572
683.41	0.573
683.60	0.572
683.79	0.573
683.97	0.572
684.16	0.571
684.35	0.565
684.54	0.567
684.72	0.568
684.91	0.569
685.10	0.566
685.29	0.568
685.47	0.566
685.66	0.565
685.85	0.561
686.04	0.561
686.22	0.564
686.41	0.567
686.60	0.564
686.79	0.567
686.97	0.569
687.16	0.570
687.35	0.566
687.54	0.570
687.72	0.575
687.91	0.574
688.10	0.576
688.29	0.575
688.47	0.574
688.66	0.573
688.85	0.568
689.03	0.565
689.22	0.570
689.41	0.571
689.60	0.565
689.78	0.562
689.97	0.563
690.16	0.560
690.34	0.556
690.53	0.555
690.72	0.557
690.91	0.555
691.09	0.554
691.28	0.548
691.47	0.546
691.65	0.546
691.84	0.542
692.03	0.542
692.21	0.541
692.40	0.541
692.59	0.538
692.77	0.537
692.96	0.539
693.15	0.539
693.34	0.537
693.52	0.537
693.71	0.538
693.90	0.539
694.08	0.539
694.27	0.540
694.46	0.549
694.64	0.550
694.83	0.548
695.02	0.547
695.20	0.547
695.39	0.547
695.58	0.546
695.76	0.547
695.95	0.546
696.14	0.545
696.32	0.543
696.51	0.533
696.70	0.534
696.88	0.535
697.07	0.534
697.26	0.535
697.44	0.537
697.63	0.535
697.81	0.533
698.00	0.532
698.19	0.533
698.37	0.533
698.56	0.531
698.75	0.531
698.93	0.531
699.12	0.530
699.31	0.528
699.49	0.528
699.68	0.529
699.87	0.531
700.05	0.531
700.24	0.529
700.42	0.532
700.61	0.532
700.80	0.530
700.98	0.530
701.17	0.532
701.36	0.531
701.54	0.530
701.73	0.532
701.91	0.531
702.10	0.531
702.29	0.529
702.47	0.528
702.66	0.530
702.84	0.532
703.03	0.530
703.22	0.531
703.40	0.532
703.59	0.532
703.77	0.531
703.96	0.531
704.15	0.532
704.33	0.532
704.52	0.531
704.70	0.530
704.89	0.530
705.08	0.528
705.26	0.524
705.45	0.524
705.63	0.525
705.82	0.522
706.00	0.520
706.19	0.519
706.38	0.518
706.56	0.517
706.75	0.514
706.93	0.513
707.12	0.516
707.30	0.516
707.49	0.513
707.68	0.510
707.86	0.510
708.05	0.511
708.23	0.508
708.42	0.509
708.60	0.512
708.79	0.512
708.98	0.511
709.16	0.510
709.35	0.513
709.53	0.516
709.72	0.514
709.90	0.516
710.09	0.518
710.27	0.520
710.46	0.523
710.64	0.521
710.83	0.524
711.02	0.524
711.20	0.522
711.39	0.520
711.57	0.518
711.76	0.519
711.94	0.516
712.13	0.517
712.31	0.517
712.50	0.512
712.68	0.509
712.87	0.510
713.05	0.511
713.24	0.511
713.42	0.510
713.61	0.511
713.79	0.512
713.98	0.513
714.16	0.513
714.35	0.513
714.54	0.515
714.72	0.515
714.91	0.513
715.09	0.520
715.28	0.523
715.46	0.523
715.65	0.521
715.83	0.520
716.02	0.523
716.20	0.519
716.39	0.518
716.57	0.519
716.76	0.521
716.94	0.521
717.12	0.513
717.31	0.513
717.49	0.518
717.68	0.519
717.86	0.519
718.05	0.520
718.23	0.524
718.42	0.526
718.60	0.527
718.79	0.536
718.97	0.539
719.16	0.539
719.34	0.537
719.53	0.536
719.71	0.537
719.90	0.538
720.08	0.534
720.27	0.534
720.45	0.535
720.63	0.534
720.82	0.526
721.00	0.529
721.19	0.533
721.37	0.533
721.56	0.533
721.74	0.535
721.93	0.544
722.11	0.550
722.30	0.548
722.48	0.553
722.66	0.554
722.85	0.554
723.03	0.553
723.22	0.551
723.40	0.555
723.59	0.555
723.77	0.558
723.95	0.552
724.14	0.556
724.32	0.558
724.51	0.556
724.69	0.558
724.88	0.559
725.06	0.557
725.24	0.556
725.43	0.558
725.61	0.561
725.80	0.555
725.98	0.550
726.16	0.547
726.35	0.553
726.53	0.552
726.72	0.550
726.90	0.560
727.09	0.561
727.27	0.568
727.45	0.563
727.64	0.573
727.82	0.583
728.01	0.589
728.19	0.585
728.37	0.590
728.56	0.595
728.74	0.602
728.92	0.589
729.11	0.593
729.29	0.592
729.48	0.593
729.66	0.580
729.84	0.580
730.03	0.584
730.21	0.587
730.40	0.576
730.58	0.577
730.76	0.577
730.95	0.580
731.13	0.577
731.31	0.591
731.50	0.602
731.68	0.606
731.86	0.600
732.05	0.614
732.23	0.618
732.42	0.620
732.60	0.623
732.78	0.627
732.97	0.647
733.15	0.655
733.33	0.642
733.52	0.648
733.70	0.661
733.88	0.670
734.07	0.654
734.25	0.679
734.43	0.689
734.62	0.692
734.80	0.685
734.98	0.676
735.17	0.687
735.35	0.693
735.53	0.680
735.72	0.682
735.90	0.709
736.08	0.730
736.27	0.705
736.45	0.716
736.63	0.732
736.82	0.743
737.00	0.741
737.18	0.751
737.37	0.787
737.55	0.811
737.73	0.804
737.92	0.805
738.10	0.806
738.28	0.829
738.46	0.813
738.65	0.826
738.83	0.851
739.01	0.906
739.20	0.889
739.38	0.871
739.56	0.866
739.75	0.872
739.93	0.831
740.11	0.857
740.29	0.863
740.48	0.869
740.66	0.841
740.84	0.837
741.03	0.807
741.21	0.820
741.39	0.796
741.57	0.811
741.76	0.832
741.94	0.843
742.12	0.800
742.31	0.807
742.49	0.835
742.67	0.863
742.85	0.874
743.04	0.877
743.22	0.897
743.40	0.957
743.58	0.926
743.77	0.946
743.95	0.988
744.13	1.049
744.31	1.017
744.50	1.011
744.68	1.017
744.86	0.984
745.04	0.995
745.23	1.064
745.41	1.054
745.59	1.068
745.77	1.023
745.96	1.011
746.14	1.024
746.32	1.022
746.50	1.005
746.69	0.983
746.87	1.012
747.05	0.996
747.23	0.906
747.42	0.891
747.60	0.929
747.78	0.931
747.96	0.957
748.14	0.905
748.33	0.942
748.51	0.936
748.69	0.923
748.87	0.957
749.06	0.961
749.24	0.962
749.42	0.937
749.60	0.912
749.78	0.932
749.97	0.881
750.15	0.873
750.33	0.876
750.51	0.913
750.69	0.919
750.88	0.910
751.06	0.917
751.24	0.955
751.42	0.945
751.60	0.933
751.79	1.006
751.97	1.065
752.15	1.062
752.33	1.021
752.51	1.091
752.69	1.125
752.88	1.086
753.06	1.130
753.24	1.097
753.42	1.147
753.60	1.371
753.78	1.167
753.97	1.194
754.15	1.234
754.33	1.257
754.51	1.089
754.69	1.069
754.87	1.112
755.06	1.030
755.24	1.015
755.42	1.022
755.60	0.918
755.78	0.933
755.96	0.865
756.15	0.861
756.33	0.875
756.51	0.897
756.69	0.877
756.87	0.843
757.05	0.866
757.23	0.854
757.42	0.815
757.60	0.811
757.78	0.803
757.96	0.804
758.14	0.783
758.32	0.768
758.50	0.787
758.69	0.783
758.87	0.772
759.05	0.779
759.23	0.793
759.41	0.797
759.59	0.785
759.77	0.809
759.95	0.844
760.13	0.898
760.32	0.893
760.50	0.882
760.68	0.918
760.86	0.919
761.04	0.881
761.22	0.884
761.40	0.941
761.58	0.944
761.76	0.906
761.95	0.886
762.13	0.841
762.31	0.838
762.49	0.801
762.67	0.818
762.85	0.837
763.03	0.835
763.21	0.809
763.39	0.792
763.57	0.799
763.75	0.793
763.94	0.773
764.12	0.773
764.30	0.805
764.48	0.809
764.66	0.769
764.84	0.765
765.02	0.808
765.20	0.817
765.38	0.789
765.56	0.794
765.74	0.845
765.92	0.847
766.10	0.853
766.28	0.842
766.46	0.877
766.65	0.880
766.83	0.861
767.01	0.843
767.19	0.854
767.37	0.855
767.55	0.837
767.73	0.813
767.91	0.825
768.09	0.812
768.27	0.797
768.45	0.788
768.63	0.792
768.81	0.795
768.99	0.764
769.17	0.791
769.35	0.811
769.53	0.811
769.71	0.784
769.89	0.794
770.07	0.805
770.25	0.787
770.43	0.759
770.61	0.788
770.79	0.801
770.97	0.810
771.15	0.771
771.33	0.776
771.51	0.782
771.69	0.795
771.87	0.797
772.05	0.804
772.24	0.820
772.42	0.833
772.60	0.803
772.78	0.869
772.96	0.902
773.14	0.900
773.32	0.866
773.49	0.873
773.67	0.876
773.85	0.849
774.03	0.831
774.21	0.864
774.39	0.877
774.57	0.906
774.75	0.819
774.93	0.817
775.11	0.846
775.29	0.854
775.47	0.852
775.65	0.863
775.83	0.889
776.01	0.912
776.19	0.855
776.37	0.857
776.55	0.857
776.73	0.855
776.91	0.846
777.09	0.826
777.27	0.828
777.45	0.813
777.63	0.785
777.81	0.781
777.99	0.772
778.17	0.773
778.35	0.748
778.53	0.736
778.71	0.747
778.89	0.734
779.07	0.720
779.24	0.726
779.42	0.732
779.60	0.754
779.78	0.748
779.96	0.755
780.14	0.768
780.32	0.793
780.50	0.773
780.68	0.772
780.86	0.765
781.04	0.783
781.22	0.784
781.40	0.798
781.58	0.789
781.75	0.779
781.93	0.756
782.11	0.756
782.29	0.741
782.47	0.740
782.65	0.723
782.83	0.755
783.01	0.753
783.19	0.745
783.37	0.725
783.55	0.730
783.72	0.753
783.90	0.765
784.08	0.749
784.26	0.763
784.44	0.785
784.62	0.786
784.80	0.745
784.98	0.750
785.16	0.757
785.33	0.769
785.51	0.749
785.69	0.734
785.87	0.736
786.05	0.748
786.23	0.740
786.41	0.739
786.59	0.750
786.77	0.750
786.94	0.733
787.12	0.739
787.30	0.749
787.48	0.747
787.66	0.730
787.84	0.729
788.02	0.722
788.19	0.720
788.37	0.704
788.55	0.706
788.73	0.709
788.91	0.703
789.09	0.684
789.27	0.671
789.44	0.682
789.62	0.689
789.80	0.697
789.98	0.724
790.16	0.713
790.34	0.709
790.51	0.691
790.69	0.714
790.87	0.723
791.05	0.720
791.23	0.710
791.41	0.714
791.58	0.726
791.76	0.704
791.94	0.668
792.12	0.677
792.30	0.682
792.48	0.680
792.65	0.670
792.83	0.679
793.01	0.690
793.19	0.688
793.37	0.670
793.54	0.666
793.72	0.680
793.90	0.679
794.08	0.666
794.26	0.669
794.43	0.681
794.61	0.662
794.79	0.647
794.97	0.644
795.15	0.651
795.32	0.656
795.50	0.641
795.68	0.636
795.86	0.642
796.04	0.643
796.21	0.634
796.39	0.632
796.57	0.652
796.75	0.660
796.92	0.660
797.10	0.665
797.28	0.670
797.46	0.674
797.64	0.671
797.81	0.681
797.99	0.687
798.17	0.691
798.35	0.682
798.52	0.684
798.70	0.682
798.88	0.690
799.06	0.687
799.23	0.688
799.41	0.700
799.59	0.695
799.77	0.680
799.94	0.691
800.12	0.704
800.30	0.722
800.48	0.717
800.65	0.718
800.83	0.711
801.01	0.702
801.19	0.699
801.36	0.696
801.54	0.702
801.72	0.712
801.90	0.694
802.07	0.689
802.25	0.676
802.43	0.659
802.60	0.652
802.78	0.657
802.96	0.664
803.14	0.658
803.31	0.652
803.49	0.653
803.67	0.651
803.84	0.655
804.02	0.643
804.20	0.647
804.38	0.655
804.55	0.655
804.73	0.638
804.91	0.640
805.08	0.655
805.26	0.652
805.44	0.711
805.61	0.715
805.79	0.715
805.97	0.716
806.15	0.703
806.32	0.701
806.50	0.708
806.68	0.707
806.85	0.694
807.03	0.686
807.21	0.706
807.38	0.641
807.56	0.629
807.74	0.641
807.91	0.650
808.09	0.653
808.27	0.668
808.44	0.699
808.62	0.712
808.80	0.714
808.97	0.707
809.15	0.700
809.33	0.719
809.50	0.727
809.68	0.709
809.86	0.716
810.03	0.754
810.21	0.734
810.39	0.709
810.56	0.718
810.74	0.746
810.91	0.827
811.09	0.810
811.27	0.835
811.44	0.844
811.62	0.844
811.80	0.824
811.97	0.788
812.15	0.788
812.33	0.786
812.50	0.763
812.68	0.752
812.85	0.694
813.03	0.697
813.21	0.662
813.38	0.656
813.56	0.664
813.74	0.674
813.91	0.679
814.09	0.713
814.26	0.709
814.44	0.716
814.62	0.701
814.79	0.704
814.97	0.714
815.14	0.716
815.32	0.718
815.50	0.736
815.67	0.742
815.85	0.731
816.02	0.716
816.20	0.721
816.38	0.740
816.55	0.748
816.73	0.743
816.90	0.755
817.08	0.793
817.26	0.799
817.43	0.772
817.61	0.795
817.78	0.826
817.96	0.802
818.13	0.786
818.31	0.786
818.49	0.805
818.66	0.793
818.84	0.772
819.01	0.749
819.19	0.761
819.36	0.765
819.54	0.730
819.71	0.774
819.89	0.797
820.07	0.809
820.24	0.799
820.42	0.797
820.59	0.824
820.77	0.849
820.94	0.836
821.12	0.854
821.29	0.877
821.47	0.879
821.64	0.801
821.82	0.816
822.00	0.816
822.17	0.813
822.35	0.803
822.52	0.808
822.70	0.799
822.87	0.809
823.05	0.783
823.22	0.797
823.40	0.833
823.57	0.858
823.75	0.825
823.92	0.862
824.10	0.890
824.27	0.938
824.45	0.915
824.62	0.996
824.80	1.028
824.97	1.041
825.15	1.019
825.32	1.036
825.50	1.056
825.67	1.079
825.85	1.036
826.02	1.068
826.20	1.114
826.37	1.316
826.55	1.178
826.72	1.522
826.90	1.805
827.07	2.114
827.25	1.827
827.42	-0.000
827.60	-0.000
827.77	-0.000
827.95	-0.000
828.12	-0.000
828.30	-0.000
828.47	-0.000
828.65	1.864
828.82	2.240
829.00	-0.000
829.17	-0.000
829.34	-0.000
829.52	-0.000
829.69	-0.000
829.87	-0.000
830.04	-0.000
830.22	-0.000
830.39	-0.000
830.57	-0.000
830.74	-0.000
830.92	-0.000
831.09	-0.000
831.26	-0.000
831.44	-0.000
831.61	-0.000
831.79	-0.000
831.96	-0.000
832.14	-0.000
832.31	-0.000
832.49	-0.000
832.66	-0.000
832.83	-0.000
833.01	-0.000
833.18	-0.000
833.36	-0.000
833.53	-0.000
833.70	-0.000
833.88	-0.000
834.05	-0.000
834.23	-0.000
834.40	-0.000
834.58	-0.000
834.75	-0.000
834.92	-0.000
835.10	-0.000
835.27	-0.000
835.45	-0.000
835.62	-0.000
835.79	-0.000
835.97	-0.000
836.14	-0.000
836.32	-0.000
836.49	-0.000
836.66	-0.000
836.84	-0.000
837.01	-0.000
837.18	-0.000
837.36	-0.000
837.53	-0.000
837.71	-0.000
837.88	-0.000
838.05	-0.000
838.23	-0.000
838.40	-0.000
838.58	-0.000
838.75	-0.000
838.92	-0.000
839.10	-0.000
839.27	-0.000
839.44	-0.000
839.62	-0.000
839.79	-0.000
839.96	-0.000
840.14	-0.000
840.31	-0.000
840.48	-0.000
840.66	-0.000
840.83	-0.000
841.01	-0.000
841.18	-0.000
841.35	-0.000
841.53	-0.000
841.70	-0.000
841.87	-0.000
842.05	-0.000
842.22	-0.000
842.39	-0.000
842.57	-0.000
842.74	-0.000
842.91	-0.000
843.09	-0.000
843.26	-0.000
843.43	-0.000
843.60	-0.000
843.78	-0.000
843.95	-0.000
844.12	-0.000
844.30	-0.000
844.47	-0.000
844.64	-0.000
844.82	-0.000
844.99	-0.000
845.16	-0.000
845.34	-0.000
845.51	-0.000
845.68	-0.000
845.85	-0.000
846.03	-0.000
846.20	-0.000
846.37	-0.000
846.55	-0.000
846.72	-0.000
846.89	-0.000
847.06	-0.000
847.24	-0.000
847.41	-0.000
847.58	-0.000
847.76	-0.000
847.93	-0.000
848.10	-0.000
848.27	-0.000
848.45	-0.000
848.62	-0.000
848.79	-0.000
848.97	-0.000
849.14	-0.000
849.31	-0.000
849.48	-0.000
849.66	-0.000
849.83	-0.000
850.00	-0.000
850.17	-0.000
850.35	-0.000
850.52	-0.000
850.69	-0.000
850.86	-0.000
851.04	-0.000
851.21	-0.000
851.38	-0.000
851.55	-0.000
851.72	-0.000
851.90	-0.000
852.07	-0.000
852.24	-0.000
852.41	-0.000
852.59	-0.000
852.76	-0.000
852.93	-0.000
853.10	-0.000
853.28	-0.000
853.45	-0.000
853.62	-0.000
853.79	-0.000
853.96	-0.000
854.14	-0.000
854.31	-0.000
854.48	-0.000
854.65	-0.000
854.82	-0.000
855.00	-0.000
855.17	-0.000
855.34	-0.000
855.51	-0.000
855.68	-0.000
855.86	-0.000
856.03	-0.000
856.20	-0.000
856.37	-0.000
856.54	-0.000
856.72	-0.000
856.89	-0.000
857.06	-0.000
857.23	-0.000
857.40	-0.000
857.57	-0.000
857.75	-0.000
857.92	-0.000
858.09	-0.000
858.26	-0.000
858.43	-0.000
858.60	-0.000
858.78	-0.000
858.95	-0.000
859.12	-0.000
859.29	-0.000
859.46	-0.000
859.63	-0.000
859.81	-0.000
859.98	-0.000
860.15	-0.000
860.32	-0.000
860.49	-0.000
860.66	-0.000
860.83	-0.000
861.01	-0.000
861.18	-0.000
861.35	-0.000
861.52	-0.000
861.69	-0.000
861.86	-0.000
862.03	-0.000
862.21	-0.000
862.38	-0.000
862.55	-0.000
862.72	-0.000
862.89	-0.000
863.06	-0.000
863.23	-0.000
863.40	-0.000
863.58	-0.000
863.75	-0.000
863.92	-0.000
864.09	-0.000
864.26	-0.000
864.43	-0.000
864.60	-0.000
864.77	-0.000
864.94	-0.000
865.11	-0.000
865.29	-0.000
865.46	-0.000
865.63	-0.000
865.80	-0.000
865.97	-0.000
866.14	-0.000
866.31	-0.000
866.48	-0.000
866.65	-0.000
866.82	-0.000
866.99	-0.000
867.16	-0.000
867.34	-0.000
867.51	-0.000
867.68	-0.000
867.85	-0.000
868.02	-0.000
868.19	-0.000
868.36	-0.000
868.53	-0.000
868.70	-0.000
868.87	-0.000
869.04	-0.000
869.21	-0.000
869.38	-0.000
869.55	-0.000
869.72	-0.000
869.89	-0.000
870.06	-0.000
870.24	-0.000
870.41	-0.000
870.58	-0.000
870.75	-0.000
870.92	-0.000
871.09	-0.000
871.26	-0.000
871.43	-0.000
871.60	-0.000
871.77	-0.000
871.94	-0.000
872.11	-0.000
872.28	-0.000
872.45	-0.000
872.62	-0.000
872.79	-0.000
872.96	-0.000
873.13	-0.000
873.30	-0.000
873.47	-0.000
873.64	-0.000
873.81	-0.000
873.98	-0.000
874.15	-0.000
874.32	-0.000
874.49	-0.000
874.66	-0.000
874.83	-0.000
875.00	-0.000
875.17	-0.000
875.34	-0.000
875.51	-0.000
875.68	-0.000
875.85	-0.000
876.02	-0.000
876.19	-0.000
876.36	-0.000
876.53	-0.000
876.70	-0.000
876.87	-0.000
877.04	-0.000
877.21	-0.000
877.38	-0.000
877.55	-0.000
877.72	-0.000
877.89	-0.000
878.06	-0.000
878.23	-0.000
878.39	-0.000
878.56	-0.000
878.73	-0.000
878.90	-0.000
879.07	-0.000
879.24	-0.000
879.41	-0.000
879.58	-0.000
879.75	-0.000
879.92	-0.000
880.09	-0.000
880.26	-0.000
880.43	-0.000
880.60	-0.000
880.77	-0.000
880.94	-0.000
881.11	-0.000
881.27	-0.000
881.44	-0.000
881.61	-0.000
881.78	-0.000
881.95	-0.000
882.12	-0.000
882.29	-0.000
882.46	-0.000
882.63	-0.000
882.80	-0.000
882.97	-0.000
883.14	-0.000
883.30	-0.000
883.47	-0.000
883.64	-0.000
883.81	-0.000
883.98	-0.000
884.15	-0.000
884.32	-0.000
884.49	-0.000
884.66	-0.000
884.82	-0.000
884.99	-0.000
885.16	-0.000
885.33	-0.000
885.50	-0.000
885.67	-0.000
885.84	-0.000
886.01	-0.000
886.17	-0.000
886.34	-0.000
886.51	-0.000
886.68	-0.000
886.85	-0.000
887.02	-0.000
887.19	-0.000
887.36	-0.000
887.52	-0.000
887.69	-0.000
887.86	-0.000
888.03	-0.000
888.20	-0.000
888.37	-0.000
888.54	-0.000
888.70	-0.000
888.87	-0.000
889.04	-0.000
889.21	-0.000
889.38	-0.000
889.55	-0.000
889.71	-0.000
889.88	-0.000
890.05	-0.000
890.22	-0.000
890.39	-0.000
>>>>>End Processed Spectral Data<<<<<
