SpectraSuite Data File
++++++++++++++++++++++++++++++++++++
Date: Fri Jun 19 12:25:02 CEST 2015
User: introlabs
Dark Spectrum Present: Yes
Reference Spectrum Present: Yes
Number of Sampled Component Spectra: 1
Spectrometers: USB4H08886
Integration Time (usec): 745692 (USB4H08886)
Spectra Averaged: 5 (USB4H08886)
Boxcar Smoothing: 5 (USB4H08886)
Correct for Electrical Dark: Yes (USB4H08886)
Strobe/Lamp Enabled: No (USB4H08886)
Correct for Detector Non-linearity: Yes (USB4H08886)
Correct for Stray Light: Yes (USB4H08886)
Number of Pixels in Processed Spectrum: 3648
>>>>>Begin Processed Spectral Data<<<<<
178.14	-0.000
178.36	-0.000
178.57	-0.000
178.79	-0.000
179.01	-0.000
179.22	-0.000
179.44	-0.000
179.65	-0.000
179.87	-0.000
180.08	-0.000
180.30	-0.000
180.52	-0.000
180.73	-0.000
180.95	-0.000
181.16	-0.000
181.38	-0.000
181.59	-0.000
181.81	-0.000
182.03	-0.000
182.24	-0.000
182.46	-0.000
182.67	-0.000
182.89	-0.000
183.10	-0.000
183.32	-0.000
183.54	-0.000
183.75	-0.000
183.97	-0.000
184.18	-0.000
184.40	-0.000
184.61	-0.000
184.83	-0.000
185.04	-0.000
185.26	-0.000
185.48	-0.000
185.69	-0.000
185.91	-0.000
186.12	-0.000
186.34	-0.000
186.55	-0.000
186.77	-0.000
186.98	-0.000
187.20	-0.000
187.42	-0.000
187.63	-0.000
187.85	-0.000
188.06	-0.000
188.28	-0.000
188.49	-0.000
188.71	-0.000
188.92	-0.000
189.14	-0.000
189.36	-0.000
189.57	-0.000
189.79	-0.000
190.00	-0.000
190.22	-0.000
190.43	-0.000
190.65	-0.000
190.86	-0.000
191.08	-0.000
191.29	-0.000
191.51	-0.000
191.72	-0.000
191.94	-0.000
192.16	-0.000
192.37	-0.000
192.59	-0.000
192.80	-0.000
193.02	-0.000
193.23	-0.000
193.45	-0.000
193.66	-0.000
193.88	-0.000
194.09	-0.000
194.31	-0.000
194.52	-0.000
194.74	-0.000
194.95	-0.000
195.17	-0.000
195.38	-0.000
195.60	-0.000
195.81	-0.000
196.03	-0.000
196.25	-0.000
196.46	-0.000
196.68	-0.000
196.89	-0.000
197.11	-0.000
197.32	-0.000
197.54	-0.000
197.75	-0.000
197.97	-0.000
198.18	-0.000
198.40	-0.000
198.61	-0.000
198.83	-0.000
199.04	-0.000
199.26	-0.000
199.47	-0.000
199.69	-0.000
199.90	-0.000
200.12	-0.000
200.33	-0.000
200.55	-0.000
200.76	-0.000
200.98	-0.000
201.19	-0.000
201.41	-0.000
201.62	-0.000
201.84	-0.000
202.05	-0.000
202.27	-0.000
202.48	-0.000
202.70	-0.000
202.91	-0.000
203.13	-0.000
203.34	-0.000
203.56	-0.000
203.77	-0.000
203.99	-0.000
204.20	-0.000
204.42	-0.000
204.63	-0.000
204.85	-0.000
205.06	-0.000
205.28	-0.000
205.49	-0.000
205.71	-0.000
205.92	-0.000
206.14	-0.000
206.35	-0.000
206.56	-0.000
206.78	-0.000
206.99	-0.000
207.21	-0.000
207.42	-0.000
207.64	-0.000
207.85	-0.000
208.07	-0.000
208.28	-0.000
208.50	-0.000
208.71	-0.000
208.93	-0.000
209.14	-0.000
209.36	-0.000
209.57	-0.000
209.79	-0.000
210.00	-0.000
210.22	-0.000
210.43	-0.000
210.64	-0.000
210.86	-0.000
211.07	-0.000
211.29	-0.000
211.50	-0.000
211.72	-0.000
211.93	-0.000
212.15	-0.000
212.36	-0.000
212.58	-0.000
212.79	-0.000
213.01	-0.000
213.22	-0.000
213.43	-0.000
213.65	-0.000
213.86	-0.000
214.08	-0.000
214.29	-0.000
214.51	-0.000
214.72	-0.000
214.94	-0.000
215.15	-0.000
215.36	-0.000
215.58	-0.000
215.79	-0.000
216.01	-0.000
216.22	-0.000
216.44	-0.000
216.65	-0.000
216.87	-0.000
217.08	-0.000
217.29	-0.000
217.51	-0.000
217.72	-0.000
217.94	-0.000
218.15	-0.000
218.37	-0.000
218.58	-0.000
218.80	-0.000
219.01	-0.000
219.22	-0.000
219.44	-0.000
219.65	-0.000
219.87	-0.000
220.08	-0.000
220.30	-0.000
220.51	-0.000
220.72	-0.000
220.94	-0.000
221.15	-0.000
221.37	-0.000
221.58	-0.000
221.79	-0.000
222.01	-0.000
222.22	-0.000
222.44	-0.000
222.65	-0.000
222.87	-0.000
223.08	-0.000
223.29	-0.000
223.51	-0.000
223.72	-0.000
223.94	-0.000
224.15	-0.000
224.36	-0.000
224.58	-0.000
224.79	-0.000
225.01	-0.000
225.22	-0.000
225.44	-0.000
225.65	-0.000
225.86	-0.000
226.08	-0.000
226.29	-0.000
226.51	-0.000
226.72	-0.000
226.93	-0.000
227.15	-0.000
227.36	-0.000
227.58	-0.000
227.79	-0.000
228.00	-0.000
228.22	-0.000
228.43	-0.000
228.65	-0.000
228.86	-0.000
229.07	-0.000
229.29	-0.000
229.50	-0.000
229.72	-0.000
229.93	-0.000
230.14	-0.000
230.36	-0.000
230.57	-0.000
230.78	-0.000
231.00	-0.000
231.21	-0.000
231.43	-0.000
231.64	-0.000
231.85	-0.000
232.07	-0.000
232.28	-0.000
232.50	-0.000
232.71	-0.000
232.92	-0.000
233.14	-0.000
233.35	-0.000
233.56	-0.000
233.78	-0.000
233.99	-0.000
234.21	-0.000
234.42	-0.000
234.63	-0.000
234.85	-0.000
235.06	-0.000
235.27	-0.000
235.49	-0.000
235.70	-0.000
235.91	-0.000
236.13	-0.000
236.34	-0.000
236.56	-0.000
236.77	-0.000
236.98	-0.000
237.20	-0.000
237.41	-0.000
237.62	-0.000
237.84	-0.000
238.05	-0.000
238.26	-0.000
238.48	-0.000
238.69	-0.000
238.91	-0.000
239.12	-0.000
239.33	-0.000
239.55	-0.000
239.76	-0.000
239.97	-0.000
240.19	-0.000
240.40	-0.000
240.61	-0.000
240.83	-0.000
241.04	-0.000
241.25	-0.000
241.47	-0.000
241.68	-0.000
241.89	-0.000
242.11	-0.000
242.32	-0.000
242.53	-0.000
242.75	-0.000
242.96	-0.000
243.17	-0.000
243.39	-0.000
243.60	-0.000
243.81	-0.000
244.03	-0.000
244.24	-0.000
244.45	-0.000
244.67	-0.000
244.88	-0.000
245.09	-0.000
245.31	-0.000
245.52	-0.000
245.73	-0.000
245.95	-0.000
246.16	-0.000
246.37	-0.000
246.59	-0.000
246.80	-0.000
247.01	-0.000
247.23	-0.000
247.44	-0.000
247.65	-0.000
247.87	-0.000
248.08	-0.000
248.29	-0.000
248.51	-0.000
248.72	-0.000
248.93	-0.000
249.15	-0.000
249.36	-0.000
249.57	-0.000
249.78	-0.000
250.00	-0.000
250.21	-0.000
250.42	-0.000
250.64	-0.000
250.85	-0.000
251.06	-0.000
251.28	-0.000
251.49	-0.000
251.70	-0.000
251.92	-0.000
252.13	-0.000
252.34	-0.000
252.55	-0.000
252.77	-0.000
252.98	-0.000
253.19	-0.000
253.41	-0.000
253.62	-0.000
253.83	-0.000
254.05	-0.000
254.26	-0.000
254.47	-0.000
254.68	-0.000
254.90	-0.000
255.11	-0.000
255.32	-0.000
255.54	-0.000
255.75	-0.000
255.96	-0.000
256.17	-0.000
256.39	-0.000
256.60	-0.000
256.81	-0.000
257.03	-0.000
257.24	-0.000
257.45	-0.000
257.66	-0.000
257.88	-0.000
258.09	-0.000
258.30	-0.000
258.51	-0.000
258.73	-0.000
258.94	-0.000
259.15	-0.000
259.37	-0.000
259.58	-0.000
259.79	-0.000
260.00	-0.000
260.22	-0.000
260.43	-0.000
260.64	-0.000
260.85	-0.000
261.07	-0.000
261.28	-0.000
261.49	-0.000
261.71	-0.000
261.92	-0.000
262.13	-0.000
262.34	-0.000
262.56	-0.000
262.77	-0.000
262.98	-0.000
263.19	-0.000
263.41	-0.000
263.62	-0.000
263.83	-0.000
264.04	-0.000
264.26	-0.000
264.47	-0.000
264.68	-0.000
264.89	-0.000
265.11	-0.000
265.32	-0.000
265.53	-0.000
265.74	-0.000
265.96	-0.000
266.17	-0.000
266.38	-0.000
266.59	-0.000
266.81	-0.000
267.02	-0.000
267.23	-0.000
267.44	-0.000
267.65	-0.000
267.87	-0.000
268.08	-0.000
268.29	-0.000
268.50	-0.000
268.72	-0.000
268.93	-0.000
269.14	-0.000
269.35	-0.000
269.57	-0.000
269.78	-0.000
269.99	-0.000
270.20	-0.000
270.41	-0.000
270.63	-0.000
270.84	-0.000
271.05	-0.000
271.26	-0.000
271.48	-0.000
271.69	-0.000
271.90	-0.000
272.11	-0.000
272.32	-0.000
272.54	-0.000
272.75	-0.000
272.96	-0.000
273.17	-0.000
273.39	-0.000
273.60	-0.000
273.81	-0.000
274.02	-0.000
274.23	-0.000
274.45	-0.000
274.66	-0.000
274.87	-0.000
275.08	-0.000
275.29	-0.000
275.51	-0.000
275.72	-0.000
275.93	-0.000
276.14	-0.000
276.35	-0.000
276.57	-0.000
276.78	-0.000
276.99	-0.000
277.20	-0.000
277.41	-0.000
277.63	-0.000
277.84	-0.000
278.05	-0.000
278.26	-0.000
278.47	-0.000
278.69	-0.000
278.90	-0.000
279.11	-0.000
279.32	-0.000
279.53	-0.000
279.74	-0.000
279.96	-0.000
280.17	-0.000
280.38	-0.000
280.59	-0.000
280.80	-0.000
281.02	-0.000
281.23	-0.000
281.44	-0.000
281.65	-0.000
281.86	-0.000
282.07	-0.000
282.29	-0.000
282.50	-0.000
282.71	-0.000
282.92	-0.000
283.13	-0.000
283.35	-0.000
283.56	-0.000
283.77	-0.000
283.98	-0.000
284.19	-0.000
284.40	-0.000
284.62	-0.000
284.83	-0.000
285.04	-0.000
285.25	-0.000
285.46	-0.000
285.67	-0.000
285.88	-0.000
286.10	-0.000
286.31	-0.000
286.52	-0.000
286.73	-0.000
286.94	-0.000
287.15	-0.000
287.37	-0.000
287.58	-0.000
287.79	-0.000
288.00	-0.000
288.21	-0.000
288.42	-0.000
288.63	-0.000
288.85	-0.000
289.06	-0.000
289.27	-0.000
289.48	-0.000
289.69	-0.000
289.90	-0.000
290.11	-0.000
290.33	-0.000
290.54	-0.000
290.75	-0.000
290.96	-0.000
291.17	-0.000
291.38	-0.000
291.59	-0.000
291.81	3.974
292.02	2.775
292.23	2.518
292.44	1.907
292.65	1.737
292.86	1.923
293.07	1.864
293.28	1.638
293.50	1.704
293.71	1.834
293.92	1.747
294.13	1.803
294.34	1.834
294.55	1.901
294.76	1.845
294.97	1.672
295.19	1.742
295.40	1.962
295.61	1.877
295.82	1.593
296.03	1.527
296.24	1.578
296.45	1.426
296.66	1.305
296.87	1.314
297.09	1.350
297.30	1.403
297.51	1.280
297.72	1.267
297.93	1.314
298.14	1.303
298.35	1.274
298.56	1.258
298.77	1.314
298.99	1.310
299.20	1.290
299.41	1.283
299.62	1.275
299.83	1.270
300.04	1.232
300.25	1.229
300.46	1.256
300.67	1.244
300.88	1.213
301.10	1.218
301.31	1.257
301.52	1.228
301.73	1.191
301.94	1.193
302.15	1.205
302.36	1.179
302.57	1.135
302.78	1.138
302.99	1.164
303.20	1.173
303.41	1.118
303.63	1.106
303.84	1.112
304.05	1.110
304.26	1.070
304.47	1.075
304.68	1.081
304.89	1.079
305.10	1.049
305.31	1.042
305.52	1.070
305.73	1.066
305.94	1.039
306.15	1.036
306.37	1.052
306.58	1.059
306.79	1.035
307.00	1.049
307.21	1.074
307.42	1.073
307.63	1.046
307.84	1.025
308.05	1.051
308.26	1.049
308.47	1.030
308.68	1.028
308.89	1.031
309.10	1.029
309.31	1.001
309.52	0.997
309.73	1.008
309.95	1.005
310.16	0.985
310.37	0.977
310.58	0.993
310.79	0.992
311.00	0.985
311.21	0.987
311.42	0.989
311.63	0.984
311.84	0.968
312.05	0.967
312.26	0.985
312.47	0.993
312.68	0.975
312.89	0.963
313.10	0.972
313.31	0.954
313.52	0.951
313.73	0.953
313.94	0.959
314.15	0.946
314.36	0.930
314.57	0.922
314.78	0.916
314.99	0.912
315.21	0.900
315.42	0.901
315.63	0.914
315.84	0.900
316.05	0.888
316.26	0.893
316.47	0.909
316.68	0.905
316.89	0.891
317.10	0.903
317.31	0.910
317.52	0.911
317.73	0.896
317.94	0.895
318.15	0.927
318.36	0.926
318.57	0.912
318.78	0.903
318.99	0.932
319.20	0.930
319.41	0.905
319.62	0.905
319.83	0.916
320.04	0.912
320.25	0.899
320.46	0.874
320.67	0.879
320.88	0.876
321.09	0.863
321.30	0.852
321.51	0.865
321.72	0.864
321.93	0.850
322.14	0.846
322.35	0.868
322.56	0.868
322.77	0.858
322.98	0.865
323.19	0.873
323.40	0.879
323.61	0.860
323.82	0.855
324.03	0.860
324.24	0.858
324.45	0.846
324.66	0.830
324.87	0.831
325.08	0.831
325.29	0.815
325.50	0.809
325.71	0.814
325.92	0.821
326.13	0.810
326.34	0.812
326.55	0.822
326.76	0.821
326.97	0.812
327.18	0.807
327.39	0.829
327.60	0.830
327.80	0.829
328.01	0.827
328.22	0.829
328.43	0.832
328.64	0.820
328.85	0.822
329.06	0.825
329.27	0.825
329.48	0.821
329.69	0.805
329.90	0.814
330.11	0.809
330.32	0.802
330.53	0.797
330.74	0.799
330.95	0.796
331.16	0.784
331.37	0.790
331.58	0.791
331.79	0.789
332.00	0.781
332.21	0.776
332.42	0.780
332.63	0.774
332.83	0.768
333.04	0.770
333.25	0.782
333.46	0.780
333.67	0.768
333.88	0.771
334.09	0.780
334.30	0.779
334.51	0.772
334.72	0.769
334.93	0.774
335.14	0.773
335.35	0.766
335.56	0.762
335.77	0.771
335.98	0.770
336.18	0.763
336.39	0.758
336.60	0.760
336.81	0.758
337.02	0.757
337.23	0.760
337.44	0.764
337.65	0.764
337.86	0.756
338.07	0.752
338.28	0.758
338.49	0.755
338.70	0.748
338.91	0.755
339.11	0.761
339.32	0.757
339.53	0.746
339.74	0.742
339.95	0.741
340.16	0.740
340.37	0.733
340.58	0.731
340.79	0.737
341.00	0.737
341.21	0.727
341.41	0.728
341.62	0.731
341.83	0.732
342.04	0.728
342.25	0.736
342.46	0.742
342.67	0.741
342.88	0.734
343.09	0.733
343.30	0.741
343.50	0.743
343.71	0.734
343.92	0.733
344.13	0.738
344.34	0.737
344.55	0.724
344.76	0.722
344.97	0.727
345.18	0.726
345.38	0.722
345.59	0.717
345.80	0.719
346.01	0.717
346.22	0.714
346.43	0.709
346.64	0.718
346.85	0.718
347.06	0.712
347.26	0.713
347.47	0.716
347.68	0.712
347.89	0.709
348.10	0.705
348.31	0.712
348.52	0.710
348.73	0.707
348.93	0.703
349.14	0.707
349.35	0.707
349.56	0.701
349.77	0.698
349.98	0.704
350.19	0.702
350.39	0.697
350.60	0.693
350.81	0.707
351.02	0.707
351.23	0.703
351.44	0.705
351.65	0.708
351.86	0.706
352.06	0.704
352.27	0.704
352.48	0.706
352.69	0.706
352.90	0.700
353.11	0.689
353.31	0.695
353.52	0.692
353.73	0.685
353.94	0.686
354.15	0.692
354.36	0.692
354.57	0.684
354.77	0.686
354.98	0.687
355.19	0.687
355.40	0.686
355.61	0.691
355.82	0.695
356.02	0.695
356.23	0.689
356.44	0.691
356.65	0.695
356.86	0.696
357.07	0.690
357.27	0.693
357.48	0.697
357.69	0.693
357.90	0.680
358.11	0.677
358.32	0.681
358.52	0.683
358.73	0.674
358.94	0.676
359.15	0.680
359.36	0.681
359.56	0.676
359.77	0.672
359.98	0.679
360.19	0.679
360.40	0.676
360.61	0.677
360.81	0.677
361.02	0.677
361.23	0.669
361.44	0.668
361.65	0.670
361.85	0.671
362.06	0.670
362.27	0.671
362.48	0.673
362.69	0.675
362.89	0.669
363.10	0.670
363.31	0.676
363.52	0.679
363.73	0.674
363.93	0.674
364.14	0.676
364.35	0.678
364.56	0.668
364.77	0.670
364.97	0.674
365.18	0.675
365.39	0.669
365.60	0.666
365.81	0.668
366.01	0.668
366.22	0.665
366.43	0.664
366.64	0.667
366.84	0.673
367.05	0.668
367.26	0.668
367.47	0.670
367.68	0.670
367.88	0.667
368.09	0.666
368.30	0.670
368.51	0.669
368.71	0.667
368.92	0.671
369.13	0.670
369.34	0.670
369.55	0.668
369.75	0.669
369.96	0.676
370.17	0.676
370.38	0.671
370.58	0.671
370.79	0.676
371.00	0.675
371.21	0.666
371.41	0.671
371.62	0.676
371.83	0.671
372.04	0.668
372.24	0.662
372.45	0.664
372.66	0.665
372.87	0.661
373.07	0.658
373.28	0.660
373.49	0.664
373.70	0.654
373.90	0.654
374.11	0.663
374.32	0.662
374.53	0.662
374.73	0.662
374.94	0.665
375.15	0.665
375.36	0.662
375.56	0.670
375.77	0.670
375.98	0.670
376.19	0.667
376.39	0.662
376.60	0.666
376.81	0.666
377.02	0.662
377.22	0.661
377.43	0.661
377.64	0.661
377.84	0.653
378.05	0.657
378.26	0.662
378.47	0.661
378.67	0.657
378.88	0.655
379.09	0.656
379.30	0.656
379.50	0.653
379.71	0.656
379.92	0.659
380.12	0.658
380.33	0.650
380.54	0.648
380.75	0.654
380.95	0.655
381.16	0.652
381.37	0.653
381.57	0.656
381.78	0.656
381.99	0.656
382.20	0.655
382.40	0.659
382.61	0.659
382.82	0.655
383.02	0.649
383.23	0.652
383.44	0.652
383.64	0.649
383.85	0.651
384.06	0.655
384.27	0.652
384.47	0.649
384.68	0.650
384.89	0.656
385.09	0.655
385.30	0.654
385.51	0.654
385.71	0.657
385.92	0.658
386.13	0.656
386.33	0.657
386.54	0.659
386.75	0.658
386.95	0.653
387.16	0.649
387.37	0.652
387.58	0.652
387.78	0.649
387.99	0.647
388.20	0.650
388.40	0.647
388.61	0.643
388.82	0.645
389.02	0.647
389.23	0.647
389.44	0.645
389.64	0.645
389.85	0.654
390.06	0.654
390.26	0.653
390.47	0.653
390.68	0.656
390.88	0.654
391.09	0.649
391.30	0.648
391.50	0.648
391.71	0.649
391.92	0.646
392.12	0.640
392.33	0.640
392.53	0.640
392.74	0.639
392.95	0.639
393.15	0.642
393.36	0.643
393.57	0.641
393.77	0.644
393.98	0.646
394.19	0.646
394.39	0.645
394.60	0.646
394.81	0.648
395.01	0.646
395.22	0.643
395.43	0.643
395.63	0.647
395.84	0.648
396.04	0.644
396.25	0.646
396.46	0.648
396.66	0.647
396.87	0.643
397.08	0.640
397.28	0.643
397.49	0.644
397.69	0.640
397.90	0.636
398.11	0.637
398.31	0.638
398.52	0.633
398.73	0.634
398.93	0.633
399.14	0.632
399.34	0.631
399.55	0.632
399.76	0.632
399.96	0.633
400.17	0.631
400.37	0.629
400.58	0.635
400.79	0.637
400.99	0.634
401.20	0.639
401.41	0.642
401.61	0.643
401.82	0.646
402.02	0.646
402.23	0.648
402.44	0.647
402.64	0.647
402.85	0.641
403.05	0.641
403.26	0.639
403.47	0.633
403.67	0.632
403.88	0.632
404.08	0.627
404.29	0.625
404.50	0.624
404.70	0.624
404.91	0.623
405.11	0.621
405.32	0.621
405.52	0.622
405.73	0.622
405.94	0.619
406.14	0.621
406.35	0.624
406.55	0.624
406.76	0.622
406.97	0.622
407.17	0.625
407.38	0.624
407.58	0.622
407.79	0.625
407.99	0.628
408.20	0.628
408.41	0.624
408.61	0.622
408.82	0.624
409.02	0.624
409.23	0.622
409.43	0.621
409.64	0.623
409.84	0.623
410.05	0.618
410.26	0.617
410.46	0.617
410.67	0.616
410.87	0.617
411.08	0.619
411.28	0.620
411.49	0.621
411.69	0.618
411.90	0.619
412.11	0.622
412.31	0.623
412.52	0.622
412.72	0.623
412.93	0.625
413.13	0.623
413.34	0.619
413.54	0.620
413.75	0.622
413.95	0.622
414.16	0.619
414.37	0.621
414.57	0.621
414.78	0.623
414.98	0.620
415.19	0.621
415.39	0.620
415.60	0.622
415.80	0.621
416.01	0.619
416.21	0.622
416.42	0.622
416.62	0.617
416.83	0.617
417.03	0.617
417.24	0.618
417.44	0.616
417.65	0.615
417.86	0.616
418.06	0.615
418.27	0.612
418.47	0.613
418.68	0.615
418.88	0.615
419.09	0.613
419.29	0.614
419.50	0.615
419.70	0.614
419.91	0.612
420.11	0.610
420.32	0.613
420.52	0.613
420.73	0.612
420.93	0.612
421.14	0.614
421.34	0.613
421.55	0.609
421.75	0.610
421.96	0.611
422.16	0.612
422.37	0.611
422.57	0.608
422.78	0.610
422.98	0.608
423.19	0.606
423.39	0.605
423.60	0.608
423.80	0.610
424.01	0.608
424.21	0.611
424.42	0.612
424.62	0.612
424.83	0.611
425.03	0.611
425.23	0.613
425.44	0.614
425.64	0.614
425.85	0.613
426.05	0.615
426.26	0.615
426.46	0.611
426.67	0.611
426.87	0.615
427.08	0.616
427.28	0.614
427.49	0.615
427.69	0.616
427.90	0.614
428.10	0.611
428.31	0.611
428.51	0.612
428.71	0.611
428.92	0.612
429.12	0.610
429.33	0.611
429.53	0.615
429.74	0.618
429.94	0.618
430.15	0.618
430.35	0.619
430.56	0.616
430.76	0.616
430.96	0.618
431.17	0.616
431.37	0.613
431.58	0.612
431.78	0.609
431.99	0.603
432.19	0.605
432.40	0.606
432.60	0.607
432.80	0.610
433.01	0.608
433.21	0.608
433.42	0.610
433.62	0.610
433.83	0.609
434.03	0.611
434.23	0.615
434.44	0.615
434.64	0.612
434.85	0.617
435.05	0.618
435.26	0.618
435.46	0.617
435.66	0.617
435.87	0.617
436.07	0.617
436.28	0.613
436.48	0.610
436.69	0.609
436.89	0.610
437.09	0.604
437.30	0.603
437.50	0.604
437.71	0.615
437.91	0.613
438.11	0.615
438.32	0.621
438.52	0.622
438.73	0.621
438.93	0.619
439.13	0.620
439.34	0.623
439.54	0.620
439.75	0.621
439.95	0.612
440.15	0.615
440.36	0.614
440.56	0.611
440.77	0.612
440.97	0.612
441.17	0.611
441.38	0.612
441.58	0.610
441.79	0.610
441.99	0.608
442.19	0.608
442.40	0.607
442.60	0.607
442.81	0.604
443.01	0.605
443.21	0.606
443.42	0.606
443.62	0.604
443.82	0.605
444.03	0.606
444.23	0.606
444.44	0.606
444.64	0.605
444.84	0.606
445.05	0.606
445.25	0.604
445.45	0.605
445.66	0.608
445.86	0.607
446.06	0.607
446.27	0.607
446.47	0.611
446.68	0.610
446.88	0.608
447.08	0.608
447.29	0.611
447.49	0.611
447.69	0.610
447.90	0.609
448.10	0.613
448.30	0.611
448.51	0.612
448.71	0.610
448.91	0.612
449.12	0.611
449.32	0.612
449.52	0.610
449.73	0.615
449.93	0.614
450.14	0.614
450.34	0.613
450.54	0.616
450.75	0.613
450.95	0.612
451.15	0.612
451.36	0.615
451.56	0.612
451.76	0.611
451.97	0.608
452.17	0.609
452.37	0.608
452.58	0.604
452.78	0.604
452.98	0.607
453.19	0.606
453.39	0.606
453.59	0.606
453.79	0.607
454.00	0.607
454.20	0.606
454.40	0.607
454.61	0.609
454.81	0.610
455.01	0.608
455.22	0.608
455.42	0.611
455.62	0.609
455.83	0.608
456.03	0.611
456.23	0.613
456.44	0.613
456.64	0.612
456.84	0.612
457.04	0.613
457.25	0.613
457.45	0.610
457.65	0.609
457.86	0.610
458.06	0.609
458.26	0.605
458.47	0.604
458.67	0.605
458.87	0.605
459.07	0.603
459.28	0.605
459.48	0.607
459.68	0.608
459.89	0.606
460.09	0.606
460.29	0.607
460.49	0.609
460.70	0.608
460.90	0.608
461.10	0.610
461.31	0.609
461.51	0.607
461.71	0.608
461.91	0.610
462.12	0.610
462.32	0.608
462.52	0.609
462.72	0.613
462.93	0.613
463.13	0.610
463.33	0.611
463.53	0.612
463.74	0.611
463.94	0.607
464.14	0.608
464.35	0.609
464.55	0.609
464.75	0.607
464.95	0.605
465.16	0.608
465.36	0.606
465.56	0.605
465.76	0.605
465.97	0.605
466.17	0.606
466.37	0.604
466.57	0.605
466.78	0.607
466.98	0.607
467.18	0.604
467.38	0.603
467.59	0.605
467.79	0.607
467.99	0.606
468.19	0.607
468.39	0.611
468.60	0.610
468.80	0.608
469.00	0.609
469.20	0.611
469.41	0.611
469.61	0.611
469.81	0.610
470.01	0.610
470.22	0.611
470.42	0.608
470.62	0.606
470.82	0.609
471.02	0.607
471.23	0.605
471.43	0.605
471.63	0.608
471.83	0.607
472.04	0.605
472.24	0.604
472.44	0.609
472.64	0.610
472.84	0.607
473.05	0.607
473.25	0.610
473.45	0.610
473.65	0.608
473.85	0.608
474.06	0.610
474.26	0.610
474.46	0.611
474.66	0.608
474.86	0.609
475.07	0.609
475.27	0.607
475.47	0.605
475.67	0.606
475.87	0.608
476.08	0.605
476.28	0.605
476.48	0.607
476.68	0.606
476.88	0.603
477.09	0.605
477.29	0.607
477.49	0.607
477.69	0.605
477.89	0.605
478.09	0.605
478.30	0.607
478.50	0.604
478.70	0.604
478.90	0.605
479.10	0.607
479.31	0.607
479.51	0.606
479.71	0.607
479.91	0.608
480.11	0.606
480.31	0.607
480.52	0.606
480.72	0.606
480.92	0.605
481.12	0.604
481.32	0.602
481.52	0.600
481.72	0.600
481.93	0.603
482.13	0.604
482.33	0.603
482.53	0.601
482.73	0.602
482.93	0.603
483.14	0.602
483.34	0.602
483.54	0.602
483.74	0.602
483.94	0.601
484.14	0.597
484.34	0.597
484.55	0.598
484.75	0.598
484.95	0.596
485.15	0.595
485.35	0.596
485.55	0.596
485.75	0.594
485.96	0.594
486.16	0.596
486.36	0.597
486.56	0.595
486.76	0.596
486.96	0.597
487.16	0.596
487.36	0.594
487.57	0.594
487.77	0.595
487.97	0.596
488.17	0.594
488.37	0.593
488.57	0.594
488.77	0.594
488.97	0.592
489.18	0.591
489.38	0.594
489.58	0.595
489.78	0.594
489.98	0.593
490.18	0.593
490.38	0.594
490.58	0.592
490.78	0.592
490.98	0.594
491.19	0.595
491.39	0.594
491.59	0.593
491.79	0.596
491.99	0.597
492.19	0.596
492.39	0.599
492.59	0.599
492.79	0.601
492.99	0.600
493.20	0.600
493.40	0.601
493.60	0.602
493.80	0.600
494.00	0.598
494.20	0.598
494.40	0.598
494.60	0.596
494.80	0.600
495.00	0.599
495.20	0.598
495.40	0.597
495.61	0.599
495.81	0.599
496.01	0.603
496.21	0.604
496.41	0.603
496.61	0.604
496.81	0.603
497.01	0.598
497.21	0.597
497.41	0.598
497.61	0.598
497.81	0.595
498.01	0.596
498.21	0.594
498.41	0.592
498.61	0.591
498.82	0.592
499.02	0.595
499.22	0.596
499.42	0.595
499.62	0.596
499.82	0.597
500.02	0.598
500.22	0.596
500.42	0.599
500.62	0.600
500.82	0.600
501.02	0.598
501.22	0.599
501.42	0.599
501.62	0.601
501.82	0.600
502.02	0.600
502.22	0.600
502.42	0.601
502.62	0.599
502.82	0.599
503.02	0.600
503.22	0.600
503.42	0.597
503.63	0.598
503.83	0.596
504.03	0.595
504.23	0.593
504.43	0.594
504.63	0.596
504.83	0.596
505.03	0.594
505.23	0.596
505.43	0.598
505.63	0.598
505.83	0.598
506.03	0.600
506.23	0.603
506.43	0.603
506.63	0.602
506.83	0.600
507.03	0.602
507.23	0.603
507.43	0.600
507.63	0.600
507.83	0.601
508.03	0.601
508.23	0.600
508.43	0.599
508.63	0.601
508.83	0.602
509.03	0.602
509.23	0.601
509.43	0.602
509.63	0.602
509.83	0.601
510.03	0.603
510.23	0.605
510.43	0.606
510.63	0.606
510.83	0.606
511.03	0.607
511.23	0.605
511.43	0.605
511.63	0.606
511.83	0.609
512.03	0.609
512.22	0.606
512.42	0.605
512.62	0.606
512.82	0.606
513.02	0.604
513.22	0.604
513.42	0.607
513.62	0.609
513.82	0.606
514.02	0.606
514.22	0.607
514.42	0.608
514.62	0.607
514.82	0.608
515.02	0.611
515.22	0.614
515.42	0.612
515.62	0.615
515.82	0.614
516.02	0.615
516.22	0.615
516.42	0.616
516.62	0.618
516.82	0.619
517.01	0.616
517.21	0.615
517.41	0.619
517.61	0.620
517.81	0.616
518.01	0.616
518.21	0.616
518.41	0.614
518.61	0.613
518.81	0.614
519.01	0.615
519.21	0.615
519.41	0.614
519.61	0.609
519.81	0.612
520.00	0.612
520.20	0.612
520.40	0.615
520.60	0.617
520.80	0.616
521.00	0.616
521.20	0.617
521.40	0.622
521.60	0.622
521.80	0.621
522.00	0.621
522.20	0.624
522.39	0.623
522.59	0.620
522.79	0.621
522.99	0.624
523.19	0.623
523.39	0.620
523.59	0.618
523.79	0.621
523.99	0.624
524.19	0.623
524.38	0.621
524.58	0.623
524.78	0.624
524.98	0.622
525.18	0.624
525.38	0.626
525.58	0.626
525.78	0.624
525.98	0.622
526.18	0.623
526.37	0.621
526.57	0.623
526.77	0.623
526.97	0.623
527.17	0.623
527.37	0.619
527.57	0.621
527.77	0.623
527.96	0.623
528.16	0.621
528.36	0.622
528.56	0.624
528.76	0.622
528.96	0.621
529.16	0.622
529.36	0.626
529.55	0.626
529.75	0.623
529.95	0.623
530.15	0.625
530.35	0.628
530.55	0.625
530.75	0.626
530.94	0.627
531.14	0.627
531.34	0.625
531.54	0.623
531.74	0.626
531.94	0.630
532.13	0.627
532.33	0.629
532.53	0.629
532.73	0.628
532.93	0.626
533.13	0.627
533.33	0.629
533.52	0.630
533.72	0.633
533.92	0.631
534.12	0.630
534.32	0.630
534.52	0.628
534.71	0.629
534.91	0.633
535.11	0.634
535.31	0.631
535.51	0.633
535.71	0.635
535.90	0.633
536.10	0.633
536.30	0.636
536.50	0.637
536.70	0.638
536.89	0.635
537.09	0.634
537.29	0.636
537.49	0.636
537.69	0.634
537.89	0.634
538.08	0.634
538.28	0.633
538.48	0.632
538.68	0.633
538.88	0.636
539.07	0.636
539.27	0.634
539.47	0.634
539.67	0.635
539.87	0.637
540.06	0.634
540.26	0.635
540.46	0.638
540.66	0.635
540.86	0.633
541.05	0.633
541.25	0.634
541.45	0.634
541.65	0.632
541.84	0.634
542.04	0.635
542.24	0.636
542.44	0.634
542.64	0.634
542.83	0.637
543.03	0.638
543.23	0.635
543.43	0.636
543.62	0.638
543.82	0.638
544.02	0.637
544.22	0.636
544.42	0.640
544.61	0.641
544.81	0.638
545.01	0.637
545.21	0.640
545.40	0.640
545.60	0.637
545.80	0.641
546.00	0.641
546.19	0.640
546.39	0.639
546.59	0.636
546.79	0.638
546.98	0.639
547.18	0.637
547.38	0.638
547.58	0.642
547.77	0.642
547.97	0.638
548.17	0.640
548.37	0.642
548.56	0.642
548.76	0.641
548.96	0.643
549.16	0.647
549.35	0.646
549.55	0.643
549.75	0.643
549.95	0.647
550.14	0.647
550.34	0.645
550.54	0.649
550.73	0.653
550.93	0.654
551.13	0.650
551.33	0.648
551.52	0.650
551.72	0.651
551.92	0.648
552.12	0.648
552.31	0.649
552.51	0.649
552.71	0.643
552.90	0.643
553.10	0.644
553.30	0.645
553.50	0.644
553.69	0.646
553.89	0.647
554.09	0.647
554.28	0.644
554.48	0.645
554.68	0.648
554.87	0.648
555.07	0.645
555.27	0.645
555.47	0.647
555.66	0.647
555.86	0.645
556.06	0.648
556.25	0.650
556.45	0.657
556.65	0.654
556.84	0.658
557.04	0.662
557.24	0.663
557.43	0.662
557.63	0.664
557.83	0.667
558.02	0.667
558.22	0.670
558.42	0.670
558.61	0.663
558.81	0.664
559.01	0.660
559.21	0.659
559.40	0.661
559.60	0.661
559.80	0.657
559.99	0.658
560.19	0.661
560.39	0.655
560.58	0.653
560.78	0.653
560.97	0.657
561.17	0.655
561.37	0.652
561.56	0.653
561.76	0.654
561.96	0.654
562.15	0.651
562.35	0.653
562.55	0.656
562.74	0.655
562.94	0.654
563.14	0.652
563.33	0.654
563.53	0.654
563.73	0.651
563.92	0.653
564.12	0.656
564.31	0.659
564.51	0.656
564.71	0.658
564.90	0.662
565.10	0.663
565.30	0.665
565.49	0.666
565.69	0.669
565.89	0.670
566.08	0.667
566.28	0.669
566.47	0.670
566.67	0.669
566.87	0.665
567.06	0.666
567.26	0.673
567.46	0.669
567.65	0.667
567.85	0.668
568.04	0.670
568.24	0.669
568.44	0.665
568.63	0.663
568.83	0.665
569.02	0.663
569.22	0.657
569.42	0.654
569.61	0.656
569.81	0.655
570.00	0.653
570.20	0.654
570.40	0.656
570.59	0.656
570.79	0.653
570.98	0.651
571.18	0.653
571.38	0.653
571.57	0.650
571.77	0.647
571.96	0.651
572.16	0.649
572.35	0.644
572.55	0.645
572.75	0.644
572.94	0.644
573.14	0.642
573.33	0.642
573.53	0.644
573.73	0.643
573.92	0.641
574.12	0.639
574.31	0.642
574.51	0.643
574.70	0.639
574.90	0.640
575.09	0.643
575.29	0.643
575.49	0.640
575.68	0.640
575.88	0.643
576.07	0.644
576.27	0.642
576.46	0.641
576.66	0.641
576.86	0.640
577.05	0.638
577.25	0.637
577.44	0.639
577.64	0.639
577.83	0.636
578.03	0.636
578.22	0.636
578.42	0.636
578.61	0.634
578.81	0.635
579.00	0.636
579.20	0.635
579.40	0.634
579.59	0.633
579.79	0.634
579.98	0.633
580.18	0.633
580.37	0.634
580.57	0.637
580.76	0.641
580.96	0.639
581.15	0.640
581.35	0.642
581.54	0.642
581.74	0.640
581.93	0.642
582.13	0.643
582.32	0.641
582.52	0.639
582.71	0.639
582.91	0.635
583.10	0.636
583.30	0.634
583.49	0.633
583.69	0.638
583.88	0.639
584.08	0.638
584.27	0.641
584.47	0.644
584.66	0.644
584.86	0.642
585.05	0.644
585.25	0.646
585.44	0.646
585.64	0.644
585.83	0.641
586.03	0.642
586.22	0.641
586.42	0.637
586.61	0.640
586.81	0.643
587.00	0.643
587.20	0.640
587.39	0.641
587.59	0.644
587.78	0.645
587.98	0.645
588.17	0.646
588.37	0.648
588.56	0.650
588.76	0.645
588.95	0.645
589.15	0.649
589.34	0.651
589.54	0.649
589.73	0.649
589.92	0.653
590.12	0.652
590.31	0.649
590.51	0.653
590.70	0.655
590.90	0.655
591.09	0.653
591.29	0.651
591.48	0.652
591.68	0.653
591.87	0.651
592.06	0.651
592.26	0.654
592.45	0.654
592.65	0.647
592.84	0.647
593.04	0.651
593.23	0.653
593.43	0.650
593.62	0.650
593.81	0.651
594.01	0.651
594.20	0.648
594.40	0.648
594.59	0.650
594.79	0.651
594.98	0.649
595.17	0.648
595.37	0.649
595.56	0.650
595.76	0.649
595.95	0.650
596.14	0.653
596.34	0.654
596.53	0.651
596.73	0.652
596.92	0.654
597.12	0.656
597.31	0.655
597.50	0.654
597.70	0.657
597.89	0.656
598.09	0.652
598.28	0.654
598.47	0.656
598.67	0.656
598.86	0.651
599.06	0.653
599.25	0.654
599.44	0.652
599.64	0.650
599.83	0.648
600.03	0.651
600.22	0.652
600.41	0.652
600.61	0.650
600.80	0.653
601.00	0.654
601.19	0.650
601.38	0.649
601.58	0.652
601.77	0.653
601.96	0.654
602.16	0.654
602.35	0.664
602.55	0.661
602.74	0.661
602.93	0.662
603.13	0.668
603.32	0.668
603.51	0.667
603.71	0.670
603.90	0.672
604.09	0.671
604.29	0.668
604.48	0.662
604.68	0.664
604.87	0.663
605.06	0.659
605.26	0.656
605.45	0.657
605.64	0.656
605.84	0.651
606.03	0.650
606.22	0.650
606.42	0.650
606.61	0.646
606.80	0.646
607.00	0.648
607.19	0.649
607.38	0.647
607.58	0.648
607.77	0.652
607.96	0.652
608.16	0.651
608.35	0.655
608.54	0.659
608.74	0.662
608.93	0.666
609.12	0.669
609.32	0.672
609.51	0.677
609.70	0.675
609.90	0.676
610.09	0.681
610.28	0.686
610.48	0.678
610.67	0.680
610.86	0.681
611.06	0.675
611.25	0.672
611.44	0.671
611.64	0.671
611.83	0.674
612.02	0.669
612.21	0.669
612.41	0.667
612.60	0.666
612.79	0.661
612.99	0.662
613.18	0.665
613.37	0.663
613.57	0.661
613.76	0.663
613.95	0.661
614.14	0.662
614.34	0.659
614.53	0.660
614.72	0.664
614.92	0.666
615.11	0.662
615.30	0.660
615.49	0.662
615.69	0.665
615.88	0.661
616.07	0.663
616.26	0.666
616.46	0.668
616.65	0.664
616.84	0.663
617.04	0.666
617.23	0.669
617.42	0.669
617.61	0.673
617.81	0.674
618.00	0.676
618.19	0.674
618.38	0.677
618.58	0.680
618.77	0.682
618.96	0.680
619.15	0.680
619.35	0.683
619.54	0.684
619.73	0.678
619.92	0.680
620.12	0.685
620.31	0.685
620.50	0.679
620.69	0.679
620.89	0.683
621.08	0.683
621.27	0.683
621.46	0.681
621.66	0.686
621.85	0.686
622.04	0.681
622.23	0.681
622.43	0.682
622.62	0.682
622.81	0.682
623.00	0.682
623.19	0.687
623.39	0.686
623.58	0.682
623.77	0.681
623.96	0.685
624.16	0.686
624.35	0.680
624.54	0.682
624.73	0.688
624.92	0.685
625.12	0.681
625.31	0.682
625.50	0.686
625.69	0.687
625.88	0.683
626.08	0.682
626.27	0.685
626.46	0.685
626.65	0.682
626.84	0.681
627.04	0.687
627.23	0.686
627.42	0.681
627.61	0.681
627.80	0.685
628.00	0.685
628.19	0.684
628.38	0.688
628.57	0.691
628.76	0.692
628.96	0.688
629.15	0.689
629.34	0.693
629.53	0.694
629.72	0.688
629.91	0.689
630.11	0.695
630.30	0.695
630.49	0.696
630.68	0.697
630.87	0.701
631.06	0.705
631.26	0.699
631.45	0.701
631.64	0.711
631.83	0.712
632.02	0.709
632.21	0.708
632.41	0.717
632.60	0.711
632.79	0.709
632.98	0.709
633.17	0.710
633.36	0.711
633.55	0.706
633.75	0.702
633.94	0.705
634.13	0.706
634.32	0.701
634.51	0.695
634.70	0.699
634.89	0.698
635.09	0.693
635.28	0.694
635.47	0.697
635.66	0.701
635.85	0.697
636.04	0.698
636.23	0.703
636.43	0.706
636.62	0.704
636.81	0.703
637.00	0.707
637.19	0.711
637.38	0.706
637.57	0.704
637.76	0.707
637.95	0.708
638.15	0.703
638.34	0.700
638.53	0.704
638.72	0.705
638.91	0.701
639.10	0.698
639.29	0.699
639.48	0.700
639.67	0.700
639.87	0.698
640.06	0.704
640.25	0.703
640.44	0.704
640.63	0.704
640.82	0.708
641.01	0.708
641.20	0.707
641.39	0.709
641.58	0.714
641.78	0.712
641.97	0.707
642.16	0.722
642.35	0.724
642.54	0.722
642.73	0.716
642.92	0.714
643.11	0.719
643.30	0.718
643.49	0.712
643.68	0.714
643.87	0.716
644.06	0.717
644.25	0.695
644.45	0.698
644.64	0.701
644.83	0.702
645.02	0.697
645.21	0.697
645.40	0.700
645.59	0.700
645.78	0.692
645.97	0.695
646.16	0.697
646.35	0.697
646.54	0.692
646.73	0.693
646.92	0.696
647.11	0.696
647.30	0.691
647.49	0.692
647.68	0.692
647.88	0.691
648.07	0.683
648.26	0.685
648.45	0.687
648.64	0.683
648.83	0.681
649.02	0.682
649.21	0.693
649.40	0.692
649.59	0.687
649.78	0.688
649.97	0.703
650.16	0.702
650.35	0.696
650.54	0.699
650.73	0.708
650.92	0.704
651.11	0.698
651.30	0.695
651.49	0.700
651.68	0.701
651.87	0.697
652.06	0.687
652.25	0.692
652.44	0.691
652.63	0.685
652.82	0.682
653.01	0.682
653.20	0.678
653.39	0.665
653.58	0.662
653.77	0.661
653.96	0.657
654.15	0.648
654.34	0.646
654.53	0.644
654.72	0.639
654.91	0.631
655.10	0.628
655.29	0.627
655.48	0.625
655.67	0.619
655.86	0.617
656.05	0.616
656.24	0.616
656.43	0.610
656.62	0.610
656.81	0.612
657.00	0.612
657.19	0.610
657.38	0.612
657.57	0.614
657.76	0.618
657.95	0.617
658.14	0.621
658.33	0.626
658.51	0.632
658.70	0.633
658.89	0.633
659.08	0.640
659.27	0.647
659.46	0.645
659.65	0.650
659.84	0.653
660.03	0.655
660.22	0.656
660.41	0.659
660.60	0.660
660.79	0.661
660.98	0.667
661.17	0.666
661.36	0.666
661.55	0.666
661.74	0.663
661.92	0.666
662.11	0.669
662.30	0.667
662.49	0.659
662.68	0.657
662.87	0.660
663.06	0.654
663.25	0.654
663.44	0.655
663.63	0.656
663.82	0.655
664.01	0.649
664.20	0.647
664.38	0.649
664.57	0.650
664.76	0.650
664.95	0.651
665.14	0.657
665.33	0.652
665.52	0.659
665.71	0.663
665.90	0.664
666.09	0.665
666.28	0.662
666.46	0.662
666.65	0.665
666.84	0.663
667.03	0.656
667.22	0.654
667.41	0.658
667.60	0.647
667.79	0.641
667.98	0.642
668.16	0.643
668.35	0.642
668.54	0.636
668.73	0.637
668.92	0.638
669.11	0.637
669.30	0.630
669.49	0.626
669.67	0.627
669.86	0.629
670.05	0.626
670.24	0.623
670.43	0.622
670.62	0.621
670.81	0.615
671.00	0.617
671.18	0.617
671.37	0.616
671.56	0.614
671.75	0.613
671.94	0.611
672.13	0.609
672.32	0.604
672.50	0.604
672.69	0.605
672.88	0.606
673.07	0.600
673.26	0.603
673.45	0.605
673.63	0.605
673.82	0.601
674.01	0.602
674.20	0.602
674.39	0.601
674.58	0.599
674.76	0.599
674.95	0.598
675.14	0.598
675.33	0.592
675.52	0.591
675.71	0.591
675.89	0.591
676.08	0.586
676.27	0.586
676.46	0.587
676.65	0.587
676.84	0.586
677.02	0.587
677.21	0.591
677.40	0.590
677.59	0.586
677.78	0.587
677.96	0.590
678.15	0.589
678.34	0.587
678.53	0.588
678.72	0.588
678.90	0.585
679.09	0.580
679.28	0.576
679.47	0.578
679.66	0.578
679.84	0.575
680.03	0.573
680.22	0.573
680.41	0.575
680.60	0.571
680.78	0.571
680.97	0.573
681.16	0.574
681.35	0.573
681.53	0.571
681.72	0.572
681.91	0.573
682.10	0.570
682.29	0.572
682.47	0.570
682.66	0.570
682.85	0.568
683.04	0.565
683.22	0.566
683.41	0.567
683.60	0.566
683.79	0.567
683.97	0.567
684.16	0.565
684.35	0.561
684.54	0.563
684.72	0.564
684.91	0.564
685.10	0.562
685.29	0.564
685.47	0.562
685.66	0.561
685.85	0.557
686.04	0.556
686.22	0.560
686.41	0.562
686.60	0.558
686.79	0.561
686.97	0.563
687.16	0.565
687.35	0.561
687.54	0.565
687.72	0.569
687.91	0.569
688.10	0.570
688.29	0.570
688.47	0.568
688.66	0.569
688.85	0.564
689.03	0.562
689.22	0.566
689.41	0.567
689.60	0.561
689.78	0.558
689.97	0.560
690.16	0.557
690.34	0.553
690.53	0.553
690.72	0.553
690.91	0.552
691.09	0.549
691.28	0.543
691.47	0.541
691.65	0.541
691.84	0.537
692.03	0.537
692.21	0.536
692.40	0.536
692.59	0.533
692.77	0.532
692.96	0.534
693.15	0.535
693.34	0.533
693.52	0.533
693.71	0.534
693.90	0.535
694.08	0.534
694.27	0.535
694.46	0.544
694.64	0.545
694.83	0.543
695.02	0.542
695.20	0.542
695.39	0.541
695.58	0.540
695.76	0.541
695.95	0.540
696.14	0.540
696.32	0.538
696.51	0.529
696.70	0.529
696.88	0.530
697.07	0.529
697.26	0.531
697.44	0.533
697.63	0.532
697.81	0.530
698.00	0.530
698.19	0.530
698.37	0.530
698.56	0.529
698.75	0.529
698.93	0.528
699.12	0.527
699.31	0.525
699.49	0.525
699.68	0.526
699.87	0.529
700.05	0.528
700.24	0.527
700.42	0.530
700.61	0.529
700.80	0.527
700.98	0.528
701.17	0.531
701.36	0.530
701.54	0.529
701.73	0.530
701.91	0.528
702.10	0.528
702.29	0.525
702.47	0.524
702.66	0.527
702.84	0.528
703.03	0.526
703.22	0.526
703.40	0.527
703.59	0.528
703.77	0.527
703.96	0.527
704.15	0.528
704.33	0.528
704.52	0.527
704.70	0.525
704.89	0.525
705.08	0.524
705.26	0.520
705.45	0.520
705.63	0.519
705.82	0.516
706.00	0.515
706.19	0.514
706.38	0.514
706.56	0.513
706.75	0.511
706.93	0.510
707.12	0.512
707.30	0.512
707.49	0.509
707.68	0.507
707.86	0.507
708.05	0.507
708.23	0.503
708.42	0.504
708.60	0.508
708.79	0.508
708.98	0.507
709.16	0.506
709.35	0.509
709.53	0.513
709.72	0.511
709.90	0.513
710.09	0.515
710.27	0.517
710.46	0.520
710.64	0.518
710.83	0.520
711.02	0.521
711.20	0.519
711.39	0.518
711.57	0.516
711.76	0.517
711.94	0.514
712.13	0.515
712.31	0.515
712.50	0.510
712.68	0.507
712.87	0.508
713.05	0.509
713.24	0.509
713.42	0.508
713.61	0.509
713.79	0.510
713.98	0.510
714.16	0.510
714.35	0.509
714.54	0.511
714.72	0.511
714.91	0.508
715.09	0.514
715.28	0.518
715.46	0.517
715.65	0.514
715.83	0.514
716.02	0.517
716.20	0.514
716.39	0.513
716.57	0.514
716.76	0.517
716.94	0.517
717.12	0.509
717.31	0.510
717.49	0.513
717.68	0.516
717.86	0.515
718.05	0.516
718.23	0.519
718.42	0.521
718.60	0.522
718.79	0.530
718.97	0.533
719.16	0.534
719.34	0.531
719.53	0.531
719.71	0.531
719.90	0.533
720.08	0.529
720.27	0.530
720.45	0.531
720.63	0.530
720.82	0.524
721.00	0.527
721.19	0.531
721.37	0.531
721.56	0.531
721.74	0.534
721.93	0.543
722.11	0.550
722.30	0.548
722.48	0.552
722.66	0.554
722.85	0.552
723.03	0.551
723.22	0.549
723.40	0.553
723.59	0.552
723.77	0.555
723.95	0.549
724.14	0.552
724.32	0.553
724.51	0.552
724.69	0.553
724.88	0.555
725.06	0.553
725.24	0.553
725.43	0.555
725.61	0.559
725.80	0.553
725.98	0.550
726.16	0.546
726.35	0.552
726.53	0.552
726.72	0.549
726.90	0.560
727.09	0.561
727.27	0.567
727.45	0.562
727.64	0.571
727.82	0.581
728.01	0.586
728.19	0.582
728.37	0.587
728.56	0.592
728.74	0.599
728.92	0.584
729.11	0.587
729.29	0.587
729.48	0.590
729.66	0.577
729.84	0.576
730.03	0.581
730.21	0.583
730.40	0.572
730.58	0.573
730.76	0.574
730.95	0.577
731.13	0.576
731.31	0.589
731.50	0.600
731.68	0.603
731.86	0.599
732.05	0.612
732.23	0.616
732.42	0.618
732.60	0.621
732.78	0.626
732.97	0.646
733.15	0.653
733.33	0.639
733.52	0.646
733.70	0.659
733.88	0.667
734.07	0.652
734.25	0.679
734.43	0.691
734.62	0.694
734.80	0.688
734.98	0.678
735.17	0.688
735.35	0.695
735.53	0.683
735.72	0.687
735.90	0.713
736.08	0.733
736.27	0.705
736.45	0.716
736.63	0.730
736.82	0.740
737.00	0.737
737.18	0.750
737.37	0.784
737.55	0.806
737.73	0.797
737.92	0.802
738.10	0.801
738.28	0.827
738.46	0.808
738.65	0.823
738.83	0.848
739.01	0.904
739.20	0.889
739.38	0.870
739.56	0.865
739.75	0.870
739.93	0.824
740.11	0.850
740.29	0.855
740.48	0.865
740.66	0.837
740.84	0.831
741.03	0.801
741.21	0.812
741.39	0.786
741.57	0.798
741.76	0.820
741.94	0.830
742.12	0.790
742.31	0.798
742.49	0.823
742.67	0.848
742.85	0.857
743.04	0.860
743.22	0.877
743.40	0.940
743.58	0.917
743.77	0.935
743.95	0.980
744.13	1.036
744.31	1.005
744.50	0.999
744.68	1.013
744.86	0.987
745.04	0.993
745.23	1.062
745.41	1.054
745.59	1.059
745.77	1.009
745.96	0.996
746.14	1.021
746.32	1.018
746.50	1.002
746.69	0.980
746.87	1.005
747.05	0.989
747.23	0.900
747.42	0.884
747.60	0.922
747.78	0.926
747.96	0.953
748.14	0.895
748.33	0.933
748.51	0.925
748.69	0.911
748.87	0.940
749.06	0.942
749.24	0.949
749.42	0.923
749.60	0.904
749.78	0.921
749.97	0.871
750.15	0.864
750.33	0.865
750.51	0.901
750.69	0.906
750.88	0.907
751.06	0.918
751.24	0.957
751.42	0.944
751.60	0.925
751.79	1.015
751.97	1.081
752.15	1.081
752.33	1.033
752.51	1.109
752.69	1.142
752.88	1.097
753.06	1.139
753.24	1.099
753.42	1.162
753.60	1.400
753.78	1.171
753.97	1.180
754.15	1.212
754.33	1.249
754.51	1.081
754.69	1.058
754.87	1.092
755.06	1.014
755.24	1.012
755.42	1.015
755.60	0.917
755.78	0.927
755.96	0.866
756.15	0.867
756.33	0.879
756.51	0.898
756.69	0.878
756.87	0.847
757.05	0.873
757.23	0.851
757.42	0.811
757.60	0.806
757.78	0.798
757.96	0.797
758.14	0.776
758.32	0.759
758.50	0.778
758.69	0.778
758.87	0.764
759.05	0.768
759.23	0.785
759.41	0.788
759.59	0.777
759.77	0.803
759.95	0.835
760.13	0.886
760.32	0.882
760.50	0.873
760.68	0.903
760.86	0.904
761.04	0.872
761.22	0.874
761.40	0.930
761.58	0.932
761.76	0.892
761.95	0.877
762.13	0.834
762.31	0.831
762.49	0.794
762.67	0.816
762.85	0.831
763.03	0.825
763.21	0.805
763.39	0.788
763.57	0.796
763.75	0.791
763.94	0.771
764.12	0.771
764.30	0.805
764.48	0.807
764.66	0.761
764.84	0.760
765.02	0.805
765.20	0.807
765.38	0.780
765.56	0.785
765.74	0.835
765.92	0.836
766.10	0.843
766.28	0.832
766.46	0.869
766.65	0.871
766.83	0.857
767.01	0.838
767.19	0.857
767.37	0.857
767.55	0.839
767.73	0.812
767.91	0.819
768.09	0.807
768.27	0.792
768.45	0.780
768.63	0.790
768.81	0.791
768.99	0.761
769.17	0.783
769.35	0.804
769.53	0.801
769.71	0.781
769.89	0.792
770.07	0.803
770.25	0.787
770.43	0.762
770.61	0.789
770.79	0.797
770.97	0.809
771.15	0.774
771.33	0.778
771.51	0.785
771.69	0.794
771.87	0.796
772.05	0.801
772.24	0.815
772.42	0.823
772.60	0.795
772.78	0.861
772.96	0.894
773.14	0.885
773.32	0.854
773.49	0.862
773.67	0.864
773.85	0.843
774.03	0.826
774.21	0.860
774.39	0.878
774.57	0.902
774.75	0.820
774.93	0.818
775.11	0.849
775.29	0.858
775.47	0.855
775.65	0.867
775.83	0.893
776.01	0.916
776.19	0.857
776.37	0.862
776.55	0.864
776.73	0.860
776.91	0.845
777.09	0.828
777.27	0.833
777.45	0.823
777.63	0.796
777.81	0.790
777.99	0.780
778.17	0.781
778.35	0.752
778.53	0.741
778.71	0.751
778.89	0.738
779.07	0.720
779.24	0.725
779.42	0.728
779.60	0.747
779.78	0.740
779.96	0.746
780.14	0.759
780.32	0.779
780.50	0.759
780.68	0.758
780.86	0.755
781.04	0.774
781.22	0.772
781.40	0.786
781.58	0.779
781.75	0.770
781.93	0.746
782.11	0.747
782.29	0.739
782.47	0.739
782.65	0.723
782.83	0.753
783.01	0.750
783.19	0.744
783.37	0.723
783.55	0.728
783.72	0.752
783.90	0.766
784.08	0.752
784.26	0.763
784.44	0.789
784.62	0.791
784.80	0.748
784.98	0.753
785.16	0.761
785.33	0.779
785.51	0.757
785.69	0.743
785.87	0.745
786.05	0.757
786.23	0.750
786.41	0.747
786.59	0.757
786.77	0.758
786.94	0.742
787.12	0.746
787.30	0.748
787.48	0.744
787.66	0.727
787.84	0.725
788.02	0.716
788.19	0.713
788.37	0.695
788.55	0.696
788.73	0.700
788.91	0.693
789.09	0.675
789.27	0.664
789.44	0.679
789.62	0.686
789.80	0.695
789.98	0.720
790.16	0.707
790.34	0.703
790.51	0.688
790.69	0.709
790.87	0.719
791.05	0.714
791.23	0.703
791.41	0.705
791.58	0.715
791.76	0.693
791.94	0.661
792.12	0.672
792.30	0.678
792.48	0.673
792.65	0.664
792.83	0.670
793.01	0.683
793.19	0.683
793.37	0.664
793.54	0.661
793.72	0.674
793.90	0.671
794.08	0.656
794.26	0.659
794.43	0.670
794.61	0.653
794.79	0.637
794.97	0.635
795.15	0.643
795.32	0.649
795.50	0.636
795.68	0.632
795.86	0.639
796.04	0.642
796.21	0.632
796.39	0.633
796.57	0.651
796.75	0.662
796.92	0.662
797.10	0.669
797.28	0.674
797.46	0.679
797.64	0.677
797.81	0.688
797.99	0.696
798.17	0.700
798.35	0.690
798.52	0.693
798.70	0.691
798.88	0.701
799.06	0.695
799.23	0.696
799.41	0.705
799.59	0.697
799.77	0.680
799.94	0.690
800.12	0.702
800.30	0.720
800.48	0.714
800.65	0.714
800.83	0.704
801.01	0.696
801.19	0.693
801.36	0.690
801.54	0.697
801.72	0.708
801.90	0.689
802.07	0.684
802.25	0.671
802.43	0.655
802.60	0.646
802.78	0.654
802.96	0.661
803.14	0.654
803.31	0.648
803.49	0.649
803.67	0.647
803.84	0.650
804.02	0.639
804.20	0.642
804.38	0.651
804.55	0.649
804.73	0.633
804.91	0.634
805.08	0.649
805.26	0.647
805.44	0.705
805.61	0.709
805.79	0.714
805.97	0.714
806.15	0.702
806.32	0.696
806.50	0.707
806.68	0.706
806.85	0.693
807.03	0.684
807.21	0.704
807.38	0.640
807.56	0.627
807.74	0.639
807.91	0.649
808.09	0.652
808.27	0.671
808.44	0.699
808.62	0.713
808.80	0.716
808.97	0.706
809.15	0.699
809.33	0.720
809.50	0.728
809.68	0.708
809.86	0.714
810.03	0.751
810.21	0.728
810.39	0.706
810.56	0.712
810.74	0.742
810.91	0.821
811.09	0.806
811.27	0.828
811.44	0.838
811.62	0.840
811.80	0.818
811.97	0.784
812.15	0.783
812.33	0.776
812.50	0.756
812.68	0.743
812.85	0.687
813.03	0.689
813.21	0.654
813.38	0.645
813.56	0.650
813.74	0.663
813.91	0.667
814.09	0.701
814.26	0.695
814.44	0.701
814.62	0.687
814.79	0.691
814.97	0.700
815.14	0.706
815.32	0.711
815.50	0.731
815.67	0.736
815.85	0.728
816.02	0.712
816.20	0.725
816.38	0.744
816.55	0.750
816.73	0.746
816.90	0.759
817.08	0.795
817.26	0.801
817.43	0.772
817.61	0.798
817.78	0.825
817.96	0.802
818.13	0.785
818.31	0.785
818.49	0.805
818.66	0.793
818.84	0.771
819.01	0.748
819.19	0.757
819.36	0.761
819.54	0.724
819.71	0.766
819.89	0.786
820.07	0.798
820.24	0.784
820.42	0.787
820.59	0.816
820.77	0.842
820.94	0.825
821.12	0.848
821.29	0.871
821.47	0.875
821.64	0.802
821.82	0.818
822.00	0.815
822.17	0.815
822.35	0.801
822.52	0.800
822.70	0.792
822.87	0.805
823.05	0.773
823.22	0.784
823.40	0.820
823.57	0.845
823.75	0.816
823.92	0.855
824.10	0.879
824.27	0.928
824.45	0.908
824.62	0.982
824.80	1.007
824.97	1.035
825.15	1.020
825.32	1.036
825.50	1.049
825.67	1.073
825.85	1.026
826.02	1.063
826.20	1.110
826.37	1.315
826.55	1.183
826.72	1.561
826.90	1.822
827.07	2.108
827.25	1.783
827.42	-0.000
827.60	-0.000
827.77	-0.000
827.95	-0.000
828.12	-0.000
828.30	-0.000
828.47	-0.000
828.65	1.719
828.82	1.935
829.00	4.003
829.17	-0.000
829.34	-0.000
829.52	-0.000
829.69	-0.000
829.87	-0.000
830.04	-0.000
830.22	-0.000
830.39	-0.000
830.57	-0.000
830.74	-0.000
830.92	-0.000
831.09	-0.000
831.26	-0.000
831.44	-0.000
831.61	-0.000
831.79	-0.000
831.96	-0.000
832.14	-0.000
832.31	-0.000
832.49	-0.000
832.66	-0.000
832.83	-0.000
833.01	-0.000
833.18	-0.000
833.36	-0.000
833.53	-0.000
833.70	-0.000
833.88	-0.000
834.05	-0.000
834.23	-0.000
834.40	-0.000
834.58	-0.000
834.75	-0.000
834.92	-0.000
835.10	-0.000
835.27	-0.000
835.45	-0.000
835.62	-0.000
835.79	-0.000
835.97	-0.000
836.14	-0.000
836.32	-0.000
836.49	-0.000
836.66	-0.000
836.84	-0.000
837.01	-0.000
837.18	-0.000
837.36	-0.000
837.53	-0.000
837.71	-0.000
837.88	-0.000
838.05	-0.000
838.23	-0.000
838.40	-0.000
838.58	-0.000
838.75	-0.000
838.92	-0.000
839.10	-0.000
839.27	-0.000
839.44	-0.000
839.62	-0.000
839.79	-0.000
839.96	-0.000
840.14	-0.000
840.31	-0.000
840.48	-0.000
840.66	-0.000
840.83	-0.000
841.01	-0.000
841.18	-0.000
841.35	-0.000
841.53	-0.000
841.70	-0.000
841.87	-0.000
842.05	-0.000
842.22	-0.000
842.39	-0.000
842.57	-0.000
842.74	-0.000
842.91	-0.000
843.09	-0.000
843.26	-0.000
843.43	-0.000
843.60	-0.000
843.78	-0.000
843.95	-0.000
844.12	-0.000
844.30	-0.000
844.47	-0.000
844.64	-0.000
844.82	-0.000
844.99	-0.000
845.16	-0.000
845.34	-0.000
845.51	-0.000
845.68	-0.000
845.85	-0.000
846.03	-0.000
846.20	-0.000
846.37	-0.000
846.55	-0.000
846.72	-0.000
846.89	-0.000
847.06	-0.000
847.24	-0.000
847.41	-0.000
847.58	-0.000
847.76	-0.000
847.93	-0.000
848.10	-0.000
848.27	-0.000
848.45	-0.000
848.62	-0.000
848.79	-0.000
848.97	-0.000
849.14	-0.000
849.31	-0.000
849.48	-0.000
849.66	-0.000
849.83	-0.000
850.00	-0.000
850.17	-0.000
850.35	-0.000
850.52	-0.000
850.69	-0.000
850.86	-0.000
851.04	-0.000
851.21	-0.000
851.38	-0.000
851.55	-0.000
851.72	-0.000
851.90	-0.000
852.07	-0.000
852.24	-0.000
852.41	-0.000
852.59	-0.000
852.76	-0.000
852.93	-0.000
853.10	-0.000
853.28	-0.000
853.45	-0.000
853.62	-0.000
853.79	-0.000
853.96	-0.000
854.14	-0.000
854.31	-0.000
854.48	-0.000
854.65	-0.000
854.82	-0.000
855.00	-0.000
855.17	-0.000
855.34	-0.000
855.51	-0.000
855.68	-0.000
855.86	-0.000
856.03	-0.000
856.20	-0.000
856.37	-0.000
856.54	-0.000
856.72	-0.000
856.89	-0.000
857.06	-0.000
857.23	-0.000
857.40	-0.000
857.57	-0.000
857.75	-0.000
857.92	-0.000
858.09	-0.000
858.26	-0.000
858.43	-0.000
858.60	-0.000
858.78	-0.000
858.95	-0.000
859.12	-0.000
859.29	-0.000
859.46	-0.000
859.63	-0.000
859.81	-0.000
859.98	-0.000
860.15	-0.000
860.32	-0.000
860.49	-0.000
860.66	-0.000
860.83	-0.000
861.01	-0.000
861.18	-0.000
861.35	-0.000
861.52	-0.000
861.69	-0.000
861.86	-0.000
862.03	-0.000
862.21	-0.000
862.38	-0.000
862.55	-0.000
862.72	-0.000
862.89	-0.000
863.06	-0.000
863.23	-0.000
863.40	-0.000
863.58	-0.000
863.75	-0.000
863.92	-0.000
864.09	-0.000
864.26	-0.000
864.43	-0.000
864.60	-0.000
864.77	-0.000
864.94	-0.000
865.11	-0.000
865.29	-0.000
865.46	-0.000
865.63	-0.000
865.80	-0.000
865.97	-0.000
866.14	-0.000
866.31	-0.000
866.48	-0.000
866.65	-0.000
866.82	-0.000
866.99	-0.000
867.16	-0.000
867.34	-0.000
867.51	-0.000
867.68	-0.000
867.85	-0.000
868.02	-0.000
868.19	-0.000
868.36	-0.000
868.53	-0.000
868.70	-0.000
868.87	-0.000
869.04	-0.000
869.21	-0.000
869.38	-0.000
869.55	-0.000
869.72	-0.000
869.89	-0.000
870.06	-0.000
870.24	-0.000
870.41	-0.000
870.58	-0.000
870.75	-0.000
870.92	-0.000
871.09	-0.000
871.26	-0.000
871.43	-0.000
871.60	-0.000
871.77	-0.000
871.94	-0.000
872.11	-0.000
872.28	-0.000
872.45	-0.000
872.62	-0.000
872.79	-0.000
872.96	-0.000
873.13	-0.000
873.30	-0.000
873.47	-0.000
873.64	-0.000
873.81	-0.000
873.98	-0.000
874.15	-0.000
874.32	-0.000
874.49	-0.000
874.66	-0.000
874.83	-0.000
875.00	-0.000
875.17	-0.000
875.34	-0.000
875.51	-0.000
875.68	-0.000
875.85	-0.000
876.02	-0.000
876.19	-0.000
876.36	-0.000
876.53	-0.000
876.70	-0.000
876.87	-0.000
877.04	-0.000
877.21	-0.000
877.38	-0.000
877.55	-0.000
877.72	-0.000
877.89	-0.000
878.06	-0.000
878.23	-0.000
878.39	-0.000
878.56	-0.000
878.73	-0.000
878.90	-0.000
879.07	-0.000
879.24	-0.000
879.41	-0.000
879.58	-0.000
879.75	-0.000
879.92	-0.000
880.09	-0.000
880.26	-0.000
880.43	-0.000
880.60	-0.000
880.77	-0.000
880.94	-0.000
881.11	-0.000
881.27	-0.000
881.44	-0.000
881.61	-0.000
881.78	-0.000
881.95	-0.000
882.12	-0.000
882.29	-0.000
882.46	-0.000
882.63	-0.000
882.80	-0.000
882.97	-0.000
883.14	-0.000
883.30	-0.000
883.47	-0.000
883.64	-0.000
883.81	-0.000
883.98	-0.000
884.15	-0.000
884.32	-0.000
884.49	-0.000
884.66	-0.000
884.82	-0.000
884.99	-0.000
885.16	-0.000
885.33	-0.000
885.50	-0.000
885.67	-0.000
885.84	-0.000
886.01	-0.000
886.17	-0.000
886.34	-0.000
886.51	-0.000
886.68	-0.000
886.85	-0.000
887.02	-0.000
887.19	-0.000
887.36	-0.000
887.52	-0.000
887.69	-0.000
887.86	-0.000
888.03	-0.000
888.20	-0.000
888.37	-0.000
888.54	-0.000
888.70	-0.000
888.87	-0.000
889.04	-0.000
889.21	-0.000
889.38	-0.000
889.55	-0.000
889.71	-0.000
889.88	-0.000
890.05	-0.000
890.22	-0.000
890.39	-0.000
>>>>>End Processed Spectral Data<<<<<
