SpectraSuite Data File
++++++++++++++++++++++++++++++++++++
Date: Fri Jun 19 15:38:13 CEST 2015
User: introlabs
Dark Spectrum Present: Yes
Reference Spectrum Present: Yes
Number of Sampled Component Spectra: 1
Spectrometers: USB4H08886
Integration Time (usec): 745692 (USB4H08886)
Spectra Averaged: 5 (USB4H08886)
Boxcar Smoothing: 5 (USB4H08886)
Correct for Electrical Dark: Yes (USB4H08886)
Strobe/Lamp Enabled: No (USB4H08886)
Correct for Detector Non-linearity: Yes (USB4H08886)
Correct for Stray Light: Yes (USB4H08886)
Number of Pixels in Processed Spectrum: 3648
>>>>>Begin Processed Spectral Data<<<<<
178.14	-0.000
178.36	-0.000
178.57	-0.000
178.79	-0.000
179.01	-0.000
179.22	-0.000
179.44	-0.000
179.65	-0.000
179.87	-0.000
180.08	-0.000
180.30	-0.000
180.52	-0.000
180.73	-0.000
180.95	-0.000
181.16	-0.000
181.38	-0.000
181.59	-0.000
181.81	-0.000
182.03	-0.000
182.24	-0.000
182.46	-0.000
182.67	-0.000
182.89	-0.000
183.10	-0.000
183.32	-0.000
183.54	-0.000
183.75	-0.000
183.97	-0.000
184.18	-0.000
184.40	-0.000
184.61	-0.000
184.83	-0.000
185.04	-0.000
185.26	-0.000
185.48	-0.000
185.69	-0.000
185.91	-0.000
186.12	-0.000
186.34	-0.000
186.55	-0.000
186.77	-0.000
186.98	-0.000
187.20	-0.000
187.42	-0.000
187.63	-0.000
187.85	-0.000
188.06	-0.000
188.28	-0.000
188.49	-0.000
188.71	-0.000
188.92	-0.000
189.14	-0.000
189.36	-0.000
189.57	-0.000
189.79	-0.000
190.00	-0.000
190.22	-0.000
190.43	-0.000
190.65	-0.000
190.86	-0.000
191.08	-0.000
191.29	-0.000
191.51	-0.000
191.72	-0.000
191.94	-0.000
192.16	-0.000
192.37	-0.000
192.59	-0.000
192.80	-0.000
193.02	-0.000
193.23	-0.000
193.45	-0.000
193.66	-0.000
193.88	-0.000
194.09	-0.000
194.31	-0.000
194.52	-0.000
194.74	-0.000
194.95	-0.000
195.17	-0.000
195.38	-0.000
195.60	-0.000
195.81	-0.000
196.03	-0.000
196.25	-0.000
196.46	-0.000
196.68	-0.000
196.89	-0.000
197.11	-0.000
197.32	-0.000
197.54	-0.000
197.75	-0.000
197.97	-0.000
198.18	-0.000
198.40	-0.000
198.61	-0.000
198.83	-0.000
199.04	-0.000
199.26	-0.000
199.47	-0.000
199.69	-0.000
199.90	-0.000
200.12	-0.000
200.33	-0.000
200.55	-0.000
200.76	-0.000
200.98	-0.000
201.19	-0.000
201.41	-0.000
201.62	-0.000
201.84	-0.000
202.05	-0.000
202.27	-0.000
202.48	-0.000
202.70	-0.000
202.91	-0.000
203.13	-0.000
203.34	-0.000
203.56	-0.000
203.77	-0.000
203.99	-0.000
204.20	-0.000
204.42	-0.000
204.63	-0.000
204.85	-0.000
205.06	-0.000
205.28	-0.000
205.49	-0.000
205.71	-0.000
205.92	-0.000
206.14	-0.000
206.35	-0.000
206.56	-0.000
206.78	-0.000
206.99	-0.000
207.21	-0.000
207.42	-0.000
207.64	-0.000
207.85	-0.000
208.07	-0.000
208.28	-0.000
208.50	-0.000
208.71	-0.000
208.93	-0.000
209.14	-0.000
209.36	-0.000
209.57	-0.000
209.79	-0.000
210.00	-0.000
210.22	-0.000
210.43	-0.000
210.64	-0.000
210.86	-0.000
211.07	-0.000
211.29	-0.000
211.50	-0.000
211.72	-0.000
211.93	-0.000
212.15	-0.000
212.36	-0.000
212.58	-0.000
212.79	-0.000
213.01	-0.000
213.22	-0.000
213.43	-0.000
213.65	-0.000
213.86	-0.000
214.08	-0.000
214.29	-0.000
214.51	-0.000
214.72	-0.000
214.94	-0.000
215.15	-0.000
215.36	-0.000
215.58	-0.000
215.79	-0.000
216.01	-0.000
216.22	-0.000
216.44	-0.000
216.65	-0.000
216.87	-0.000
217.08	-0.000
217.29	-0.000
217.51	-0.000
217.72	-0.000
217.94	-0.000
218.15	-0.000
218.37	-0.000
218.58	-0.000
218.80	-0.000
219.01	-0.000
219.22	-0.000
219.44	-0.000
219.65	-0.000
219.87	-0.000
220.08	-0.000
220.30	-0.000
220.51	-0.000
220.72	-0.000
220.94	-0.000
221.15	-0.000
221.37	-0.000
221.58	-0.000
221.79	-0.000
222.01	-0.000
222.22	-0.000
222.44	-0.000
222.65	-0.000
222.87	-0.000
223.08	-0.000
223.29	-0.000
223.51	-0.000
223.72	-0.000
223.94	-0.000
224.15	-0.000
224.36	-0.000
224.58	-0.000
224.79	-0.000
225.01	-0.000
225.22	-0.000
225.44	-0.000
225.65	-0.000
225.86	-0.000
226.08	-0.000
226.29	-0.000
226.51	-0.000
226.72	-0.000
226.93	-0.000
227.15	-0.000
227.36	-0.000
227.58	-0.000
227.79	-0.000
228.00	-0.000
228.22	-0.000
228.43	-0.000
228.65	-0.000
228.86	-0.000
229.07	-0.000
229.29	-0.000
229.50	-0.000
229.72	-0.000
229.93	-0.000
230.14	-0.000
230.36	-0.000
230.57	-0.000
230.78	-0.000
231.00	-0.000
231.21	-0.000
231.43	-0.000
231.64	-0.000
231.85	-0.000
232.07	-0.000
232.28	-0.000
232.50	-0.000
232.71	-0.000
232.92	-0.000
233.14	-0.000
233.35	-0.000
233.56	-0.000
233.78	-0.000
233.99	-0.000
234.21	-0.000
234.42	-0.000
234.63	-0.000
234.85	-0.000
235.06	-0.000
235.27	-0.000
235.49	-0.000
235.70	-0.000
235.91	-0.000
236.13	-0.000
236.34	-0.000
236.56	-0.000
236.77	-0.000
236.98	-0.000
237.20	-0.000
237.41	-0.000
237.62	-0.000
237.84	-0.000
238.05	-0.000
238.26	-0.000
238.48	-0.000
238.69	-0.000
238.91	-0.000
239.12	-0.000
239.33	-0.000
239.55	-0.000
239.76	-0.000
239.97	-0.000
240.19	-0.000
240.40	-0.000
240.61	-0.000
240.83	-0.000
241.04	-0.000
241.25	-0.000
241.47	-0.000
241.68	-0.000
241.89	-0.000
242.11	-0.000
242.32	-0.000
242.53	-0.000
242.75	-0.000
242.96	-0.000
243.17	-0.000
243.39	-0.000
243.60	-0.000
243.81	-0.000
244.03	-0.000
244.24	-0.000
244.45	-0.000
244.67	-0.000
244.88	-0.000
245.09	-0.000
245.31	-0.000
245.52	-0.000
245.73	-0.000
245.95	-0.000
246.16	-0.000
246.37	-0.000
246.59	-0.000
246.80	-0.000
247.01	-0.000
247.23	-0.000
247.44	-0.000
247.65	-0.000
247.87	-0.000
248.08	-0.000
248.29	-0.000
248.51	-0.000
248.72	-0.000
248.93	-0.000
249.15	-0.000
249.36	-0.000
249.57	-0.000
249.78	-0.000
250.00	-0.000
250.21	-0.000
250.42	-0.000
250.64	-0.000
250.85	-0.000
251.06	-0.000
251.28	-0.000
251.49	-0.000
251.70	-0.000
251.92	-0.000
252.13	-0.000
252.34	-0.000
252.55	-0.000
252.77	-0.000
252.98	-0.000
253.19	-0.000
253.41	-0.000
253.62	-0.000
253.83	-0.000
254.05	-0.000
254.26	-0.000
254.47	-0.000
254.68	-0.000
254.90	-0.000
255.11	-0.000
255.32	-0.000
255.54	-0.000
255.75	-0.000
255.96	-0.000
256.17	-0.000
256.39	-0.000
256.60	-0.000
256.81	-0.000
257.03	-0.000
257.24	-0.000
257.45	-0.000
257.66	-0.000
257.88	-0.000
258.09	-0.000
258.30	-0.000
258.51	-0.000
258.73	-0.000
258.94	-0.000
259.15	-0.000
259.37	-0.000
259.58	-0.000
259.79	-0.000
260.00	-0.000
260.22	-0.000
260.43	-0.000
260.64	-0.000
260.85	-0.000
261.07	-0.000
261.28	-0.000
261.49	-0.000
261.71	-0.000
261.92	-0.000
262.13	-0.000
262.34	-0.000
262.56	-0.000
262.77	-0.000
262.98	-0.000
263.19	-0.000
263.41	-0.000
263.62	-0.000
263.83	-0.000
264.04	-0.000
264.26	-0.000
264.47	-0.000
264.68	-0.000
264.89	-0.000
265.11	-0.000
265.32	-0.000
265.53	-0.000
265.74	-0.000
265.96	-0.000
266.17	-0.000
266.38	-0.000
266.59	-0.000
266.81	-0.000
267.02	-0.000
267.23	-0.000
267.44	-0.000
267.65	-0.000
267.87	-0.000
268.08	-0.000
268.29	-0.000
268.50	-0.000
268.72	-0.000
268.93	-0.000
269.14	-0.000
269.35	-0.000
269.57	-0.000
269.78	-0.000
269.99	-0.000
270.20	-0.000
270.41	-0.000
270.63	-0.000
270.84	-0.000
271.05	-0.000
271.26	-0.000
271.48	-0.000
271.69	-0.000
271.90	-0.000
272.11	-0.000
272.32	-0.000
272.54	-0.000
272.75	-0.000
272.96	-0.000
273.17	-0.000
273.39	-0.000
273.60	-0.000
273.81	-0.000
274.02	-0.000
274.23	-0.000
274.45	-0.000
274.66	-0.000
274.87	-0.000
275.08	-0.000
275.29	-0.000
275.51	-0.000
275.72	-0.000
275.93	-0.000
276.14	-0.000
276.35	-0.000
276.57	-0.000
276.78	-0.000
276.99	-0.000
277.20	-0.000
277.41	-0.000
277.63	-0.000
277.84	-0.000
278.05	-0.000
278.26	-0.000
278.47	-0.000
278.69	-0.000
278.90	-0.000
279.11	-0.000
279.32	-0.000
279.53	-0.000
279.74	-0.000
279.96	-0.000
280.17	-0.000
280.38	-0.000
280.59	-0.000
280.80	-0.000
281.02	-0.000
281.23	-0.000
281.44	-0.000
281.65	-0.000
281.86	-0.000
282.07	-0.000
282.29	-0.000
282.50	-0.000
282.71	-0.000
282.92	-0.000
283.13	-0.000
283.35	-0.000
283.56	-0.000
283.77	-0.000
283.98	-0.000
284.19	-0.000
284.40	-0.000
284.62	-0.000
284.83	-0.000
285.04	-0.000
285.25	-0.000
285.46	-0.000
285.67	-0.000
285.88	-0.000
286.10	-0.000
286.31	-0.000
286.52	-0.000
286.73	-0.000
286.94	-0.000
287.15	-0.000
287.37	-0.000
287.58	-0.000
287.79	-0.000
288.00	-0.000
288.21	-0.000
288.42	-0.000
288.63	-0.000
288.85	-0.000
289.06	-0.000
289.27	-0.000
289.48	-0.000
289.69	-0.000
289.90	-0.000
290.11	-0.000
290.33	-0.000
290.54	-0.000
290.75	-0.000
290.96	-0.000
291.17	-0.000
291.38	-0.000
291.59	-0.000
291.81	-0.000
292.02	-0.000
292.23	-0.000
292.44	-0.000
292.65	-0.000
292.86	-0.000
293.07	-0.000
293.28	2.965
293.50	-0.000
293.71	-0.000
293.92	-0.000
294.13	-0.000
294.34	-0.000
294.55	-0.000
294.76	-0.000
294.97	-0.000
295.19	-0.000
295.40	-0.000
295.61	-0.000
295.82	4.289
296.03	2.405
296.24	2.574
296.45	1.895
296.66	1.677
296.87	1.713
297.09	1.774
297.30	1.937
297.51	1.653
297.72	1.634
297.93	1.707
298.14	1.679
298.35	1.646
298.56	1.615
298.77	1.711
298.99	1.691
299.20	1.663
299.41	1.641
299.62	1.592
299.83	1.594
300.04	1.543
300.25	1.537
300.46	1.565
300.67	1.540
300.88	1.497
301.10	1.507
301.31	1.570
301.52	1.513
301.73	1.466
301.94	1.470
302.15	1.472
302.36	1.435
302.57	1.386
302.78	1.393
302.99	1.432
303.20	1.454
303.41	1.370
303.63	1.352
303.84	1.355
304.05	1.351
304.26	1.303
304.47	1.308
304.68	1.306
304.89	1.297
305.10	1.265
305.31	1.250
305.52	1.290
305.73	1.281
305.94	1.246
306.15	1.238
306.37	1.261
306.58	1.267
306.79	1.241
307.00	1.262
307.21	1.298
307.42	1.291
307.63	1.260
307.84	1.227
308.05	1.263
308.26	1.261
308.47	1.245
308.68	1.237
308.89	1.236
309.10	1.234
309.31	1.197
309.52	1.187
309.73	1.198
309.95	1.195
310.16	1.172
310.37	1.163
310.58	1.178
310.79	1.177
311.00	1.176
311.21	1.175
311.42	1.175
311.63	1.169
311.84	1.154
312.05	1.151
312.26	1.171
312.47	1.183
312.68	1.160
312.89	1.143
313.10	1.146
313.31	1.123
313.52	1.127
313.73	1.130
313.94	1.131
314.15	1.115
314.36	1.098
314.57	1.090
314.78	1.076
314.99	1.072
315.21	1.063
315.42	1.069
315.63	1.078
315.84	1.058
316.05	1.046
316.26	1.056
316.47	1.072
316.68	1.069
316.89	1.051
317.10	1.071
317.31	1.074
317.52	1.075
317.73	1.056
317.94	1.056
318.15	1.097
318.36	1.093
318.57	1.075
318.78	1.065
318.99	1.094
319.20	1.092
319.41	1.060
319.62	1.064
319.83	1.077
320.04	1.072
320.25	1.059
320.46	1.027
320.67	1.030
320.88	1.026
321.09	1.016
321.30	1.003
321.51	1.018
321.72	1.017
321.93	1.000
322.14	0.992
322.35	1.016
322.56	1.020
322.77	1.009
322.98	1.020
323.19	1.028
323.40	1.032
323.61	1.013
323.82	1.006
324.03	1.011
324.24	1.009
324.45	0.997
324.66	0.979
324.87	0.972
325.08	0.972
325.29	0.953
325.50	0.946
325.71	0.951
325.92	0.958
326.13	0.946
326.34	0.945
326.55	0.951
326.76	0.951
326.97	0.942
327.18	0.939
327.39	0.962
327.60	0.963
327.80	0.964
328.01	0.964
328.22	0.962
328.43	0.966
328.64	0.957
328.85	0.962
329.06	0.962
329.27	0.962
329.48	0.959
329.69	0.941
329.90	0.951
330.11	0.945
330.32	0.938
330.53	0.932
330.74	0.931
330.95	0.929
331.16	0.914
331.37	0.924
331.58	0.924
331.79	0.922
332.00	0.915
332.21	0.908
332.42	0.911
332.63	0.902
332.83	0.899
333.04	0.901
333.25	0.912
333.46	0.909
333.67	0.895
333.88	0.897
334.09	0.907
334.30	0.905
334.51	0.897
334.72	0.892
334.93	0.895
335.14	0.895
335.35	0.889
335.56	0.884
335.77	0.892
335.98	0.890
336.18	0.885
336.39	0.877
336.60	0.880
336.81	0.878
337.02	0.879
337.23	0.883
337.44	0.886
337.65	0.888
337.86	0.878
338.07	0.873
338.28	0.878
338.49	0.876
338.70	0.869
338.91	0.875
339.11	0.880
339.32	0.876
339.53	0.866
339.74	0.862
339.95	0.857
340.16	0.857
340.37	0.851
340.58	0.850
340.79	0.852
341.00	0.851
341.21	0.842
341.41	0.843
341.62	0.843
341.83	0.843
342.04	0.840
342.25	0.850
342.46	0.853
342.67	0.851
342.88	0.845
343.09	0.844
343.30	0.852
343.50	0.854
343.71	0.846
343.92	0.845
344.13	0.848
344.34	0.847
344.55	0.833
344.76	0.831
344.97	0.835
345.18	0.834
345.38	0.831
345.59	0.826
345.80	0.824
346.01	0.823
346.22	0.819
346.43	0.815
346.64	0.822
346.85	0.821
347.06	0.813
347.26	0.814
347.47	0.818
347.68	0.814
347.89	0.810
348.10	0.806
348.31	0.811
348.52	0.810
348.73	0.807
348.93	0.806
349.14	0.808
349.35	0.809
349.56	0.804
349.77	0.799
349.98	0.803
350.19	0.800
350.39	0.796
350.60	0.792
350.81	0.807
351.02	0.805
351.23	0.801
351.44	0.803
351.65	0.805
351.86	0.802
352.06	0.802
352.27	0.802
352.48	0.804
352.69	0.803
352.90	0.798
353.11	0.784
353.31	0.791
353.52	0.787
353.73	0.779
353.94	0.781
354.15	0.786
354.36	0.786
354.57	0.777
354.77	0.780
354.98	0.779
355.19	0.779
355.40	0.778
355.61	0.784
355.82	0.788
356.02	0.787
356.23	0.780
356.44	0.781
356.65	0.783
356.86	0.784
357.07	0.778
357.27	0.781
357.48	0.782
357.69	0.778
357.90	0.764
358.11	0.760
358.32	0.764
358.52	0.767
358.73	0.758
358.94	0.760
359.15	0.764
359.36	0.764
359.56	0.760
359.77	0.757
359.98	0.763
360.19	0.764
360.40	0.762
360.61	0.762
360.81	0.760
361.02	0.761
361.23	0.754
361.44	0.752
361.65	0.754
361.85	0.753
362.06	0.752
362.27	0.754
362.48	0.754
362.69	0.755
362.89	0.749
363.10	0.751
363.31	0.755
363.52	0.757
363.73	0.753
363.93	0.752
364.14	0.753
364.35	0.754
364.56	0.746
364.77	0.748
364.97	0.749
365.18	0.750
365.39	0.745
365.60	0.742
365.81	0.743
366.01	0.743
366.22	0.740
366.43	0.740
366.64	0.741
366.84	0.745
367.05	0.742
367.26	0.742
367.47	0.744
367.68	0.743
367.88	0.740
368.09	0.738
368.30	0.740
368.51	0.740
368.71	0.739
368.92	0.743
369.13	0.741
369.34	0.741
369.55	0.739
369.75	0.740
369.96	0.747
370.17	0.746
370.38	0.744
370.58	0.743
370.79	0.747
371.00	0.747
371.21	0.738
371.41	0.743
371.62	0.747
371.83	0.743
372.04	0.741
372.24	0.734
372.45	0.735
372.66	0.736
372.87	0.734
373.07	0.730
373.28	0.731
373.49	0.735
373.70	0.726
373.90	0.724
374.11	0.733
374.32	0.733
374.53	0.732
374.73	0.732
374.94	0.734
375.15	0.734
375.36	0.732
375.56	0.741
375.77	0.740
375.98	0.740
376.19	0.737
376.39	0.731
376.60	0.734
376.81	0.735
377.02	0.733
377.22	0.731
377.43	0.731
377.64	0.731
377.84	0.723
378.05	0.728
378.26	0.733
378.47	0.734
378.67	0.731
378.88	0.728
379.09	0.729
379.30	0.729
379.50	0.728
379.71	0.730
379.92	0.732
380.12	0.732
380.33	0.724
380.54	0.721
380.75	0.727
380.95	0.727
381.16	0.725
381.37	0.726
381.57	0.728
381.78	0.728
381.99	0.728
382.20	0.728
382.40	0.731
382.61	0.731
382.82	0.727
383.02	0.721
383.23	0.724
383.44	0.724
383.64	0.722
383.85	0.724
384.06	0.727
384.27	0.725
384.47	0.723
384.68	0.723
384.89	0.729
385.09	0.729
385.30	0.728
385.51	0.727
385.71	0.730
385.92	0.730
386.13	0.729
386.33	0.731
386.54	0.732
386.75	0.730
386.95	0.727
387.16	0.722
387.37	0.725
387.58	0.725
387.78	0.723
387.99	0.721
388.20	0.723
388.40	0.720
388.61	0.716
388.82	0.719
389.02	0.722
389.23	0.722
389.44	0.721
389.64	0.721
389.85	0.732
390.06	0.732
390.26	0.733
390.47	0.732
390.68	0.735
390.88	0.733
391.09	0.729
391.30	0.729
391.50	0.728
391.71	0.729
391.92	0.727
392.12	0.719
392.33	0.719
392.53	0.719
392.74	0.720
392.95	0.719
393.15	0.722
393.36	0.723
393.57	0.721
393.77	0.724
393.98	0.724
394.19	0.724
394.39	0.724
394.60	0.725
394.81	0.727
395.01	0.724
395.22	0.724
395.43	0.725
395.63	0.730
395.84	0.731
396.04	0.729
396.25	0.731
396.46	0.733
396.66	0.732
396.87	0.730
397.08	0.727
397.28	0.729
397.49	0.731
397.69	0.727
397.90	0.722
398.11	0.723
398.31	0.723
398.52	0.720
398.73	0.722
398.93	0.720
399.14	0.719
399.34	0.719
399.55	0.720
399.76	0.719
399.96	0.720
400.17	0.719
400.37	0.717
400.58	0.723
400.79	0.725
400.99	0.723
401.20	0.728
401.41	0.730
401.61	0.731
401.82	0.737
402.02	0.737
402.23	0.739
402.44	0.739
402.64	0.739
402.85	0.734
403.05	0.732
403.26	0.731
403.47	0.725
403.67	0.724
403.88	0.725
404.08	0.719
404.29	0.718
404.50	0.717
404.70	0.718
404.91	0.717
405.11	0.714
405.32	0.715
405.52	0.715
405.73	0.716
405.94	0.714
406.14	0.717
406.35	0.719
406.55	0.718
406.76	0.716
406.97	0.717
407.17	0.719
407.38	0.719
407.58	0.717
407.79	0.720
407.99	0.722
408.20	0.723
408.41	0.719
408.61	0.716
408.82	0.717
409.02	0.717
409.23	0.715
409.43	0.714
409.64	0.715
409.84	0.715
410.05	0.712
410.26	0.710
410.46	0.710
410.67	0.709
410.87	0.711
411.08	0.713
411.28	0.713
411.49	0.715
411.69	0.713
411.90	0.714
412.11	0.716
412.31	0.717
412.52	0.715
412.72	0.716
412.93	0.717
413.13	0.716
413.34	0.712
413.54	0.714
413.75	0.717
413.95	0.716
414.16	0.713
414.37	0.715
414.57	0.714
414.78	0.717
414.98	0.715
415.19	0.716
415.39	0.713
415.60	0.715
415.80	0.714
416.01	0.712
416.21	0.714
416.42	0.713
416.62	0.708
416.83	0.709
417.03	0.709
417.24	0.710
417.44	0.707
417.65	0.707
417.86	0.707
418.06	0.705
418.27	0.704
418.47	0.706
418.68	0.706
418.88	0.708
419.09	0.706
419.29	0.706
419.50	0.706
419.70	0.706
419.91	0.705
420.11	0.702
420.32	0.704
420.52	0.703
420.73	0.703
420.93	0.704
421.14	0.705
421.34	0.704
421.55	0.701
421.75	0.701
421.96	0.702
422.16	0.702
422.37	0.701
422.57	0.698
422.78	0.699
422.98	0.695
423.19	0.694
423.39	0.692
423.60	0.694
423.80	0.696
424.01	0.695
424.21	0.697
424.42	0.698
424.62	0.698
424.83	0.697
425.03	0.698
425.23	0.700
425.44	0.700
425.64	0.700
425.85	0.699
426.05	0.700
426.26	0.700
426.46	0.696
426.67	0.695
426.87	0.700
427.08	0.700
427.28	0.698
427.49	0.699
427.69	0.700
427.90	0.699
428.10	0.696
428.31	0.696
428.51	0.698
428.71	0.697
428.92	0.698
429.12	0.695
429.33	0.696
429.53	0.700
429.74	0.704
429.94	0.704
430.15	0.704
430.35	0.704
430.56	0.700
430.76	0.699
430.96	0.700
431.17	0.697
431.37	0.694
431.58	0.693
431.78	0.690
431.99	0.683
432.19	0.685
432.40	0.686
432.60	0.686
432.80	0.689
433.01	0.688
433.21	0.687
433.42	0.689
433.62	0.690
433.83	0.690
434.03	0.692
434.23	0.695
434.44	0.694
434.64	0.692
434.85	0.697
435.05	0.697
435.26	0.697
435.46	0.696
435.66	0.696
435.87	0.696
436.07	0.697
436.28	0.692
436.48	0.689
436.69	0.688
436.89	0.688
437.09	0.682
437.30	0.681
437.50	0.681
437.71	0.692
437.91	0.691
438.11	0.692
438.32	0.695
438.52	0.695
438.73	0.694
438.93	0.693
439.13	0.692
439.34	0.696
439.54	0.693
439.75	0.694
439.95	0.684
440.15	0.688
440.36	0.686
440.56	0.684
440.77	0.684
440.97	0.684
441.17	0.683
441.38	0.684
441.58	0.681
441.79	0.681
441.99	0.679
442.19	0.678
442.40	0.675
442.60	0.675
442.81	0.673
443.01	0.674
443.21	0.674
443.42	0.673
443.62	0.672
443.82	0.671
444.03	0.673
444.23	0.673
444.44	0.674
444.64	0.673
444.84	0.674
445.05	0.673
445.25	0.672
445.45	0.672
445.66	0.674
445.86	0.674
446.06	0.675
446.27	0.675
446.47	0.677
446.68	0.675
446.88	0.674
447.08	0.672
447.29	0.674
447.49	0.675
447.69	0.674
447.90	0.672
448.10	0.676
448.30	0.673
448.51	0.674
448.71	0.672
448.91	0.674
449.12	0.672
449.32	0.674
449.52	0.674
449.73	0.677
449.93	0.676
450.14	0.677
450.34	0.676
450.54	0.678
450.75	0.675
450.95	0.675
451.15	0.675
451.36	0.677
451.56	0.674
451.76	0.672
451.97	0.669
452.17	0.669
452.37	0.668
452.58	0.664
452.78	0.664
452.98	0.666
453.19	0.665
453.39	0.666
453.59	0.664
453.79	0.665
454.00	0.666
454.20	0.665
454.40	0.665
454.61	0.667
454.81	0.667
455.01	0.666
455.22	0.667
455.42	0.668
455.62	0.667
455.83	0.666
456.03	0.669
456.23	0.670
456.44	0.671
456.64	0.670
456.84	0.670
457.04	0.670
457.25	0.670
457.45	0.666
457.65	0.664
457.86	0.665
458.06	0.663
458.26	0.660
458.47	0.659
458.67	0.661
458.87	0.661
459.07	0.658
459.28	0.660
459.48	0.663
459.68	0.663
459.89	0.662
460.09	0.661
460.29	0.663
460.49	0.664
460.70	0.662
460.90	0.661
461.10	0.662
461.31	0.661
461.51	0.658
461.71	0.659
461.91	0.660
462.12	0.661
462.32	0.660
462.52	0.660
462.72	0.663
462.93	0.663
463.13	0.662
463.33	0.663
463.53	0.665
463.74	0.664
463.94	0.660
464.14	0.661
464.35	0.662
464.55	0.662
464.75	0.660
464.95	0.658
465.16	0.659
465.36	0.658
465.56	0.657
465.76	0.657
465.97	0.657
466.17	0.658
466.37	0.656
466.57	0.657
466.78	0.658
466.98	0.657
467.18	0.656
467.38	0.655
467.59	0.656
467.79	0.657
467.99	0.657
468.19	0.659
468.39	0.661
468.60	0.661
468.80	0.659
469.00	0.660
469.20	0.661
469.41	0.662
469.61	0.662
469.81	0.662
470.01	0.661
470.22	0.661
470.42	0.659
470.62	0.657
470.82	0.658
471.02	0.658
471.23	0.656
471.43	0.657
471.63	0.659
471.83	0.658
472.04	0.657
472.24	0.656
472.44	0.661
472.64	0.661
472.84	0.659
473.05	0.659
473.25	0.662
473.45	0.661
473.65	0.659
473.85	0.660
474.06	0.660
474.26	0.660
474.46	0.661
474.66	0.657
474.86	0.658
475.07	0.658
475.27	0.656
475.47	0.654
475.67	0.654
475.87	0.656
476.08	0.652
476.28	0.654
476.48	0.655
476.68	0.654
476.88	0.652
477.09	0.653
477.29	0.655
477.49	0.655
477.69	0.654
477.89	0.654
478.09	0.653
478.30	0.656
478.50	0.653
478.70	0.653
478.90	0.653
479.10	0.655
479.31	0.656
479.51	0.654
479.71	0.655
479.91	0.655
480.11	0.654
480.31	0.654
480.52	0.653
480.72	0.652
480.92	0.652
481.12	0.651
481.32	0.648
481.52	0.646
481.72	0.646
481.93	0.650
482.13	0.650
482.33	0.650
482.53	0.648
482.73	0.649
482.93	0.650
483.14	0.649
483.34	0.649
483.54	0.650
483.74	0.649
483.94	0.648
484.14	0.644
484.34	0.644
484.55	0.645
484.75	0.645
484.95	0.642
485.15	0.642
485.35	0.642
485.55	0.641
485.75	0.639
485.96	0.639
486.16	0.640
486.36	0.639
486.56	0.638
486.76	0.638
486.96	0.639
487.16	0.638
487.36	0.636
487.57	0.635
487.77	0.636
487.97	0.637
488.17	0.635
488.37	0.634
488.57	0.634
488.77	0.634
488.97	0.633
489.18	0.632
489.38	0.635
489.58	0.635
489.78	0.635
489.98	0.635
490.18	0.635
490.38	0.636
490.58	0.634
490.78	0.636
490.98	0.637
491.19	0.638
491.39	0.637
491.59	0.636
491.79	0.639
491.99	0.639
492.19	0.639
492.39	0.641
492.59	0.641
492.79	0.643
492.99	0.643
493.20	0.643
493.40	0.643
493.60	0.645
493.80	0.644
494.00	0.641
494.20	0.642
494.40	0.642
494.60	0.640
494.80	0.644
495.00	0.643
495.20	0.641
495.40	0.640
495.61	0.642
495.81	0.641
496.01	0.644
496.21	0.645
496.41	0.643
496.61	0.644
496.81	0.643
497.01	0.638
497.21	0.637
497.41	0.638
497.61	0.638
497.81	0.636
498.01	0.636
498.21	0.634
498.41	0.632
498.61	0.632
498.82	0.634
499.02	0.635
499.22	0.636
499.42	0.636
499.62	0.637
499.82	0.638
500.02	0.640
500.22	0.638
500.42	0.640
500.62	0.641
500.82	0.641
501.02	0.639
501.22	0.639
501.42	0.638
501.62	0.640
501.82	0.640
502.02	0.640
502.22	0.639
502.42	0.641
502.62	0.639
502.82	0.639
503.02	0.639
503.22	0.639
503.42	0.637
503.63	0.637
503.83	0.635
504.03	0.634
504.23	0.632
504.43	0.632
504.63	0.633
504.83	0.633
505.03	0.632
505.23	0.634
505.43	0.636
505.63	0.636
505.83	0.636
506.03	0.638
506.23	0.639
506.43	0.640
506.63	0.639
506.83	0.637
507.03	0.639
507.23	0.639
507.43	0.636
507.63	0.636
507.83	0.636
508.03	0.637
508.23	0.636
508.43	0.635
508.63	0.637
508.83	0.638
509.03	0.640
509.23	0.638
509.43	0.639
509.63	0.640
509.83	0.639
510.03	0.642
510.23	0.644
510.43	0.644
510.63	0.644
510.83	0.644
511.03	0.645
511.23	0.643
511.43	0.642
511.63	0.645
511.83	0.646
512.03	0.646
512.22	0.643
512.42	0.642
512.62	0.642
512.82	0.642
513.02	0.641
513.22	0.641
513.42	0.642
513.62	0.644
513.82	0.642
514.02	0.642
514.22	0.643
514.42	0.644
514.62	0.644
514.82	0.644
515.02	0.647
515.22	0.650
515.42	0.649
515.62	0.652
515.82	0.650
516.02	0.651
516.22	0.652
516.42	0.653
516.62	0.654
516.82	0.655
517.01	0.654
517.21	0.652
517.41	0.656
517.61	0.656
517.81	0.652
518.01	0.652
518.21	0.652
518.41	0.650
518.61	0.649
518.81	0.650
519.01	0.651
519.21	0.651
519.41	0.651
519.61	0.645
519.81	0.647
520.00	0.647
520.20	0.648
520.40	0.651
520.60	0.652
520.80	0.650
521.00	0.650
521.20	0.651
521.40	0.655
521.60	0.656
521.80	0.656
522.00	0.656
522.20	0.658
522.39	0.658
522.59	0.655
522.79	0.656
522.99	0.659
523.19	0.657
523.39	0.655
523.59	0.653
523.79	0.655
523.99	0.657
524.19	0.657
524.38	0.656
524.58	0.658
524.78	0.658
524.98	0.656
525.18	0.658
525.38	0.659
525.58	0.660
525.78	0.658
525.98	0.656
526.18	0.655
526.37	0.654
526.57	0.656
526.77	0.656
526.97	0.656
527.17	0.657
527.37	0.653
527.57	0.655
527.77	0.656
527.96	0.657
528.16	0.655
528.36	0.657
528.56	0.658
528.76	0.656
528.96	0.655
529.16	0.657
529.36	0.659
529.55	0.659
529.75	0.657
529.95	0.656
530.15	0.658
530.35	0.661
530.55	0.658
530.75	0.659
530.94	0.660
531.14	0.660
531.34	0.658
531.54	0.657
531.74	0.660
531.94	0.663
532.13	0.662
532.33	0.663
532.53	0.662
532.73	0.662
532.93	0.660
533.13	0.661
533.33	0.662
533.52	0.662
533.72	0.666
533.92	0.664
534.12	0.662
534.32	0.662
534.52	0.660
534.71	0.662
534.91	0.665
535.11	0.667
535.31	0.665
535.51	0.666
535.71	0.668
535.90	0.665
536.10	0.666
536.30	0.668
536.50	0.669
536.70	0.669
536.89	0.666
537.09	0.665
537.29	0.667
537.49	0.668
537.69	0.666
537.89	0.667
538.08	0.666
538.28	0.663
538.48	0.664
538.68	0.665
538.88	0.667
539.07	0.667
539.27	0.666
539.47	0.665
539.67	0.665
539.87	0.666
540.06	0.664
540.26	0.665
540.46	0.667
540.66	0.665
540.86	0.663
541.05	0.663
541.25	0.664
541.45	0.664
541.65	0.663
541.84	0.665
542.04	0.665
542.24	0.666
542.44	0.665
542.64	0.666
542.83	0.668
543.03	0.669
543.23	0.666
543.43	0.667
543.62	0.668
543.82	0.669
544.02	0.667
544.22	0.667
544.42	0.670
544.61	0.671
544.81	0.668
545.01	0.667
545.21	0.669
545.40	0.669
545.60	0.668
545.80	0.671
546.00	0.671
546.19	0.670
546.39	0.669
546.59	0.666
546.79	0.667
546.98	0.668
547.18	0.667
547.38	0.668
547.58	0.671
547.77	0.671
547.97	0.667
548.17	0.669
548.37	0.670
548.56	0.670
548.76	0.669
548.96	0.671
549.16	0.673
549.35	0.673
549.55	0.670
549.75	0.671
549.95	0.674
550.14	0.674
550.34	0.672
550.54	0.678
550.73	0.682
550.93	0.682
551.13	0.680
551.33	0.678
551.52	0.679
551.72	0.679
551.92	0.677
552.12	0.678
552.31	0.679
552.51	0.679
552.71	0.675
552.90	0.674
553.10	0.674
553.30	0.675
553.50	0.674
553.69	0.675
553.89	0.675
554.09	0.675
554.28	0.673
554.48	0.674
554.68	0.676
554.87	0.675
555.07	0.672
555.27	0.672
555.47	0.674
555.66	0.674
555.86	0.673
556.06	0.675
556.25	0.676
556.45	0.683
556.65	0.682
556.84	0.685
557.04	0.688
557.24	0.689
557.43	0.689
557.63	0.693
557.83	0.694
558.02	0.695
558.22	0.700
558.42	0.700
558.61	0.693
558.81	0.693
559.01	0.690
559.21	0.690
559.40	0.691
559.60	0.691
559.80	0.687
559.99	0.689
560.19	0.690
560.39	0.684
560.58	0.683
560.78	0.683
560.97	0.687
561.17	0.685
561.37	0.683
561.56	0.684
561.76	0.684
561.96	0.684
562.15	0.682
562.35	0.684
562.55	0.684
562.74	0.684
562.94	0.683
563.14	0.680
563.33	0.681
563.53	0.680
563.73	0.678
563.92	0.680
564.12	0.681
564.31	0.683
564.51	0.681
564.71	0.683
564.90	0.685
565.10	0.686
565.30	0.689
565.49	0.690
565.69	0.693
565.89	0.693
566.08	0.691
566.28	0.693
566.47	0.694
566.67	0.693
566.87	0.691
567.06	0.693
567.26	0.700
567.46	0.696
567.65	0.695
567.85	0.697
568.04	0.700
568.24	0.699
568.44	0.696
568.63	0.695
568.83	0.696
569.02	0.695
569.22	0.690
569.42	0.686
569.61	0.688
569.81	0.687
570.00	0.685
570.20	0.686
570.40	0.687
570.59	0.687
570.79	0.685
570.98	0.683
571.18	0.684
571.38	0.685
571.57	0.682
571.77	0.681
571.96	0.683
572.16	0.681
572.35	0.676
572.55	0.677
572.75	0.675
572.94	0.675
573.14	0.673
573.33	0.673
573.53	0.673
573.73	0.673
573.92	0.670
574.12	0.669
574.31	0.671
574.51	0.672
574.70	0.669
574.90	0.671
575.09	0.673
575.29	0.673
575.49	0.671
575.68	0.671
575.88	0.672
576.07	0.673
576.27	0.671
576.46	0.669
576.66	0.668
576.86	0.667
577.05	0.665
577.25	0.663
577.44	0.665
577.64	0.665
577.83	0.663
578.03	0.665
578.22	0.664
578.42	0.664
578.61	0.663
578.81	0.664
579.00	0.664
579.20	0.664
579.40	0.663
579.59	0.661
579.79	0.661
579.98	0.661
580.18	0.660
580.37	0.660
580.57	0.662
580.76	0.665
580.96	0.664
581.15	0.665
581.35	0.667
581.54	0.667
581.74	0.667
581.93	0.668
582.13	0.668
582.32	0.666
582.52	0.664
582.71	0.663
582.91	0.660
583.10	0.659
583.30	0.658
583.49	0.657
583.69	0.661
583.88	0.662
584.08	0.662
584.27	0.665
584.47	0.668
584.66	0.669
584.86	0.669
585.05	0.671
585.25	0.673
585.44	0.673
585.64	0.672
585.83	0.668
586.03	0.667
586.22	0.665
586.42	0.661
586.61	0.663
586.81	0.664
587.00	0.663
587.20	0.661
587.39	0.661
587.59	0.662
587.78	0.663
587.98	0.664
588.17	0.665
588.37	0.667
588.56	0.669
588.76	0.665
588.95	0.666
589.15	0.670
589.34	0.673
589.54	0.672
589.73	0.673
589.92	0.676
590.12	0.676
590.31	0.674
590.51	0.680
590.70	0.682
590.90	0.683
591.09	0.681
591.29	0.679
591.48	0.679
591.68	0.679
591.87	0.678
592.06	0.677
592.26	0.679
592.45	0.678
592.65	0.672
592.84	0.671
593.04	0.673
593.23	0.674
593.43	0.672
593.62	0.671
593.81	0.672
594.01	0.671
594.20	0.669
594.40	0.668
594.59	0.670
594.79	0.671
594.98	0.670
595.17	0.670
595.37	0.671
595.56	0.673
595.76	0.673
595.95	0.674
596.14	0.677
596.34	0.679
596.53	0.677
596.73	0.679
596.92	0.680
597.12	0.683
597.31	0.682
597.50	0.682
597.70	0.684
597.89	0.683
598.09	0.679
598.28	0.681
598.47	0.683
598.67	0.682
598.86	0.678
599.06	0.679
599.25	0.679
599.44	0.677
599.64	0.675
599.83	0.671
600.03	0.674
600.22	0.675
600.41	0.675
600.61	0.672
600.80	0.675
601.00	0.675
601.19	0.672
601.38	0.670
601.58	0.672
601.77	0.673
601.96	0.676
602.16	0.676
602.35	0.685
602.55	0.683
602.74	0.684
602.93	0.685
603.13	0.690
603.32	0.691
603.51	0.692
603.71	0.695
603.90	0.696
604.09	0.696
604.29	0.694
604.48	0.688
604.68	0.689
604.87	0.687
605.06	0.684
605.26	0.681
605.45	0.682
605.64	0.681
605.84	0.677
606.03	0.676
606.22	0.675
606.42	0.674
606.61	0.671
606.80	0.671
607.00	0.672
607.19	0.672
607.38	0.671
607.58	0.672
607.77	0.674
607.96	0.674
608.16	0.673
608.35	0.677
608.54	0.679
608.74	0.682
608.93	0.686
609.12	0.690
609.32	0.692
609.51	0.695
609.70	0.695
609.90	0.697
610.09	0.701
610.28	0.706
610.48	0.701
610.67	0.703
610.86	0.703
611.06	0.698
611.25	0.696
611.44	0.696
611.64	0.696
611.83	0.698
612.02	0.696
612.21	0.695
612.41	0.693
612.60	0.692
612.79	0.688
612.99	0.689
613.18	0.691
613.37	0.689
613.57	0.686
613.76	0.688
613.95	0.685
614.14	0.684
614.34	0.681
614.53	0.681
614.72	0.684
614.92	0.684
615.11	0.680
615.30	0.677
615.49	0.678
615.69	0.680
615.88	0.677
616.07	0.677
616.26	0.679
616.46	0.680
616.65	0.677
616.84	0.676
617.04	0.678
617.23	0.681
617.42	0.682
617.61	0.686
617.81	0.686
618.00	0.688
618.19	0.687
618.38	0.691
618.58	0.695
618.77	0.696
618.96	0.696
619.15	0.698
619.35	0.699
619.54	0.700
619.73	0.696
619.92	0.699
620.12	0.704
620.31	0.704
620.50	0.699
620.69	0.699
620.89	0.701
621.08	0.701
621.27	0.702
621.46	0.700
621.66	0.704
621.85	0.703
622.04	0.700
622.23	0.701
622.43	0.701
622.62	0.702
622.81	0.701
623.00	0.701
623.19	0.703
623.39	0.702
623.58	0.699
623.77	0.697
623.96	0.700
624.16	0.699
624.35	0.694
624.54	0.697
624.73	0.700
624.92	0.697
625.12	0.695
625.31	0.696
625.50	0.698
625.69	0.699
625.88	0.695
626.08	0.696
626.27	0.697
626.46	0.698
626.65	0.695
626.84	0.695
627.04	0.700
627.23	0.701
627.42	0.697
627.61	0.699
627.80	0.702
628.00	0.703
628.19	0.701
628.38	0.704
628.57	0.705
628.76	0.704
628.96	0.701
629.15	0.702
629.34	0.704
629.53	0.704
629.72	0.699
629.91	0.700
630.11	0.703
630.30	0.703
630.49	0.706
630.68	0.706
630.87	0.710
631.06	0.713
631.26	0.708
631.45	0.710
631.64	0.717
631.83	0.719
632.02	0.717
632.21	0.716
632.41	0.723
632.60	0.718
632.79	0.717
632.98	0.717
633.17	0.717
633.36	0.719
633.55	0.717
633.75	0.713
633.94	0.713
634.13	0.713
634.32	0.710
634.51	0.705
634.70	0.706
634.89	0.705
635.09	0.702
635.28	0.702
635.47	0.702
635.66	0.705
635.85	0.701
636.04	0.703
636.23	0.707
636.43	0.708
636.62	0.707
636.81	0.707
637.00	0.709
637.19	0.713
637.38	0.710
637.57	0.710
637.76	0.711
637.95	0.712
638.15	0.708
638.34	0.705
638.53	0.708
638.72	0.709
638.91	0.706
639.10	0.704
639.29	0.704
639.48	0.705
639.67	0.705
639.87	0.704
640.06	0.710
640.25	0.710
640.44	0.712
640.63	0.712
640.82	0.714
641.01	0.716
641.20	0.715
641.39	0.717
641.58	0.719
641.78	0.719
641.97	0.715
642.16	0.728
642.35	0.728
642.54	0.727
642.73	0.722
642.92	0.720
643.11	0.723
643.30	0.722
643.49	0.718
643.68	0.719
643.87	0.720
644.06	0.719
644.25	0.700
644.45	0.703
644.64	0.704
644.83	0.705
645.02	0.703
645.21	0.703
645.40	0.704
645.59	0.703
645.78	0.698
645.97	0.699
646.16	0.700
646.35	0.700
646.54	0.699
646.73	0.699
646.92	0.701
647.11	0.700
647.30	0.695
647.49	0.698
647.68	0.698
647.88	0.696
648.07	0.690
648.26	0.694
648.45	0.695
648.64	0.691
648.83	0.689
649.02	0.691
649.21	0.701
649.40	0.700
649.59	0.696
649.78	0.697
649.97	0.711
650.16	0.710
650.35	0.705
650.54	0.707
650.73	0.715
650.92	0.711
651.11	0.705
651.30	0.702
651.49	0.706
651.68	0.706
651.87	0.704
652.06	0.694
652.25	0.697
652.44	0.700
652.63	0.700
652.82	0.702
653.01	0.703
653.20	0.702
653.39	0.692
653.58	0.689
653.77	0.688
653.96	0.684
654.15	0.676
654.34	0.674
654.53	0.669
654.72	0.662
654.91	0.652
655.10	0.648
655.29	0.645
655.48	0.643
655.67	0.637
655.86	0.635
656.05	0.633
656.24	0.632
656.43	0.627
656.62	0.626
656.81	0.626
657.00	0.621
657.19	0.618
657.38	0.617
657.57	0.615
657.76	0.617
657.95	0.614
658.14	0.618
658.33	0.620
658.51	0.623
658.70	0.623
658.89	0.625
659.08	0.635
659.27	0.644
659.46	0.645
659.65	0.651
659.84	0.654
660.03	0.658
660.22	0.659
660.41	0.663
660.60	0.663
660.79	0.664
660.98	0.670
661.17	0.669
661.36	0.667
661.55	0.668
661.74	0.666
661.92	0.669
662.11	0.671
662.30	0.669
662.49	0.663
662.68	0.663
662.87	0.666
663.06	0.660
663.25	0.662
663.44	0.663
663.63	0.664
663.82	0.664
664.01	0.659
664.20	0.659
664.38	0.661
664.57	0.662
664.76	0.661
664.95	0.661
665.14	0.665
665.33	0.659
665.52	0.667
665.71	0.671
665.90	0.670
666.09	0.671
666.28	0.669
666.46	0.667
666.65	0.667
666.84	0.666
667.03	0.661
667.22	0.659
667.41	0.661
667.60	0.651
667.79	0.644
667.98	0.646
668.16	0.646
668.35	0.646
668.54	0.643
668.73	0.644
668.92	0.645
669.11	0.644
669.30	0.639
669.49	0.636
669.67	0.638
669.86	0.640
670.05	0.638
670.24	0.635
670.43	0.633
670.62	0.632
670.81	0.626
671.00	0.627
671.18	0.626
671.37	0.626
671.56	0.624
671.75	0.623
671.94	0.619
672.13	0.616
672.32	0.612
672.50	0.612
672.69	0.611
672.88	0.612
673.07	0.608
673.26	0.610
673.45	0.611
673.63	0.610
673.82	0.607
674.01	0.609
674.20	0.608
674.39	0.608
674.58	0.608
674.76	0.608
674.95	0.607
675.14	0.607
675.33	0.603
675.52	0.602
675.71	0.601
675.89	0.601
676.08	0.597
676.27	0.597
676.46	0.597
676.65	0.596
676.84	0.596
677.02	0.598
677.21	0.599
677.40	0.598
677.59	0.596
677.78	0.597
677.96	0.600
678.15	0.599
678.34	0.597
678.53	0.598
678.72	0.598
678.90	0.595
679.09	0.590
679.28	0.587
679.47	0.588
679.66	0.588
679.84	0.584
680.03	0.582
680.22	0.580
680.41	0.581
680.60	0.578
680.78	0.577
680.97	0.579
681.16	0.580
681.35	0.579
681.53	0.577
681.72	0.578
681.91	0.580
682.10	0.579
682.29	0.582
682.47	0.580
682.66	0.577
682.85	0.576
683.04	0.574
683.22	0.574
683.41	0.575
683.60	0.574
683.79	0.574
683.97	0.574
684.16	0.572
684.35	0.568
684.54	0.570
684.72	0.571
684.91	0.571
685.10	0.570
685.29	0.571
685.47	0.568
685.66	0.567
685.85	0.564
686.04	0.563
686.22	0.565
686.41	0.568
686.60	0.565
686.79	0.568
686.97	0.569
687.16	0.570
687.35	0.568
687.54	0.571
687.72	0.575
687.91	0.575
688.10	0.578
688.29	0.577
688.47	0.576
688.66	0.576
688.85	0.572
689.03	0.570
689.22	0.574
689.41	0.575
689.60	0.571
689.78	0.569
689.97	0.568
690.16	0.565
690.34	0.562
690.53	0.561
690.72	0.561
690.91	0.559
691.09	0.557
691.28	0.552
691.47	0.550
691.65	0.549
691.84	0.546
692.03	0.545
692.21	0.542
692.40	0.542
692.59	0.539
692.77	0.538
692.96	0.539
693.15	0.539
693.34	0.537
693.52	0.536
693.71	0.536
693.90	0.538
694.08	0.538
694.27	0.540
694.46	0.549
694.64	0.550
694.83	0.550
695.02	0.549
695.20	0.549
695.39	0.549
695.58	0.549
695.76	0.550
695.95	0.548
696.14	0.547
696.32	0.545
696.51	0.536
696.70	0.535
696.88	0.536
697.07	0.536
697.26	0.537
697.44	0.538
697.63	0.536
697.81	0.534
698.00	0.535
698.19	0.534
698.37	0.534
698.56	0.534
698.75	0.533
698.93	0.533
699.12	0.532
699.31	0.531
699.49	0.531
699.68	0.531
699.87	0.534
700.05	0.534
700.24	0.533
700.42	0.535
700.61	0.535
700.80	0.533
700.98	0.534
701.17	0.535
701.36	0.534
701.54	0.533
701.73	0.534
701.91	0.532
702.10	0.532
702.29	0.530
702.47	0.528
702.66	0.529
702.84	0.530
703.03	0.527
703.22	0.529
703.40	0.528
703.59	0.529
703.77	0.529
703.96	0.529
704.15	0.530
704.33	0.530
704.52	0.530
704.70	0.529
704.89	0.530
705.08	0.529
705.26	0.525
705.45	0.525
705.63	0.524
705.82	0.522
706.00	0.520
706.19	0.519
706.38	0.519
706.56	0.519
706.75	0.517
706.93	0.515
707.12	0.517
707.30	0.517
707.49	0.515
707.68	0.513
707.86	0.512
708.05	0.512
708.23	0.510
708.42	0.510
708.60	0.512
708.79	0.512
708.98	0.511
709.16	0.510
709.35	0.512
709.53	0.516
709.72	0.514
709.90	0.516
710.09	0.517
710.27	0.519
710.46	0.522
710.64	0.521
710.83	0.523
711.02	0.525
711.20	0.524
711.39	0.522
711.57	0.520
711.76	0.521
711.94	0.519
712.13	0.520
712.31	0.520
712.50	0.516
712.68	0.514
712.87	0.515
713.05	0.515
713.24	0.515
713.42	0.515
713.61	0.515
713.79	0.516
713.98	0.517
714.16	0.518
714.35	0.518
714.54	0.519
714.72	0.518
714.91	0.516
715.09	0.522
715.28	0.525
715.46	0.525
715.65	0.523
715.83	0.523
716.02	0.526
716.20	0.523
716.39	0.522
716.57	0.523
716.76	0.525
716.94	0.525
717.12	0.518
717.31	0.519
717.49	0.521
717.68	0.523
717.86	0.522
718.05	0.524
718.23	0.525
718.42	0.527
718.60	0.528
718.79	0.536
718.97	0.539
719.16	0.539
719.34	0.537
719.53	0.536
719.71	0.535
719.90	0.536
720.08	0.533
720.27	0.533
720.45	0.533
720.63	0.531
720.82	0.525
721.00	0.527
721.19	0.530
721.37	0.529
721.56	0.529
721.74	0.532
721.93	0.541
722.11	0.546
722.30	0.546
722.48	0.551
722.66	0.553
722.85	0.552
723.03	0.553
723.22	0.552
723.40	0.554
723.59	0.555
723.77	0.558
723.95	0.552
724.14	0.554
724.32	0.556
724.51	0.555
724.69	0.556
724.88	0.557
725.06	0.555
725.24	0.556
725.43	0.557
725.61	0.560
725.80	0.555
725.98	0.553
726.16	0.550
726.35	0.554
726.53	0.553
726.72	0.553
726.90	0.562
727.09	0.563
727.27	0.569
727.45	0.566
727.64	0.575
727.82	0.582
728.01	0.586
728.19	0.585
728.37	0.589
728.56	0.594
728.74	0.598
728.92	0.588
729.11	0.589
729.29	0.587
729.48	0.589
729.66	0.579
729.84	0.578
730.03	0.581
730.21	0.582
730.40	0.574
730.58	0.574
730.76	0.573
730.95	0.577
731.13	0.577
731.31	0.592
731.50	0.600
731.68	0.604
731.86	0.601
732.05	0.614
732.23	0.617
732.42	0.622
732.60	0.625
732.78	0.631
732.97	0.646
733.15	0.653
733.33	0.640
733.52	0.648
733.70	0.659
733.88	0.667
734.07	0.656
734.25	0.679
734.43	0.685
734.62	0.688
734.80	0.683
734.98	0.675
735.17	0.682
735.35	0.688
735.53	0.676
735.72	0.680
735.90	0.699
736.08	0.715
736.27	0.695
736.45	0.705
736.63	0.714
736.82	0.723
737.00	0.723
737.18	0.731
737.37	0.759
737.55	0.780
737.73	0.774
737.92	0.777
738.10	0.773
738.28	0.789
738.46	0.780
738.65	0.791
738.83	0.809
739.01	0.856
739.20	0.849
739.38	0.834
739.56	0.826
739.75	0.833
739.93	0.802
740.11	0.824
740.29	0.824
740.48	0.829
740.66	0.815
740.84	0.812
741.03	0.779
741.21	0.791
741.39	0.775
741.57	0.788
741.76	0.801
741.94	0.807
742.12	0.777
742.31	0.782
742.49	0.800
742.67	0.820
742.85	0.833
743.04	0.840
743.22	0.845
743.40	0.894
743.58	0.877
743.77	0.893
743.95	0.921
744.13	0.970
744.31	0.955
744.50	0.942
744.68	0.940
744.86	0.915
745.04	0.927
745.23	0.981
745.41	0.962
745.59	0.962
745.77	0.927
745.96	0.919
746.14	0.922
746.32	0.921
746.50	0.915
746.69	0.902
746.87	0.908
747.05	0.890
747.23	0.828
747.42	0.815
747.60	0.839
747.78	0.844
747.96	0.874
748.14	0.837
748.33	0.863
748.51	0.858
748.69	0.849
748.87	0.873
749.06	0.868
749.24	0.864
749.42	0.853
749.60	0.840
749.78	0.849
749.97	0.805
750.15	0.796
750.33	0.796
750.51	0.815
750.69	0.822
750.88	0.827
751.06	0.838
751.24	0.859
751.42	0.854
751.60	0.844
751.79	0.900
751.97	0.939
752.15	0.938
752.33	0.910
752.51	0.968
752.69	0.978
752.88	0.955
753.06	0.996
753.24	0.976
753.42	0.998
753.60	1.141
753.78	1.027
753.97	1.040
754.15	1.057
754.33	1.087
754.51	0.981
754.69	0.963
754.87	0.986
755.06	0.925
755.24	0.930
755.42	0.941
755.60	0.852
755.78	0.861
755.96	0.817
756.15	0.812
756.33	0.811
756.51	0.829
756.69	0.823
756.87	0.794
757.05	0.810
757.23	0.796
757.42	0.766
757.60	0.765
757.78	0.756
757.96	0.752
758.14	0.738
758.32	0.725
758.50	0.739
758.69	0.737
758.87	0.728
759.05	0.730
759.23	0.735
759.41	0.737
759.59	0.731
759.77	0.747
759.95	0.772
760.13	0.817
760.32	0.818
760.50	0.809
760.68	0.827
760.86	0.829
761.04	0.807
761.22	0.814
761.40	0.855
761.58	0.856
761.76	0.836
761.95	0.820
762.13	0.780
762.31	0.783
762.49	0.756
762.67	0.775
762.85	0.783
763.03	0.777
763.21	0.761
763.39	0.745
763.57	0.744
763.75	0.739
763.94	0.727
764.12	0.728
764.30	0.745
764.48	0.747
764.66	0.714
764.84	0.712
765.02	0.747
765.20	0.755
765.38	0.738
765.56	0.745
765.74	0.782
765.92	0.782
766.10	0.788
766.28	0.784
766.46	0.811
766.65	0.812
766.83	0.800
767.01	0.784
767.19	0.786
767.37	0.784
767.55	0.772
767.73	0.750
767.91	0.749
768.09	0.737
768.27	0.726
768.45	0.718
768.63	0.723
768.81	0.726
768.99	0.704
769.17	0.726
769.35	0.737
769.53	0.736
769.71	0.723
769.89	0.731
770.07	0.735
770.25	0.721
770.43	0.702
770.61	0.719
770.79	0.727
770.97	0.735
771.15	0.709
771.33	0.713
771.51	0.713
771.69	0.721
771.87	0.729
772.05	0.734
772.24	0.740
772.42	0.746
772.60	0.730
772.78	0.781
772.96	0.805
773.14	0.800
773.32	0.781
773.49	0.787
773.67	0.784
773.85	0.766
774.03	0.755
774.21	0.785
774.39	0.792
774.57	0.813
774.75	0.750
774.93	0.745
775.11	0.762
775.29	0.770
775.47	0.771
775.65	0.779
775.83	0.795
776.01	0.817
776.19	0.779
776.37	0.780
776.55	0.777
776.73	0.775
776.91	0.773
777.09	0.758
777.27	0.754
777.45	0.745
777.63	0.726
777.81	0.721
777.99	0.709
778.17	0.708
778.35	0.689
778.53	0.679
778.71	0.683
778.89	0.671
779.07	0.664
779.24	0.668
779.42	0.668
779.60	0.687
779.78	0.685
779.96	0.687
780.14	0.691
780.32	0.710
780.50	0.695
780.68	0.694
780.86	0.684
781.04	0.700
781.22	0.705
781.40	0.715
781.58	0.703
781.75	0.696
781.93	0.683
782.11	0.684
782.29	0.670
782.47	0.669
782.65	0.659
782.83	0.685
783.01	0.678
783.19	0.673
783.37	0.662
783.55	0.665
783.72	0.683
783.90	0.691
784.08	0.685
784.26	0.698
784.44	0.715
784.62	0.719
784.80	0.690
784.98	0.697
785.16	0.700
785.33	0.711
785.51	0.701
785.69	0.686
785.87	0.687
786.05	0.698
786.23	0.695
786.41	0.694
786.59	0.698
786.77	0.700
786.94	0.687
787.12	0.691
787.30	0.692
787.48	0.687
787.66	0.679
787.84	0.679
788.02	0.670
788.19	0.667
788.37	0.655
788.55	0.657
788.73	0.656
788.91	0.652
789.09	0.639
789.27	0.627
789.44	0.640
789.62	0.643
789.80	0.652
789.98	0.674
790.16	0.662
790.34	0.658
790.51	0.647
790.69	0.664
790.87	0.669
791.05	0.666
791.23	0.665
791.41	0.664
791.58	0.671
791.76	0.651
791.94	0.625
792.12	0.632
792.30	0.634
792.48	0.634
792.65	0.629
792.83	0.636
793.01	0.640
793.19	0.635
793.37	0.620
793.54	0.616
793.72	0.625
793.90	0.624
794.08	0.614
794.26	0.614
794.43	0.620
794.61	0.605
794.79	0.595
794.97	0.594
795.15	0.599
795.32	0.605
795.50	0.598
795.68	0.592
795.86	0.595
796.04	0.597
796.21	0.592
796.39	0.591
796.57	0.603
796.75	0.609
796.92	0.611
797.10	0.615
797.28	0.615
797.46	0.617
797.64	0.620
797.81	0.626
797.99	0.632
798.17	0.636
798.35	0.632
798.52	0.635
798.70	0.630
798.88	0.637
799.06	0.637
799.23	0.639
799.41	0.647
799.59	0.640
799.77	0.631
799.94	0.636
800.12	0.643
800.30	0.658
800.48	0.657
800.65	0.657
800.83	0.646
801.01	0.638
801.19	0.639
801.36	0.637
801.54	0.639
801.72	0.648
801.90	0.639
802.07	0.633
802.25	0.619
802.43	0.606
802.60	0.603
802.78	0.612
802.96	0.615
803.14	0.609
803.31	0.608
803.49	0.607
803.67	0.602
803.84	0.606
804.02	0.600
804.20	0.602
804.38	0.606
804.55	0.606
804.73	0.593
804.91	0.595
805.08	0.607
805.26	0.603
805.44	0.665
805.61	0.670
805.79	0.669
805.97	0.669
806.15	0.662
806.32	0.659
806.50	0.664
806.68	0.664
806.85	0.656
807.03	0.645
807.21	0.659
807.38	0.595
807.56	0.585
807.74	0.594
807.91	0.598
808.09	0.601
808.27	0.618
808.44	0.641
808.62	0.649
808.80	0.653
808.97	0.651
809.15	0.647
809.33	0.662
809.50	0.670
809.68	0.658
809.86	0.667
810.03	0.694
810.21	0.677
810.39	0.661
810.56	0.666
810.74	0.686
810.91	0.750
811.09	0.740
811.27	0.760
811.44	0.764
811.62	0.766
811.80	0.753
811.97	0.727
812.15	0.725
812.33	0.720
812.50	0.708
812.68	0.696
812.85	0.646
813.03	0.650
813.21	0.621
813.38	0.616
813.56	0.617
813.74	0.625
813.91	0.633
814.09	0.658
814.26	0.651
814.44	0.653
814.62	0.645
814.79	0.646
814.97	0.647
815.14	0.649
815.32	0.656
815.50	0.673
815.67	0.673
815.85	0.665
816.02	0.657
816.20	0.663
816.38	0.675
816.55	0.680
816.73	0.681
816.90	0.690
817.08	0.717
817.26	0.719
817.43	0.701
817.61	0.725
817.78	0.742
817.96	0.724
818.13	0.717
818.31	0.717
818.49	0.729
818.66	0.719
818.84	0.708
819.01	0.689
819.19	0.690
819.36	0.691
819.54	0.664
819.71	0.699
819.89	0.710
820.07	0.722
820.24	0.718
820.42	0.718
820.59	0.737
820.77	0.758
820.94	0.752
821.12	0.769
821.29	0.782
821.47	0.782
821.64	0.728
821.82	0.738
822.00	0.736
822.17	0.735
822.35	0.729
822.52	0.729
822.70	0.720
822.87	0.728
823.05	0.712
823.22	0.719
823.40	0.744
823.57	0.765
823.75	0.751
823.92	0.771
824.10	0.788
824.27	0.824
824.45	0.817
824.62	0.872
824.80	0.883
824.97	0.896
825.15	0.892
825.32	0.904
825.50	0.901
825.67	0.911
825.85	0.888
826.02	0.896
826.20	0.911
826.37	1.016
826.55	0.945
826.72	1.097
826.90	1.151
827.07	1.191
827.25	1.150
827.42	1.256
827.60	1.357
827.77	1.486
827.95	1.504
828.12	1.590
828.30	1.315
828.47	1.411
828.65	1.134
828.82	1.165
829.00	1.205
829.17	1.258
829.34	1.272
829.52	1.278
829.69	-0.000
829.87	-0.000
830.04	-0.000
830.22	-0.000
830.39	-0.000
830.57	-0.000
830.74	-0.000
830.92	-0.000
831.09	-0.000
831.26	-0.000
831.44	-0.000
831.61	-0.000
831.79	-0.000
831.96	-0.000
832.14	-0.000
832.31	-0.000
832.49	-0.000
832.66	-0.000
832.83	-0.000
833.01	-0.000
833.18	-0.000
833.36	-0.000
833.53	-0.000
833.70	-0.000
833.88	-0.000
834.05	-0.000
834.23	-0.000
834.40	-0.000
834.58	-0.000
834.75	-0.000
834.92	-0.000
835.10	-0.000
835.27	-0.000
835.45	-0.000
835.62	-0.000
835.79	-0.000
835.97	-0.000
836.14	-0.000
836.32	-0.000
836.49	-0.000
836.66	-0.000
836.84	-0.000
837.01	-0.000
837.18	-0.000
837.36	-0.000
837.53	-0.000
837.71	-0.000
837.88	-0.000
838.05	-0.000
838.23	-0.000
838.40	-0.000
838.58	-0.000
838.75	-0.000
838.92	-0.000
839.10	-0.000
839.27	-0.000
839.44	-0.000
839.62	-0.000
839.79	-0.000
839.96	-0.000
840.14	-0.000
840.31	-0.000
840.48	-0.000
840.66	-0.000
840.83	-0.000
841.01	-0.000
841.18	-0.000
841.35	-0.000
841.53	-0.000
841.70	-0.000
841.87	-0.000
842.05	-0.000
842.22	-0.000
842.39	-0.000
842.57	-0.000
842.74	-0.000
842.91	-0.000
843.09	-0.000
843.26	-0.000
843.43	-0.000
843.60	-0.000
843.78	-0.000
843.95	-0.000
844.12	-0.000
844.30	-0.000
844.47	-0.000
844.64	-0.000
844.82	-0.000
844.99	-0.000
845.16	-0.000
845.34	-0.000
845.51	-0.000
845.68	-0.000
845.85	-0.000
846.03	-0.000
846.20	-0.000
846.37	-0.000
846.55	-0.000
846.72	-0.000
846.89	-0.000
847.06	-0.000
847.24	-0.000
847.41	-0.000
847.58	-0.000
847.76	-0.000
847.93	-0.000
848.10	-0.000
848.27	-0.000
848.45	-0.000
848.62	-0.000
848.79	-0.000
848.97	-0.000
849.14	-0.000
849.31	-0.000
849.48	-0.000
849.66	-0.000
849.83	-0.000
850.00	-0.000
850.17	-0.000
850.35	-0.000
850.52	-0.000
850.69	-0.000
850.86	-0.000
851.04	-0.000
851.21	-0.000
851.38	-0.000
851.55	-0.000
851.72	-0.000
851.90	-0.000
852.07	-0.000
852.24	-0.000
852.41	-0.000
852.59	-0.000
852.76	-0.000
852.93	-0.000
853.10	-0.000
853.28	-0.000
853.45	-0.000
853.62	-0.000
853.79	-0.000
853.96	-0.000
854.14	-0.000
854.31	-0.000
854.48	-0.000
854.65	-0.000
854.82	-0.000
855.00	-0.000
855.17	-0.000
855.34	-0.000
855.51	-0.000
855.68	-0.000
855.86	-0.000
856.03	-0.000
856.20	-0.000
856.37	-0.000
856.54	-0.000
856.72	-0.000
856.89	-0.000
857.06	-0.000
857.23	-0.000
857.40	-0.000
857.57	-0.000
857.75	-0.000
857.92	-0.000
858.09	-0.000
858.26	-0.000
858.43	-0.000
858.60	-0.000
858.78	-0.000
858.95	-0.000
859.12	-0.000
859.29	-0.000
859.46	-0.000
859.63	-0.000
859.81	-0.000
859.98	-0.000
860.15	-0.000
860.32	-0.000
860.49	-0.000
860.66	-0.000
860.83	-0.000
861.01	-0.000
861.18	-0.000
861.35	-0.000
861.52	-0.000
861.69	-0.000
861.86	-0.000
862.03	-0.000
862.21	-0.000
862.38	-0.000
862.55	-0.000
862.72	-0.000
862.89	-0.000
863.06	-0.000
863.23	-0.000
863.40	-0.000
863.58	-0.000
863.75	-0.000
863.92	-0.000
864.09	-0.000
864.26	-0.000
864.43	-0.000
864.60	-0.000
864.77	-0.000
864.94	-0.000
865.11	-0.000
865.29	-0.000
865.46	-0.000
865.63	-0.000
865.80	-0.000
865.97	-0.000
866.14	-0.000
866.31	-0.000
866.48	-0.000
866.65	-0.000
866.82	-0.000
866.99	-0.000
867.16	-0.000
867.34	-0.000
867.51	-0.000
867.68	-0.000
867.85	-0.000
868.02	-0.000
868.19	-0.000
868.36	-0.000
868.53	-0.000
868.70	-0.000
868.87	-0.000
869.04	-0.000
869.21	-0.000
869.38	-0.000
869.55	-0.000
869.72	-0.000
869.89	-0.000
870.06	-0.000
870.24	-0.000
870.41	-0.000
870.58	-0.000
870.75	-0.000
870.92	-0.000
871.09	-0.000
871.26	-0.000
871.43	-0.000
871.60	-0.000
871.77	-0.000
871.94	-0.000
872.11	-0.000
872.28	-0.000
872.45	-0.000
872.62	-0.000
872.79	-0.000
872.96	-0.000
873.13	-0.000
873.30	-0.000
873.47	-0.000
873.64	-0.000
873.81	-0.000
873.98	-0.000
874.15	-0.000
874.32	-0.000
874.49	-0.000
874.66	-0.000
874.83	-0.000
875.00	-0.000
875.17	-0.000
875.34	-0.000
875.51	-0.000
875.68	-0.000
875.85	-0.000
876.02	-0.000
876.19	-0.000
876.36	-0.000
876.53	-0.000
876.70	-0.000
876.87	-0.000
877.04	-0.000
877.21	-0.000
877.38	-0.000
877.55	-0.000
877.72	-0.000
877.89	-0.000
878.06	-0.000
878.23	-0.000
878.39	-0.000
878.56	-0.000
878.73	-0.000
878.90	-0.000
879.07	-0.000
879.24	-0.000
879.41	-0.000
879.58	-0.000
879.75	-0.000
879.92	-0.000
880.09	-0.000
880.26	-0.000
880.43	-0.000
880.60	-0.000
880.77	-0.000
880.94	-0.000
881.11	-0.000
881.27	-0.000
881.44	-0.000
881.61	-0.000
881.78	-0.000
881.95	-0.000
882.12	-0.000
882.29	-0.000
882.46	-0.000
882.63	-0.000
882.80	-0.000
882.97	-0.000
883.14	-0.000
883.30	-0.000
883.47	-0.000
883.64	-0.000
883.81	-0.000
883.98	-0.000
884.15	-0.000
884.32	-0.000
884.49	-0.000
884.66	-0.000
884.82	-0.000
884.99	-0.000
885.16	-0.000
885.33	-0.000
885.50	-0.000
885.67	-0.000
885.84	-0.000
886.01	-0.000
886.17	-0.000
886.34	-0.000
886.51	-0.000
886.68	-0.000
886.85	-0.000
887.02	-0.000
887.19	-0.000
887.36	-0.000
887.52	-0.000
887.69	-0.000
887.86	-0.000
888.03	-0.000
888.20	-0.000
888.37	-0.000
888.54	-0.000
888.70	-0.000
888.87	-0.000
889.04	-0.000
889.21	-0.000
889.38	-0.000
889.55	-0.000
889.71	-0.000
889.88	-0.000
890.05	-0.000
890.22	-0.000
890.39	-0.000
>>>>>End Processed Spectral Data<<<<<
