SpectraSuite Data File
++++++++++++++++++++++++++++++++++++
Date: Fri Jun 19 13:00:18 CEST 2015
User: introlabs
Dark Spectrum Present: Yes
Reference Spectrum Present: Yes
Number of Sampled Component Spectra: 1
Spectrometers: USB4H08886
Integration Time (usec): 745692 (USB4H08886)
Spectra Averaged: 5 (USB4H08886)
Boxcar Smoothing: 5 (USB4H08886)
Correct for Electrical Dark: Yes (USB4H08886)
Strobe/Lamp Enabled: No (USB4H08886)
Correct for Detector Non-linearity: Yes (USB4H08886)
Correct for Stray Light: Yes (USB4H08886)
Number of Pixels in Processed Spectrum: 3648
>>>>>Begin Processed Spectral Data<<<<<
178.14	-0.000
178.36	-0.000
178.57	-0.000
178.79	-0.000
179.01	-0.000
179.22	-0.000
179.44	-0.000
179.65	-0.000
179.87	-0.000
180.08	-0.000
180.30	-0.000
180.52	-0.000
180.73	-0.000
180.95	-0.000
181.16	-0.000
181.38	-0.000
181.59	-0.000
181.81	-0.000
182.03	-0.000
182.24	-0.000
182.46	-0.000
182.67	-0.000
182.89	-0.000
183.10	-0.000
183.32	-0.000
183.54	-0.000
183.75	-0.000
183.97	-0.000
184.18	-0.000
184.40	-0.000
184.61	-0.000
184.83	-0.000
185.04	-0.000
185.26	-0.000
185.48	-0.000
185.69	-0.000
185.91	-0.000
186.12	-0.000
186.34	-0.000
186.55	-0.000
186.77	-0.000
186.98	-0.000
187.20	-0.000
187.42	-0.000
187.63	-0.000
187.85	-0.000
188.06	-0.000
188.28	-0.000
188.49	-0.000
188.71	-0.000
188.92	-0.000
189.14	-0.000
189.36	-0.000
189.57	-0.000
189.79	-0.000
190.00	-0.000
190.22	-0.000
190.43	-0.000
190.65	-0.000
190.86	-0.000
191.08	-0.000
191.29	-0.000
191.51	-0.000
191.72	-0.000
191.94	-0.000
192.16	-0.000
192.37	-0.000
192.59	-0.000
192.80	-0.000
193.02	-0.000
193.23	-0.000
193.45	-0.000
193.66	-0.000
193.88	-0.000
194.09	-0.000
194.31	-0.000
194.52	-0.000
194.74	-0.000
194.95	-0.000
195.17	-0.000
195.38	-0.000
195.60	-0.000
195.81	-0.000
196.03	-0.000
196.25	-0.000
196.46	-0.000
196.68	-0.000
196.89	-0.000
197.11	-0.000
197.32	-0.000
197.54	-0.000
197.75	-0.000
197.97	-0.000
198.18	-0.000
198.40	-0.000
198.61	-0.000
198.83	-0.000
199.04	-0.000
199.26	-0.000
199.47	-0.000
199.69	-0.000
199.90	-0.000
200.12	-0.000
200.33	-0.000
200.55	-0.000
200.76	-0.000
200.98	-0.000
201.19	-0.000
201.41	-0.000
201.62	-0.000
201.84	-0.000
202.05	-0.000
202.27	-0.000
202.48	-0.000
202.70	-0.000
202.91	-0.000
203.13	-0.000
203.34	-0.000
203.56	-0.000
203.77	-0.000
203.99	-0.000
204.20	-0.000
204.42	-0.000
204.63	-0.000
204.85	-0.000
205.06	-0.000
205.28	-0.000
205.49	-0.000
205.71	-0.000
205.92	-0.000
206.14	-0.000
206.35	-0.000
206.56	-0.000
206.78	-0.000
206.99	-0.000
207.21	-0.000
207.42	-0.000
207.64	-0.000
207.85	-0.000
208.07	-0.000
208.28	-0.000
208.50	-0.000
208.71	-0.000
208.93	-0.000
209.14	-0.000
209.36	-0.000
209.57	-0.000
209.79	-0.000
210.00	-0.000
210.22	-0.000
210.43	-0.000
210.64	-0.000
210.86	-0.000
211.07	-0.000
211.29	-0.000
211.50	-0.000
211.72	-0.000
211.93	-0.000
212.15	-0.000
212.36	-0.000
212.58	-0.000
212.79	-0.000
213.01	-0.000
213.22	-0.000
213.43	-0.000
213.65	-0.000
213.86	-0.000
214.08	-0.000
214.29	-0.000
214.51	-0.000
214.72	-0.000
214.94	-0.000
215.15	-0.000
215.36	-0.000
215.58	-0.000
215.79	-0.000
216.01	-0.000
216.22	-0.000
216.44	-0.000
216.65	-0.000
216.87	-0.000
217.08	-0.000
217.29	-0.000
217.51	-0.000
217.72	-0.000
217.94	-0.000
218.15	-0.000
218.37	-0.000
218.58	-0.000
218.80	-0.000
219.01	-0.000
219.22	-0.000
219.44	-0.000
219.65	-0.000
219.87	-0.000
220.08	-0.000
220.30	-0.000
220.51	-0.000
220.72	-0.000
220.94	-0.000
221.15	-0.000
221.37	-0.000
221.58	-0.000
221.79	-0.000
222.01	-0.000
222.22	-0.000
222.44	-0.000
222.65	-0.000
222.87	-0.000
223.08	-0.000
223.29	-0.000
223.51	-0.000
223.72	-0.000
223.94	-0.000
224.15	-0.000
224.36	-0.000
224.58	-0.000
224.79	-0.000
225.01	-0.000
225.22	-0.000
225.44	-0.000
225.65	-0.000
225.86	-0.000
226.08	-0.000
226.29	-0.000
226.51	-0.000
226.72	-0.000
226.93	-0.000
227.15	-0.000
227.36	-0.000
227.58	-0.000
227.79	-0.000
228.00	-0.000
228.22	-0.000
228.43	-0.000
228.65	-0.000
228.86	-0.000
229.07	-0.000
229.29	-0.000
229.50	-0.000
229.72	-0.000
229.93	-0.000
230.14	-0.000
230.36	-0.000
230.57	-0.000
230.78	-0.000
231.00	-0.000
231.21	-0.000
231.43	-0.000
231.64	-0.000
231.85	-0.000
232.07	-0.000
232.28	-0.000
232.50	-0.000
232.71	-0.000
232.92	-0.000
233.14	-0.000
233.35	-0.000
233.56	-0.000
233.78	-0.000
233.99	-0.000
234.21	-0.000
234.42	-0.000
234.63	-0.000
234.85	-0.000
235.06	-0.000
235.27	-0.000
235.49	-0.000
235.70	-0.000
235.91	-0.000
236.13	-0.000
236.34	-0.000
236.56	-0.000
236.77	-0.000
236.98	-0.000
237.20	-0.000
237.41	-0.000
237.62	-0.000
237.84	-0.000
238.05	-0.000
238.26	-0.000
238.48	-0.000
238.69	-0.000
238.91	-0.000
239.12	-0.000
239.33	-0.000
239.55	-0.000
239.76	-0.000
239.97	-0.000
240.19	-0.000
240.40	-0.000
240.61	-0.000
240.83	-0.000
241.04	-0.000
241.25	-0.000
241.47	-0.000
241.68	-0.000
241.89	-0.000
242.11	-0.000
242.32	-0.000
242.53	-0.000
242.75	-0.000
242.96	-0.000
243.17	-0.000
243.39	-0.000
243.60	-0.000
243.81	-0.000
244.03	-0.000
244.24	-0.000
244.45	-0.000
244.67	-0.000
244.88	-0.000
245.09	-0.000
245.31	-0.000
245.52	-0.000
245.73	-0.000
245.95	-0.000
246.16	-0.000
246.37	-0.000
246.59	-0.000
246.80	-0.000
247.01	-0.000
247.23	-0.000
247.44	-0.000
247.65	-0.000
247.87	-0.000
248.08	-0.000
248.29	-0.000
248.51	-0.000
248.72	-0.000
248.93	-0.000
249.15	-0.000
249.36	-0.000
249.57	-0.000
249.78	-0.000
250.00	-0.000
250.21	-0.000
250.42	-0.000
250.64	-0.000
250.85	-0.000
251.06	-0.000
251.28	-0.000
251.49	-0.000
251.70	-0.000
251.92	-0.000
252.13	-0.000
252.34	-0.000
252.55	-0.000
252.77	-0.000
252.98	-0.000
253.19	-0.000
253.41	-0.000
253.62	-0.000
253.83	-0.000
254.05	-0.000
254.26	-0.000
254.47	-0.000
254.68	-0.000
254.90	-0.000
255.11	-0.000
255.32	-0.000
255.54	-0.000
255.75	-0.000
255.96	-0.000
256.17	-0.000
256.39	-0.000
256.60	-0.000
256.81	-0.000
257.03	-0.000
257.24	-0.000
257.45	-0.000
257.66	-0.000
257.88	-0.000
258.09	-0.000
258.30	-0.000
258.51	-0.000
258.73	-0.000
258.94	-0.000
259.15	-0.000
259.37	-0.000
259.58	-0.000
259.79	-0.000
260.00	-0.000
260.22	-0.000
260.43	-0.000
260.64	-0.000
260.85	-0.000
261.07	-0.000
261.28	-0.000
261.49	-0.000
261.71	-0.000
261.92	-0.000
262.13	-0.000
262.34	-0.000
262.56	-0.000
262.77	-0.000
262.98	-0.000
263.19	-0.000
263.41	-0.000
263.62	-0.000
263.83	-0.000
264.04	-0.000
264.26	-0.000
264.47	-0.000
264.68	-0.000
264.89	-0.000
265.11	-0.000
265.32	-0.000
265.53	-0.000
265.74	-0.000
265.96	-0.000
266.17	-0.000
266.38	-0.000
266.59	-0.000
266.81	-0.000
267.02	-0.000
267.23	-0.000
267.44	-0.000
267.65	-0.000
267.87	-0.000
268.08	-0.000
268.29	-0.000
268.50	-0.000
268.72	-0.000
268.93	-0.000
269.14	-0.000
269.35	-0.000
269.57	-0.000
269.78	-0.000
269.99	-0.000
270.20	-0.000
270.41	-0.000
270.63	-0.000
270.84	-0.000
271.05	-0.000
271.26	-0.000
271.48	-0.000
271.69	-0.000
271.90	-0.000
272.11	-0.000
272.32	-0.000
272.54	-0.000
272.75	-0.000
272.96	-0.000
273.17	-0.000
273.39	-0.000
273.60	-0.000
273.81	-0.000
274.02	-0.000
274.23	-0.000
274.45	-0.000
274.66	-0.000
274.87	-0.000
275.08	-0.000
275.29	-0.000
275.51	-0.000
275.72	-0.000
275.93	-0.000
276.14	-0.000
276.35	-0.000
276.57	-0.000
276.78	-0.000
276.99	-0.000
277.20	-0.000
277.41	-0.000
277.63	-0.000
277.84	-0.000
278.05	-0.000
278.26	-0.000
278.47	-0.000
278.69	-0.000
278.90	-0.000
279.11	-0.000
279.32	-0.000
279.53	-0.000
279.74	-0.000
279.96	-0.000
280.17	-0.000
280.38	-0.000
280.59	-0.000
280.80	-0.000
281.02	-0.000
281.23	-0.000
281.44	-0.000
281.65	-0.000
281.86	-0.000
282.07	-0.000
282.29	-0.000
282.50	-0.000
282.71	-0.000
282.92	-0.000
283.13	-0.000
283.35	-0.000
283.56	-0.000
283.77	-0.000
283.98	-0.000
284.19	-0.000
284.40	-0.000
284.62	-0.000
284.83	-0.000
285.04	-0.000
285.25	-0.000
285.46	-0.000
285.67	-0.000
285.88	-0.000
286.10	-0.000
286.31	-0.000
286.52	-0.000
286.73	-0.000
286.94	-0.000
287.15	-0.000
287.37	-0.000
287.58	-0.000
287.79	-0.000
288.00	-0.000
288.21	-0.000
288.42	-0.000
288.63	-0.000
288.85	-0.000
289.06	-0.000
289.27	-0.000
289.48	-0.000
289.69	-0.000
289.90	-0.000
290.11	-0.000
290.33	-0.000
290.54	-0.000
290.75	-0.000
290.96	-0.000
291.17	-0.000
291.38	-0.000
291.59	-0.000
291.81	-0.000
292.02	-0.000
292.23	-0.000
292.44	-0.000
292.65	-0.000
292.86	-0.000
293.07	-0.000
293.28	-0.000
293.50	-0.000
293.71	-0.000
293.92	-0.000
294.13	-0.000
294.34	-0.000
294.55	-0.000
294.76	-0.000
294.97	-0.000
295.19	-0.000
295.40	-0.000
295.61	-0.000
295.82	-0.000
296.03	-0.000
296.24	-0.000
296.45	-0.000
296.66	-0.000
296.87	-0.000
297.09	-0.000
297.30	-0.000
297.51	-0.000
297.72	2.931
297.93	-0.000
298.14	-0.000
298.35	3.273
298.56	2.754
298.77	-0.000
298.99	-0.000
299.20	-0.000
299.41	3.578
299.62	2.634
299.83	2.476
300.04	2.108
300.25	2.058
300.46	2.227
300.67	2.082
300.88	1.902
301.10	1.893
301.31	2.097
301.52	1.923
301.73	1.775
301.94	1.786
302.15	1.828
302.36	1.725
302.57	1.611
302.78	1.625
302.99	1.712
303.20	1.738
303.41	1.583
303.63	1.552
303.84	1.570
304.05	1.557
304.26	1.453
304.47	1.462
304.68	1.475
304.89	1.462
305.10	1.398
305.31	1.374
305.52	1.432
305.73	1.418
305.94	1.364
306.15	1.354
306.37	1.390
306.58	1.407
306.79	1.359
307.00	1.387
307.21	1.438
307.42	1.428
307.63	1.380
307.84	1.341
308.05	1.391
308.26	1.390
308.47	1.353
308.68	1.345
308.89	1.348
309.10	1.344
309.31	1.294
309.52	1.284
309.73	1.305
309.95	1.294
310.16	1.253
310.37	1.242
310.58	1.265
310.79	1.263
311.00	1.255
311.21	1.257
311.42	1.260
311.63	1.251
311.84	1.225
312.05	1.224
312.26	1.256
312.47	1.270
312.68	1.237
312.89	1.217
313.10	1.228
313.31	1.199
313.52	1.196
313.73	1.200
313.94	1.204
314.15	1.183
314.36	1.154
314.57	1.144
314.78	1.131
314.99	1.125
315.21	1.110
315.42	1.113
315.63	1.128
315.84	1.101
316.05	1.082
316.26	1.089
316.47	1.112
316.68	1.110
316.89	1.087
317.10	1.110
317.31	1.117
317.52	1.118
317.73	1.093
317.94	1.091
318.15	1.139
318.36	1.136
318.57	1.116
318.78	1.103
318.99	1.142
319.20	1.140
319.41	1.101
319.62	1.103
319.83	1.119
320.04	1.113
320.25	1.099
320.46	1.063
320.67	1.069
320.88	1.065
321.09	1.047
321.30	1.030
321.51	1.046
321.72	1.043
321.93	1.022
322.14	1.014
322.35	1.045
322.56	1.044
322.77	1.027
322.98	1.038
323.19	1.049
323.40	1.057
323.61	1.032
323.82	1.027
324.03	1.034
324.24	1.032
324.45	1.016
324.66	0.995
324.87	0.993
325.08	0.994
325.29	0.973
325.50	0.970
325.71	0.976
325.92	0.985
326.13	0.969
326.34	0.970
326.55	0.979
326.76	0.979
326.97	0.966
327.18	0.960
327.39	0.989
327.60	0.989
327.80	0.982
328.01	0.979
328.22	0.979
328.43	0.983
328.64	0.970
328.85	0.974
329.06	0.978
329.27	0.976
329.48	0.969
329.69	0.950
329.90	0.962
330.11	0.954
330.32	0.946
330.53	0.939
330.74	0.941
330.95	0.940
331.16	0.922
331.37	0.929
331.58	0.929
331.79	0.929
332.00	0.917
332.21	0.910
332.42	0.914
332.63	0.905
332.83	0.899
333.04	0.901
333.25	0.914
333.46	0.912
333.67	0.898
333.88	0.903
334.09	0.915
334.30	0.911
334.51	0.900
334.72	0.896
334.93	0.899
335.14	0.899
335.35	0.889
335.56	0.883
335.77	0.893
335.98	0.892
336.18	0.883
336.39	0.875
336.60	0.881
336.81	0.879
337.02	0.877
337.23	0.881
337.44	0.886
337.65	0.889
337.86	0.878
338.07	0.873
338.28	0.879
338.49	0.877
338.70	0.868
338.91	0.876
339.11	0.884
339.32	0.881
339.53	0.868
339.74	0.864
339.95	0.861
340.16	0.859
340.37	0.850
340.58	0.848
340.79	0.852
341.00	0.853
341.21	0.842
341.41	0.843
341.62	0.845
341.83	0.846
342.04	0.840
342.25	0.852
342.46	0.856
342.67	0.855
342.88	0.848
343.09	0.846
343.30	0.853
343.50	0.855
343.71	0.844
343.92	0.842
344.13	0.847
344.34	0.846
344.55	0.828
344.76	0.827
344.97	0.833
345.18	0.831
345.38	0.827
345.59	0.822
345.80	0.822
346.01	0.820
346.22	0.816
346.43	0.809
346.64	0.819
346.85	0.819
347.06	0.812
347.26	0.812
347.47	0.816
347.68	0.812
347.89	0.808
348.10	0.803
348.31	0.811
348.52	0.810
348.73	0.807
348.93	0.804
349.14	0.807
349.35	0.807
349.56	0.800
349.77	0.796
349.98	0.803
350.19	0.799
350.39	0.794
350.60	0.789
350.81	0.807
351.02	0.805
351.23	0.800
351.44	0.802
351.65	0.806
351.86	0.804
352.06	0.801
352.27	0.801
352.48	0.803
352.69	0.803
352.90	0.797
353.11	0.783
353.31	0.790
353.52	0.785
353.73	0.776
353.94	0.777
354.15	0.784
354.36	0.785
354.57	0.775
354.77	0.778
354.98	0.778
355.19	0.777
355.40	0.775
355.61	0.782
355.82	0.787
356.02	0.786
356.23	0.778
356.44	0.780
356.65	0.784
356.86	0.784
357.07	0.777
357.27	0.781
357.48	0.784
357.69	0.780
357.90	0.763
358.11	0.759
358.32	0.765
358.52	0.767
358.73	0.757
358.94	0.759
359.15	0.764
359.36	0.764
359.56	0.757
359.77	0.754
359.98	0.762
360.19	0.761
360.40	0.758
360.61	0.758
360.81	0.758
361.02	0.759
361.23	0.750
361.44	0.750
361.65	0.750
361.85	0.750
362.06	0.748
362.27	0.750
362.48	0.751
362.69	0.753
362.89	0.746
363.10	0.748
363.31	0.753
363.52	0.757
363.73	0.751
363.93	0.753
364.14	0.757
364.35	0.757
364.56	0.746
364.77	0.747
364.97	0.751
365.18	0.752
365.39	0.745
365.60	0.741
365.81	0.742
366.01	0.742
366.22	0.738
366.43	0.736
366.64	0.739
366.84	0.744
367.05	0.741
367.26	0.740
367.47	0.743
367.68	0.743
367.88	0.739
368.09	0.738
368.30	0.741
368.51	0.740
368.71	0.739
368.92	0.744
369.13	0.743
369.34	0.743
369.55	0.742
369.75	0.742
369.96	0.749
370.17	0.749
370.38	0.745
370.58	0.744
370.79	0.751
371.00	0.749
371.21	0.739
371.41	0.743
371.62	0.748
371.83	0.743
372.04	0.740
372.24	0.733
372.45	0.735
372.66	0.735
372.87	0.731
373.07	0.727
373.28	0.729
373.49	0.733
373.70	0.723
373.90	0.722
374.11	0.732
374.32	0.731
374.53	0.729
374.73	0.729
374.94	0.732
375.15	0.733
375.36	0.730
375.56	0.739
375.77	0.739
375.98	0.738
376.19	0.734
376.39	0.727
376.60	0.731
376.81	0.732
377.02	0.729
377.22	0.728
377.43	0.728
377.64	0.728
377.84	0.719
378.05	0.724
378.26	0.731
378.47	0.731
378.67	0.726
378.88	0.724
379.09	0.725
379.30	0.725
379.50	0.722
379.71	0.724
379.92	0.726
380.12	0.725
380.33	0.716
380.54	0.713
380.75	0.720
380.95	0.720
381.16	0.718
381.37	0.718
381.57	0.720
381.78	0.720
381.99	0.719
382.20	0.719
382.40	0.722
382.61	0.723
382.82	0.718
383.02	0.712
383.23	0.715
383.44	0.715
383.64	0.713
383.85	0.715
384.06	0.718
384.27	0.716
384.47	0.713
384.68	0.713
384.89	0.719
385.09	0.719
385.30	0.718
385.51	0.716
385.71	0.720
385.92	0.720
386.13	0.718
386.33	0.720
386.54	0.722
386.75	0.721
386.95	0.716
387.16	0.712
387.37	0.715
387.58	0.715
387.78	0.712
387.99	0.711
388.20	0.712
388.40	0.709
388.61	0.705
388.82	0.707
389.02	0.710
389.23	0.710
389.44	0.707
389.64	0.708
389.85	0.718
390.06	0.717
390.26	0.717
390.47	0.716
390.68	0.719
390.88	0.717
391.09	0.712
391.30	0.710
391.50	0.711
391.71	0.710
391.92	0.707
392.12	0.700
392.33	0.701
392.53	0.701
392.74	0.701
392.95	0.699
393.15	0.702
393.36	0.704
393.57	0.702
393.77	0.705
393.98	0.708
394.19	0.708
394.39	0.707
394.60	0.708
394.81	0.709
395.01	0.706
395.22	0.704
395.43	0.705
395.63	0.710
395.84	0.710
396.04	0.706
396.25	0.706
396.46	0.708
396.66	0.706
396.87	0.703
397.08	0.700
397.28	0.703
397.49	0.704
397.69	0.700
397.90	0.694
398.11	0.696
398.31	0.697
398.52	0.694
398.73	0.694
398.93	0.694
399.14	0.693
399.34	0.692
399.55	0.693
399.76	0.694
399.96	0.695
400.17	0.693
400.37	0.691
400.58	0.698
400.79	0.698
400.99	0.696
401.20	0.702
401.41	0.704
401.61	0.705
401.82	0.710
402.02	0.709
402.23	0.710
402.44	0.710
402.64	0.709
402.85	0.703
403.05	0.703
403.26	0.701
403.47	0.694
403.67	0.693
403.88	0.694
404.08	0.687
404.29	0.685
404.50	0.684
404.70	0.685
404.91	0.684
405.11	0.681
405.32	0.681
405.52	0.682
405.73	0.682
405.94	0.680
406.14	0.682
406.35	0.685
406.55	0.684
406.76	0.682
406.97	0.683
407.17	0.685
407.38	0.685
407.58	0.683
407.79	0.685
407.99	0.688
408.20	0.690
408.41	0.685
408.61	0.683
408.82	0.685
409.02	0.684
409.23	0.682
409.43	0.681
409.64	0.683
409.84	0.682
410.05	0.679
410.26	0.676
410.46	0.675
410.67	0.675
410.87	0.677
411.08	0.678
411.28	0.680
411.49	0.681
411.69	0.678
411.90	0.679
412.11	0.681
412.31	0.682
412.52	0.680
412.72	0.681
412.93	0.682
413.13	0.680
413.34	0.676
413.54	0.678
413.75	0.680
413.95	0.679
414.16	0.676
414.37	0.678
414.57	0.679
414.78	0.682
414.98	0.680
415.19	0.681
415.39	0.680
415.60	0.682
415.80	0.681
416.01	0.680
416.21	0.682
416.42	0.682
416.62	0.677
416.83	0.677
417.03	0.677
417.24	0.677
417.44	0.674
417.65	0.673
417.86	0.673
418.06	0.671
418.27	0.669
418.47	0.671
418.68	0.672
418.88	0.672
419.09	0.670
419.29	0.671
419.50	0.672
419.70	0.672
419.91	0.670
420.11	0.668
420.32	0.671
420.52	0.670
420.73	0.669
420.93	0.669
421.14	0.671
421.34	0.670
421.55	0.667
421.75	0.666
421.96	0.668
422.16	0.668
422.37	0.667
422.57	0.665
422.78	0.667
422.98	0.664
423.19	0.661
423.39	0.659
423.60	0.664
423.80	0.665
424.01	0.663
424.21	0.666
424.42	0.668
424.62	0.667
424.83	0.666
425.03	0.667
425.23	0.670
425.44	0.670
425.64	0.671
425.85	0.669
426.05	0.671
426.26	0.671
426.46	0.667
426.67	0.666
426.87	0.672
427.08	0.672
427.28	0.669
427.49	0.670
427.69	0.671
427.90	0.670
428.10	0.667
428.31	0.667
428.51	0.668
428.71	0.668
428.92	0.669
429.12	0.666
429.33	0.667
429.53	0.671
429.74	0.675
429.94	0.676
430.15	0.676
430.35	0.676
430.56	0.672
430.76	0.672
430.96	0.673
431.17	0.670
431.37	0.667
431.58	0.665
431.78	0.662
431.99	0.656
432.19	0.658
432.40	0.659
432.60	0.661
432.80	0.663
433.01	0.662
433.21	0.662
433.42	0.664
433.62	0.665
433.83	0.664
434.03	0.667
434.23	0.671
434.44	0.669
434.64	0.667
434.85	0.671
435.05	0.672
435.26	0.673
435.46	0.670
435.66	0.670
435.87	0.670
436.07	0.671
436.28	0.666
436.48	0.663
436.69	0.663
436.89	0.663
437.09	0.657
437.30	0.656
437.50	0.657
437.71	0.669
437.91	0.667
438.11	0.669
438.32	0.673
438.52	0.673
438.73	0.671
438.93	0.670
439.13	0.670
439.34	0.674
439.54	0.672
439.75	0.671
439.95	0.662
440.15	0.666
440.36	0.665
440.56	0.663
440.77	0.664
440.97	0.665
441.17	0.664
441.38	0.664
441.58	0.661
441.79	0.661
441.99	0.659
442.19	0.658
442.40	0.656
442.60	0.656
442.81	0.653
443.01	0.654
443.21	0.654
443.42	0.654
443.62	0.653
443.82	0.653
444.03	0.655
444.23	0.655
444.44	0.654
444.64	0.654
444.84	0.656
445.05	0.656
445.25	0.653
445.45	0.654
445.66	0.657
445.86	0.656
446.06	0.657
446.27	0.657
446.47	0.660
446.68	0.658
446.88	0.657
447.08	0.656
447.29	0.657
447.49	0.657
447.69	0.658
447.90	0.656
448.10	0.660
448.30	0.658
448.51	0.659
448.71	0.656
448.91	0.659
449.12	0.658
449.32	0.660
449.52	0.658
449.73	0.663
449.93	0.661
450.14	0.661
450.34	0.661
450.54	0.663
450.75	0.660
450.95	0.660
451.15	0.659
451.36	0.662
451.56	0.659
451.76	0.658
451.97	0.655
452.17	0.656
452.37	0.654
452.58	0.651
452.78	0.650
452.98	0.653
453.19	0.652
453.39	0.652
453.59	0.651
453.79	0.653
454.00	0.653
454.20	0.653
454.40	0.653
454.61	0.656
454.81	0.656
455.01	0.654
455.22	0.655
455.42	0.657
455.62	0.655
455.83	0.655
456.03	0.658
456.23	0.659
456.44	0.660
456.64	0.658
456.84	0.659
457.04	0.661
457.25	0.660
457.45	0.657
457.65	0.656
457.86	0.658
458.06	0.656
458.26	0.651
458.47	0.651
458.67	0.652
458.87	0.652
459.07	0.650
459.28	0.652
459.48	0.654
459.68	0.654
459.89	0.653
460.09	0.652
460.29	0.654
460.49	0.655
460.70	0.653
460.90	0.653
461.10	0.655
461.31	0.655
461.51	0.651
461.71	0.652
461.91	0.654
462.12	0.654
462.32	0.652
462.52	0.653
462.72	0.656
462.93	0.656
463.13	0.654
463.33	0.654
463.53	0.656
463.74	0.656
463.94	0.651
464.14	0.652
464.35	0.654
464.55	0.655
464.75	0.652
464.95	0.650
465.16	0.652
465.36	0.651
465.56	0.650
465.76	0.649
465.97	0.650
466.17	0.651
466.37	0.648
466.57	0.649
466.78	0.650
466.98	0.650
467.18	0.648
467.38	0.647
467.59	0.649
467.79	0.650
467.99	0.649
468.19	0.650
468.39	0.654
468.60	0.654
468.80	0.652
469.00	0.653
469.20	0.654
469.41	0.655
469.61	0.654
469.81	0.654
470.01	0.654
470.22	0.654
470.42	0.652
470.62	0.650
470.82	0.652
471.02	0.652
471.23	0.649
471.43	0.650
471.63	0.652
471.83	0.651
472.04	0.649
472.24	0.648
472.44	0.654
472.64	0.654
472.84	0.651
473.05	0.651
473.25	0.654
473.45	0.653
473.65	0.651
473.85	0.652
474.06	0.653
474.26	0.653
474.46	0.654
474.66	0.651
474.86	0.651
475.07	0.651
475.27	0.649
475.47	0.646
475.67	0.647
475.87	0.650
476.08	0.645
476.28	0.647
476.48	0.648
476.68	0.647
476.88	0.644
477.09	0.646
477.29	0.649
477.49	0.649
477.69	0.648
477.89	0.648
478.09	0.647
478.30	0.650
478.50	0.646
478.70	0.646
478.90	0.646
479.10	0.649
479.31	0.649
479.51	0.646
479.71	0.647
479.91	0.648
480.11	0.647
480.31	0.647
480.52	0.646
480.72	0.646
480.92	0.645
481.12	0.644
481.32	0.642
481.52	0.640
481.72	0.640
481.93	0.643
482.13	0.644
482.33	0.644
482.53	0.641
482.73	0.641
482.93	0.642
483.14	0.642
483.34	0.641
483.54	0.642
483.74	0.642
483.94	0.641
484.14	0.636
484.34	0.636
484.55	0.637
484.75	0.637
484.95	0.636
485.15	0.635
485.35	0.635
485.55	0.634
485.75	0.633
485.96	0.633
486.16	0.635
486.36	0.635
486.56	0.633
486.76	0.633
486.96	0.635
487.16	0.634
487.36	0.632
487.57	0.632
487.77	0.633
487.97	0.634
488.17	0.632
488.37	0.631
488.57	0.632
488.77	0.632
488.97	0.630
489.18	0.630
489.38	0.632
489.58	0.633
489.78	0.632
489.98	0.631
490.18	0.631
490.38	0.632
490.58	0.630
490.78	0.631
490.98	0.633
491.19	0.633
491.39	0.632
491.59	0.631
491.79	0.634
491.99	0.634
492.19	0.634
492.39	0.637
492.59	0.637
492.79	0.640
492.99	0.639
493.20	0.639
493.40	0.639
493.60	0.641
493.80	0.639
494.00	0.636
494.20	0.638
494.40	0.637
494.60	0.634
494.80	0.639
495.00	0.639
495.20	0.637
495.40	0.636
495.61	0.639
495.81	0.639
496.01	0.643
496.21	0.644
496.41	0.642
496.61	0.643
496.81	0.642
497.01	0.637
497.21	0.636
497.41	0.637
497.61	0.636
497.81	0.633
498.01	0.633
498.21	0.631
498.41	0.629
498.61	0.629
498.82	0.631
499.02	0.633
499.22	0.634
499.42	0.633
499.62	0.634
499.82	0.635
500.02	0.636
500.22	0.634
500.42	0.636
500.62	0.637
500.82	0.637
501.02	0.636
501.22	0.636
501.42	0.636
501.62	0.638
501.82	0.637
502.02	0.637
502.22	0.637
502.42	0.639
502.62	0.636
502.82	0.636
503.02	0.638
503.22	0.637
503.42	0.635
503.63	0.635
503.83	0.634
504.03	0.632
504.23	0.631
504.43	0.631
504.63	0.633
504.83	0.633
505.03	0.632
505.23	0.633
505.43	0.635
505.63	0.635
505.83	0.635
506.03	0.636
506.23	0.638
506.43	0.638
506.63	0.638
506.83	0.636
507.03	0.638
507.23	0.639
507.43	0.636
507.63	0.637
507.83	0.637
508.03	0.637
508.23	0.636
508.43	0.635
508.63	0.637
508.83	0.637
509.03	0.638
509.23	0.637
509.43	0.638
509.63	0.638
509.83	0.636
510.03	0.638
510.23	0.640
510.43	0.641
510.63	0.641
510.83	0.640
511.03	0.643
511.23	0.640
511.43	0.640
511.63	0.641
511.83	0.644
512.03	0.644
512.22	0.640
512.42	0.640
512.62	0.641
512.82	0.641
513.02	0.640
513.22	0.640
513.42	0.643
513.62	0.646
513.82	0.644
514.02	0.643
514.22	0.645
514.42	0.645
514.62	0.645
514.82	0.645
515.02	0.647
515.22	0.651
515.42	0.649
515.62	0.651
515.82	0.650
516.02	0.652
516.22	0.651
516.42	0.652
516.62	0.654
516.82	0.655
517.01	0.653
517.21	0.652
517.41	0.656
517.61	0.657
517.81	0.652
518.01	0.651
518.21	0.651
518.41	0.650
518.61	0.648
518.81	0.649
519.01	0.650
519.21	0.650
519.41	0.650
519.61	0.644
519.81	0.647
520.00	0.648
520.20	0.648
520.40	0.652
520.60	0.653
520.80	0.652
521.00	0.652
521.20	0.653
521.40	0.658
521.60	0.658
521.80	0.657
522.00	0.657
522.20	0.659
522.39	0.658
522.59	0.654
522.79	0.656
522.99	0.658
523.19	0.656
523.39	0.654
523.59	0.652
523.79	0.656
523.99	0.658
524.19	0.657
524.38	0.656
524.58	0.658
524.78	0.659
524.98	0.656
525.18	0.659
525.38	0.661
525.58	0.661
525.78	0.659
525.98	0.656
526.18	0.657
526.37	0.656
526.57	0.657
526.77	0.657
526.97	0.658
527.17	0.658
527.37	0.653
527.57	0.655
527.77	0.657
527.96	0.657
528.16	0.656
528.36	0.657
528.56	0.659
528.76	0.657
528.96	0.656
529.16	0.657
529.36	0.661
529.55	0.661
529.75	0.657
529.95	0.658
530.15	0.660
530.35	0.663
530.55	0.660
530.75	0.660
530.94	0.662
531.14	0.663
531.34	0.661
531.54	0.659
531.74	0.662
531.94	0.665
532.13	0.663
532.33	0.665
532.53	0.664
532.73	0.663
532.93	0.662
533.13	0.663
533.33	0.664
533.52	0.664
533.72	0.667
533.92	0.665
534.12	0.663
534.32	0.663
534.52	0.661
534.71	0.662
534.91	0.666
535.11	0.667
535.31	0.664
535.51	0.666
535.71	0.668
535.90	0.665
536.10	0.667
536.30	0.668
536.50	0.669
536.70	0.669
536.89	0.666
537.09	0.666
537.29	0.668
537.49	0.669
537.69	0.667
537.89	0.667
538.08	0.667
538.28	0.664
538.48	0.665
538.68	0.667
538.88	0.669
539.07	0.669
539.27	0.667
539.47	0.666
539.67	0.667
539.87	0.669
540.06	0.666
540.26	0.668
540.46	0.670
540.66	0.667
540.86	0.665
541.05	0.665
541.25	0.667
541.45	0.667
541.65	0.665
541.84	0.667
542.04	0.668
542.24	0.669
542.44	0.668
542.64	0.668
542.83	0.672
543.03	0.673
543.23	0.670
543.43	0.671
543.62	0.673
543.82	0.673
544.02	0.670
544.22	0.670
544.42	0.674
544.61	0.674
544.81	0.671
545.01	0.669
545.21	0.671
545.40	0.671
545.60	0.669
545.80	0.672
546.00	0.673
546.19	0.672
546.39	0.670
546.59	0.668
546.79	0.670
546.98	0.670
547.18	0.669
547.38	0.670
547.58	0.674
547.77	0.674
547.97	0.670
548.17	0.671
548.37	0.672
548.56	0.672
548.76	0.671
548.96	0.673
549.16	0.676
549.35	0.676
549.55	0.673
549.75	0.673
549.95	0.677
550.14	0.677
550.34	0.675
550.54	0.679
550.73	0.684
550.93	0.684
551.13	0.681
551.33	0.680
551.52	0.681
551.72	0.682
551.92	0.680
552.12	0.680
552.31	0.681
552.51	0.682
552.71	0.677
552.90	0.677
553.10	0.679
553.30	0.679
553.50	0.677
553.69	0.678
553.89	0.679
554.09	0.679
554.28	0.675
554.48	0.677
554.68	0.678
554.87	0.678
555.07	0.674
555.27	0.674
555.47	0.676
555.66	0.677
555.86	0.675
556.06	0.677
556.25	0.680
556.45	0.688
556.65	0.686
556.84	0.690
557.04	0.694
557.24	0.696
557.43	0.694
557.63	0.698
557.83	0.700
558.02	0.701
558.22	0.705
558.42	0.705
558.61	0.697
558.81	0.697
559.01	0.693
559.21	0.693
559.40	0.695
559.60	0.695
559.80	0.690
559.99	0.691
560.19	0.694
560.39	0.687
560.58	0.685
560.78	0.686
560.97	0.690
561.17	0.688
561.37	0.685
561.56	0.686
561.76	0.688
561.96	0.687
562.15	0.684
562.35	0.686
562.55	0.688
562.74	0.688
562.94	0.686
563.14	0.684
563.33	0.685
563.53	0.685
563.73	0.682
563.92	0.684
564.12	0.687
564.31	0.689
564.51	0.687
564.71	0.689
564.90	0.693
565.10	0.693
565.30	0.696
565.49	0.696
565.69	0.699
565.89	0.699
566.08	0.696
566.28	0.697
566.47	0.699
566.67	0.697
566.87	0.693
567.06	0.694
567.26	0.701
567.46	0.696
567.65	0.695
567.85	0.695
568.04	0.698
568.24	0.697
568.44	0.695
568.63	0.693
568.83	0.695
569.02	0.694
569.22	0.689
569.42	0.685
569.61	0.688
569.81	0.687
570.00	0.686
570.20	0.687
570.40	0.688
570.59	0.688
570.79	0.685
570.98	0.683
571.18	0.685
571.38	0.684
571.57	0.681
571.77	0.679
571.96	0.683
572.16	0.680
572.35	0.674
572.55	0.675
572.75	0.673
572.94	0.673
573.14	0.672
573.33	0.672
573.53	0.673
573.73	0.672
573.92	0.670
574.12	0.668
574.31	0.671
574.51	0.672
574.70	0.669
574.90	0.671
575.09	0.673
575.29	0.673
575.49	0.670
575.68	0.671
575.88	0.672
576.07	0.674
576.27	0.672
576.46	0.670
576.66	0.670
576.86	0.669
577.05	0.666
577.25	0.665
577.44	0.666
577.64	0.666
577.83	0.664
578.03	0.666
578.22	0.665
578.42	0.664
578.61	0.662
578.81	0.663
579.00	0.664
579.20	0.665
579.40	0.663
579.59	0.662
579.79	0.662
579.98	0.662
580.18	0.661
580.37	0.661
580.57	0.664
580.76	0.668
580.96	0.666
581.15	0.667
581.35	0.669
581.54	0.668
581.74	0.667
581.93	0.668
582.13	0.670
582.32	0.667
582.52	0.665
582.71	0.665
582.91	0.662
583.10	0.661
583.30	0.659
583.49	0.659
583.69	0.664
583.88	0.665
584.08	0.664
584.27	0.666
584.47	0.669
584.66	0.670
584.86	0.668
585.05	0.670
585.25	0.673
585.44	0.673
585.64	0.671
585.83	0.667
586.03	0.668
586.22	0.666
586.42	0.663
586.61	0.665
586.81	0.668
587.00	0.668
587.20	0.665
587.39	0.665
587.59	0.668
587.78	0.669
587.98	0.670
588.17	0.671
588.37	0.674
588.56	0.676
588.76	0.672
588.95	0.672
589.15	0.676
589.34	0.678
589.54	0.677
589.73	0.677
589.92	0.681
590.12	0.680
590.31	0.678
590.51	0.682
590.70	0.683
590.90	0.684
591.09	0.681
591.29	0.679
591.48	0.679
591.68	0.680
591.87	0.678
592.06	0.677
592.26	0.680
592.45	0.679
592.65	0.673
592.84	0.673
593.04	0.676
593.23	0.678
593.43	0.676
593.62	0.676
593.81	0.677
594.01	0.676
594.20	0.673
594.40	0.673
594.59	0.675
594.79	0.676
594.98	0.674
595.17	0.673
595.37	0.674
595.56	0.676
595.76	0.675
595.95	0.676
596.14	0.679
596.34	0.680
596.53	0.678
596.73	0.680
596.92	0.682
597.12	0.684
597.31	0.684
597.50	0.683
597.70	0.686
597.89	0.685
598.09	0.681
598.28	0.683
598.47	0.685
598.67	0.684
598.86	0.680
599.06	0.683
599.25	0.683
599.44	0.681
599.64	0.678
599.83	0.676
600.03	0.680
600.22	0.681
600.41	0.680
600.61	0.678
600.80	0.681
601.00	0.681
601.19	0.676
601.38	0.674
601.58	0.677
601.77	0.678
601.96	0.680
602.16	0.679
602.35	0.689
602.55	0.686
602.74	0.687
602.93	0.688
603.13	0.694
603.32	0.695
603.51	0.695
603.71	0.697
603.90	0.699
604.09	0.700
604.29	0.697
604.48	0.691
604.68	0.693
604.87	0.691
605.06	0.687
605.26	0.684
605.45	0.686
605.64	0.685
605.84	0.680
606.03	0.679
606.22	0.678
606.42	0.678
606.61	0.674
606.80	0.675
607.00	0.677
607.19	0.677
607.38	0.674
607.58	0.676
607.77	0.678
607.96	0.679
608.16	0.677
608.35	0.682
608.54	0.685
608.74	0.688
608.93	0.693
609.12	0.696
609.32	0.699
609.51	0.703
609.70	0.701
609.90	0.704
610.09	0.708
610.28	0.713
610.48	0.706
610.67	0.708
610.86	0.709
611.06	0.703
611.25	0.701
611.44	0.702
611.64	0.701
611.83	0.704
612.02	0.700
612.21	0.699
612.41	0.697
612.60	0.697
612.79	0.692
612.99	0.692
613.18	0.695
613.37	0.692
613.57	0.688
613.76	0.691
613.95	0.689
614.14	0.689
614.34	0.686
614.53	0.687
614.72	0.691
614.92	0.691
615.11	0.687
615.30	0.684
615.49	0.687
615.69	0.690
615.88	0.686
616.07	0.687
616.26	0.690
616.46	0.691
616.65	0.688
616.84	0.687
617.04	0.689
617.23	0.693
617.42	0.693
617.61	0.697
617.81	0.697
618.00	0.699
618.19	0.697
618.38	0.700
618.58	0.704
618.77	0.705
618.96	0.704
619.15	0.706
619.35	0.708
619.54	0.709
619.73	0.703
619.92	0.704
620.12	0.709
620.31	0.709
620.50	0.703
620.69	0.703
620.89	0.707
621.08	0.707
621.27	0.706
621.46	0.704
621.66	0.709
621.85	0.710
622.04	0.706
622.23	0.707
622.43	0.708
622.62	0.708
622.81	0.707
623.00	0.706
623.19	0.711
623.39	0.709
623.58	0.706
623.77	0.705
623.96	0.709
624.16	0.709
624.35	0.704
624.54	0.708
624.73	0.712
624.92	0.709
625.12	0.707
625.31	0.707
625.50	0.711
625.69	0.712
625.88	0.707
626.08	0.707
626.27	0.709
626.46	0.709
626.65	0.705
626.84	0.705
627.04	0.712
627.23	0.711
627.42	0.707
627.61	0.708
627.80	0.712
628.00	0.712
628.19	0.710
628.38	0.714
628.57	0.718
628.76	0.717
628.96	0.713
629.15	0.714
629.34	0.718
629.53	0.718
629.72	0.712
629.91	0.713
630.11	0.718
630.30	0.719
630.49	0.720
630.68	0.720
630.87	0.725
631.06	0.726
631.26	0.720
631.45	0.722
631.64	0.731
631.83	0.732
632.02	0.729
632.21	0.729
632.41	0.738
632.60	0.732
632.79	0.730
632.98	0.730
633.17	0.733
633.36	0.734
633.55	0.730
633.75	0.727
633.94	0.730
634.13	0.730
634.32	0.726
634.51	0.719
634.70	0.723
634.89	0.722
635.09	0.718
635.28	0.718
635.47	0.720
635.66	0.723
635.85	0.717
636.04	0.718
636.23	0.724
636.43	0.726
636.62	0.724
636.81	0.722
637.00	0.725
637.19	0.728
637.38	0.724
637.57	0.724
637.76	0.726
637.95	0.728
638.15	0.723
638.34	0.719
638.53	0.723
638.72	0.725
638.91	0.721
639.10	0.718
639.29	0.720
639.48	0.721
639.67	0.721
639.87	0.720
640.06	0.726
640.25	0.725
640.44	0.726
640.63	0.726
640.82	0.728
641.01	0.728
641.20	0.728
641.39	0.730
641.58	0.732
641.78	0.731
641.97	0.726
642.16	0.740
642.35	0.742
642.54	0.741
642.73	0.734
642.92	0.733
643.11	0.738
643.30	0.737
643.49	0.730
643.68	0.734
643.87	0.737
644.06	0.738
644.25	0.717
644.45	0.720
644.64	0.721
644.83	0.723
645.02	0.718
645.21	0.717
645.40	0.720
645.59	0.720
645.78	0.712
645.97	0.714
646.16	0.715
646.35	0.715
646.54	0.712
646.73	0.713
646.92	0.714
647.11	0.715
647.30	0.710
647.49	0.712
647.68	0.712
647.88	0.711
648.07	0.703
648.26	0.706
648.45	0.708
648.64	0.704
648.83	0.701
649.02	0.703
649.21	0.714
649.40	0.714
649.59	0.708
649.78	0.710
649.97	0.725
650.16	0.725
650.35	0.719
650.54	0.721
650.73	0.731
650.92	0.729
651.11	0.722
651.30	0.720
651.49	0.724
651.68	0.724
651.87	0.720
652.06	0.709
652.25	0.713
652.44	0.715
652.63	0.709
652.82	0.706
653.01	0.706
653.20	0.703
653.39	0.689
653.58	0.686
653.77	0.686
653.96	0.681
654.15	0.673
654.34	0.671
654.53	0.668
654.72	0.663
654.91	0.654
655.10	0.650
655.29	0.649
655.48	0.647
655.67	0.642
655.86	0.639
656.05	0.639
656.24	0.639
656.43	0.633
656.62	0.632
656.81	0.633
657.00	0.632
657.19	0.631
657.38	0.631
657.57	0.631
657.76	0.634
657.95	0.632
658.14	0.636
658.33	0.639
658.51	0.645
658.70	0.645
658.89	0.646
659.08	0.655
659.27	0.661
659.46	0.661
659.65	0.666
659.84	0.670
660.03	0.674
660.22	0.674
660.41	0.679
660.60	0.678
660.79	0.680
660.98	0.686
661.17	0.686
661.36	0.686
661.55	0.687
661.74	0.684
661.92	0.687
662.11	0.690
662.30	0.688
662.49	0.679
662.68	0.679
662.87	0.683
663.06	0.676
663.25	0.677
663.44	0.677
663.63	0.678
663.82	0.677
664.01	0.670
664.20	0.669
664.38	0.671
664.57	0.672
664.76	0.671
664.95	0.671
665.14	0.676
665.33	0.670
665.52	0.678
665.71	0.682
665.90	0.683
666.09	0.684
666.28	0.682
666.46	0.682
666.65	0.682
666.84	0.680
667.03	0.675
667.22	0.673
667.41	0.677
667.60	0.665
667.79	0.658
667.98	0.660
668.16	0.661
668.35	0.660
668.54	0.654
668.73	0.656
668.92	0.657
669.11	0.656
669.30	0.649
669.49	0.645
669.67	0.648
669.86	0.650
670.05	0.647
670.24	0.645
670.43	0.643
670.62	0.643
670.81	0.637
671.00	0.638
671.18	0.639
671.37	0.638
671.56	0.635
671.75	0.634
671.94	0.632
672.13	0.630
672.32	0.625
672.50	0.624
672.69	0.625
672.88	0.626
673.07	0.621
673.26	0.622
673.45	0.625
673.63	0.625
673.82	0.621
674.01	0.622
674.20	0.621
674.39	0.620
674.58	0.619
674.76	0.618
674.95	0.617
675.14	0.616
675.33	0.611
675.52	0.609
675.71	0.609
675.89	0.609
676.08	0.604
676.27	0.605
676.46	0.606
676.65	0.606
676.84	0.605
677.02	0.607
677.21	0.610
677.40	0.609
677.59	0.607
677.78	0.607
677.96	0.610
678.15	0.609
678.34	0.606
678.53	0.607
678.72	0.607
678.90	0.603
679.09	0.599
679.28	0.595
679.47	0.596
679.66	0.596
679.84	0.592
680.03	0.590
680.22	0.588
680.41	0.591
680.60	0.586
680.78	0.585
680.97	0.588
681.16	0.589
681.35	0.587
681.53	0.586
681.72	0.588
681.91	0.590
682.10	0.588
682.29	0.591
682.47	0.588
682.66	0.589
682.85	0.587
683.04	0.585
683.22	0.586
683.41	0.588
683.60	0.586
683.79	0.587
683.97	0.587
684.16	0.585
684.35	0.581
684.54	0.582
684.72	0.582
684.91	0.583
685.10	0.581
685.29	0.582
685.47	0.579
685.66	0.578
685.85	0.575
686.04	0.573
686.22	0.577
686.41	0.579
686.60	0.576
686.79	0.580
686.97	0.581
687.16	0.582
687.35	0.579
687.54	0.583
687.72	0.587
687.91	0.586
688.10	0.588
688.29	0.587
688.47	0.585
688.66	0.585
688.85	0.579
689.03	0.577
689.22	0.582
689.41	0.583
689.60	0.578
689.78	0.575
689.97	0.577
690.16	0.574
690.34	0.570
690.53	0.570
690.72	0.571
690.91	0.569
691.09	0.567
691.28	0.561
691.47	0.559
691.65	0.558
691.84	0.555
692.03	0.554
692.21	0.552
692.40	0.552
692.59	0.549
692.77	0.548
692.96	0.550
693.15	0.550
693.34	0.548
693.52	0.547
693.71	0.548
693.90	0.550
694.08	0.550
694.27	0.551
694.46	0.561
694.64	0.562
694.83	0.561
695.02	0.560
695.20	0.560
695.39	0.560
695.58	0.560
695.76	0.560
695.95	0.560
696.14	0.559
696.32	0.557
696.51	0.547
696.70	0.547
696.88	0.548
697.07	0.546
697.26	0.548
697.44	0.549
697.63	0.548
697.81	0.546
698.00	0.545
698.19	0.545
698.37	0.545
698.56	0.544
698.75	0.545
698.93	0.545
699.12	0.545
699.31	0.543
699.49	0.542
699.68	0.544
699.87	0.546
700.05	0.546
700.24	0.544
700.42	0.546
700.61	0.545
700.80	0.544
700.98	0.543
701.17	0.545
701.36	0.543
701.54	0.543
701.73	0.544
701.91	0.542
702.10	0.541
702.29	0.539
702.47	0.538
702.66	0.540
702.84	0.541
703.03	0.540
703.22	0.541
703.40	0.542
703.59	0.543
703.77	0.542
703.96	0.542
704.15	0.543
704.33	0.543
704.52	0.542
704.70	0.541
704.89	0.540
705.08	0.538
705.26	0.533
705.45	0.533
705.63	0.533
705.82	0.530
706.00	0.528
706.19	0.527
706.38	0.527
706.56	0.528
706.75	0.525
706.93	0.524
707.12	0.526
707.30	0.527
707.49	0.524
707.68	0.522
707.86	0.522
708.05	0.522
708.23	0.519
708.42	0.520
708.60	0.523
708.79	0.523
708.98	0.521
709.16	0.521
709.35	0.523
709.53	0.528
709.72	0.527
709.90	0.529
710.09	0.531
710.27	0.533
710.46	0.536
710.64	0.535
710.83	0.537
711.02	0.539
711.20	0.536
711.39	0.535
711.57	0.533
711.76	0.533
711.94	0.531
712.13	0.531
712.31	0.531
712.50	0.526
712.68	0.523
712.87	0.524
713.05	0.524
713.24	0.525
713.42	0.524
713.61	0.524
713.79	0.526
713.98	0.526
714.16	0.527
714.35	0.526
714.54	0.528
714.72	0.528
714.91	0.525
715.09	0.532
715.28	0.535
715.46	0.535
715.65	0.532
715.83	0.532
716.02	0.535
716.20	0.531
716.39	0.530
716.57	0.532
716.76	0.535
716.94	0.535
717.12	0.527
717.31	0.528
717.49	0.532
717.68	0.534
717.86	0.533
718.05	0.535
718.23	0.539
718.42	0.542
718.60	0.542
718.79	0.549
718.97	0.553
719.16	0.553
719.34	0.550
719.53	0.550
719.71	0.550
719.90	0.552
720.08	0.549
720.27	0.549
720.45	0.549
720.63	0.548
720.82	0.542
721.00	0.545
721.19	0.549
721.37	0.548
721.56	0.549
721.74	0.552
721.93	0.561
722.11	0.568
722.30	0.567
722.48	0.572
722.66	0.573
722.85	0.572
723.03	0.573
723.22	0.571
723.40	0.574
723.59	0.574
723.77	0.577
723.95	0.570
724.14	0.571
724.32	0.573
724.51	0.571
724.69	0.572
724.88	0.573
725.06	0.571
725.24	0.571
725.43	0.573
725.61	0.575
725.80	0.568
725.98	0.565
726.16	0.563
726.35	0.570
726.53	0.569
726.72	0.568
726.90	0.579
727.09	0.581
727.27	0.587
727.45	0.584
727.64	0.594
727.82	0.606
728.01	0.609
728.19	0.605
728.37	0.609
728.56	0.613
728.74	0.618
728.92	0.604
729.11	0.608
729.29	0.607
729.48	0.608
729.66	0.597
729.84	0.595
730.03	0.600
730.21	0.601
730.40	0.591
730.58	0.595
730.76	0.596
730.95	0.600
731.13	0.597
731.31	0.611
731.50	0.622
731.68	0.625
731.86	0.622
732.05	0.638
732.23	0.642
732.42	0.646
732.60	0.648
732.78	0.654
732.97	0.674
733.15	0.681
733.33	0.667
733.52	0.674
733.70	0.686
733.88	0.695
734.07	0.679
734.25	0.709
734.43	0.719
734.62	0.721
734.80	0.715
734.98	0.704
735.17	0.714
735.35	0.721
735.53	0.709
735.72	0.713
735.90	0.737
736.08	0.758
736.27	0.731
736.45	0.741
736.63	0.757
736.82	0.766
737.00	0.766
737.18	0.776
737.37	0.815
737.55	0.840
737.73	0.831
737.92	0.835
738.10	0.836
738.28	0.858
738.46	0.843
738.65	0.859
738.83	0.889
739.01	0.951
739.20	0.939
739.38	0.918
739.56	0.916
739.75	0.922
739.93	0.879
740.11	0.906
740.29	0.912
740.48	0.921
740.66	0.890
740.84	0.884
741.03	0.847
741.21	0.861
741.39	0.836
741.57	0.847
741.76	0.873
741.94	0.881
742.12	0.837
742.31	0.841
742.49	0.868
742.67	0.900
742.85	0.908
743.04	0.915
743.22	0.930
743.40	0.996
743.58	0.968
743.77	0.991
743.95	1.039
744.13	1.108
744.31	1.082
744.50	1.073
744.68	1.075
744.86	1.046
745.04	1.054
745.23	1.137
745.41	1.122
745.59	1.133
745.77	1.082
745.96	1.059
746.14	1.073
746.32	1.068
746.50	1.049
746.69	1.031
746.87	1.051
747.05	1.039
747.23	0.949
747.42	0.933
747.60	0.970
747.78	0.969
747.96	1.005
748.14	0.954
748.33	0.992
748.51	0.988
748.69	0.976
748.87	1.010
749.06	1.007
749.24	0.999
749.42	0.970
749.60	0.948
749.78	0.964
749.97	0.911
750.15	0.901
750.33	0.903
750.51	0.936
750.69	0.940
750.88	0.944
751.06	0.958
751.24	0.995
751.42	0.987
751.60	0.974
751.79	1.066
751.97	1.135
752.15	1.129
752.33	1.083
752.51	1.166
752.69	1.198
752.88	1.144
753.06	1.203
753.24	1.163
753.42	1.217
753.60	1.484
753.78	1.236
753.97	1.264
754.15	1.292
754.33	1.333
754.51	1.146
754.69	1.122
754.87	1.165
755.06	1.066
755.24	1.064
755.42	1.070
755.60	0.955
755.78	0.965
755.96	0.899
756.15	0.903
756.33	0.916
756.51	0.936
756.69	0.915
756.87	0.880
757.05	0.905
757.23	0.887
757.42	0.848
757.60	0.844
757.78	0.834
757.96	0.831
758.14	0.810
758.32	0.791
758.50	0.808
758.69	0.809
758.87	0.796
759.05	0.802
759.23	0.814
759.41	0.813
759.59	0.804
759.77	0.830
759.95	0.863
760.13	0.919
760.32	0.914
760.50	0.907
760.68	0.934
760.86	0.936
761.04	0.901
761.22	0.906
761.40	0.969
761.58	0.974
761.76	0.937
761.95	0.918
762.13	0.869
762.31	0.873
762.49	0.836
762.67	0.860
762.85	0.880
763.03	0.873
763.21	0.850
763.39	0.829
763.57	0.835
763.75	0.828
763.94	0.809
764.12	0.809
764.30	0.837
764.48	0.842
764.66	0.796
764.84	0.793
765.02	0.840
765.20	0.848
765.38	0.821
765.56	0.826
765.74	0.878
765.92	0.878
766.10	0.887
766.28	0.882
766.46	0.919
766.65	0.922
766.83	0.904
767.01	0.881
767.19	0.891
767.37	0.894
767.55	0.874
767.73	0.847
767.91	0.854
768.09	0.838
768.27	0.820
768.45	0.808
768.63	0.814
768.81	0.818
768.99	0.789
769.17	0.815
769.35	0.835
769.53	0.832
769.71	0.808
769.89	0.818
770.07	0.828
770.25	0.809
770.43	0.781
770.61	0.807
770.79	0.812
770.97	0.819
771.15	0.783
771.33	0.784
771.51	0.792
771.69	0.801
771.87	0.808
772.05	0.813
772.24	0.827
772.42	0.842
772.60	0.816
772.78	0.889
772.96	0.926
773.14	0.918
773.32	0.889
773.49	0.896
773.67	0.898
773.85	0.875
774.03	0.858
774.21	0.893
774.39	0.906
774.57	0.932
774.75	0.843
774.93	0.842
775.11	0.873
775.29	0.879
775.47	0.876
775.65	0.888
775.83	0.915
776.01	0.940
776.19	0.881
776.37	0.884
776.55	0.887
776.73	0.884
776.91	0.876
777.09	0.856
777.27	0.859
777.45	0.849
777.63	0.820
777.81	0.811
777.99	0.801
778.17	0.801
778.35	0.777
778.53	0.767
778.71	0.776
778.89	0.760
779.07	0.747
779.24	0.753
779.42	0.757
779.60	0.778
779.78	0.774
779.96	0.780
780.14	0.791
780.32	0.812
780.50	0.789
780.68	0.787
780.86	0.780
781.04	0.798
781.22	0.801
781.40	0.812
781.58	0.806
781.75	0.794
781.93	0.773
782.11	0.770
782.29	0.757
782.47	0.755
782.65	0.740
782.83	0.772
783.01	0.768
783.19	0.758
783.37	0.740
783.55	0.742
783.72	0.765
783.90	0.777
784.08	0.766
784.26	0.777
784.44	0.801
784.62	0.803
784.80	0.761
784.98	0.766
785.16	0.774
785.33	0.790
785.51	0.771
785.69	0.756
785.87	0.758
786.05	0.770
786.23	0.764
786.41	0.762
786.59	0.773
786.77	0.773
786.94	0.756
787.12	0.759
787.30	0.763
787.48	0.759
787.66	0.746
787.84	0.744
788.02	0.736
788.19	0.734
788.37	0.717
788.55	0.717
788.73	0.718
788.91	0.713
789.09	0.695
789.27	0.684
789.44	0.699
789.62	0.705
789.80	0.715
789.98	0.743
790.16	0.729
790.34	0.728
790.51	0.714
790.69	0.737
790.87	0.746
791.05	0.744
791.23	0.736
791.41	0.736
791.58	0.748
791.76	0.722
791.94	0.686
792.12	0.697
792.30	0.700
792.48	0.696
792.65	0.688
792.83	0.694
793.01	0.703
793.19	0.700
793.37	0.683
793.54	0.678
793.72	0.693
793.90	0.691
794.08	0.678
794.26	0.680
794.43	0.692
794.61	0.673
794.79	0.660
794.97	0.660
795.15	0.667
795.32	0.672
795.50	0.658
795.68	0.652
795.86	0.659
796.04	0.662
796.21	0.653
796.39	0.651
796.57	0.668
796.75	0.678
796.92	0.676
797.10	0.681
797.28	0.683
797.46	0.688
797.64	0.689
797.81	0.696
797.99	0.702
798.17	0.707
798.35	0.699
798.52	0.701
798.70	0.699
798.88	0.709
799.06	0.706
799.23	0.709
799.41	0.718
799.59	0.709
799.77	0.695
799.94	0.704
800.12	0.715
800.30	0.734
800.48	0.731
800.65	0.730
800.83	0.723
801.01	0.713
801.19	0.711
801.36	0.708
801.54	0.715
801.72	0.726
801.90	0.708
802.07	0.702
802.25	0.688
802.43	0.671
802.60	0.666
802.78	0.672
802.96	0.678
803.14	0.672
803.31	0.668
803.49	0.666
803.67	0.664
803.84	0.669
804.02	0.659
804.20	0.661
804.38	0.669
804.55	0.666
804.73	0.650
804.91	0.650
805.08	0.665
805.26	0.658
805.44	0.721
805.61	0.727
805.79	0.727
805.97	0.728
806.15	0.717
806.32	0.710
806.50	0.721
806.68	0.720
806.85	0.710
807.03	0.698
807.21	0.721
807.38	0.654
807.56	0.640
807.74	0.652
807.91	0.660
808.09	0.662
808.27	0.683
808.44	0.711
808.62	0.723
808.80	0.725
808.97	0.719
809.15	0.712
809.33	0.732
809.50	0.740
809.68	0.721
809.86	0.728
810.03	0.766
810.21	0.742
810.39	0.717
810.56	0.723
810.74	0.751
810.91	0.831
811.09	0.817
811.27	0.840
811.44	0.853
811.62	0.855
811.80	0.835
811.97	0.799
812.15	0.800
812.33	0.797
812.50	0.779
812.68	0.764
812.85	0.705
813.03	0.709
813.21	0.673
813.38	0.664
813.56	0.670
813.74	0.679
813.91	0.686
814.09	0.720
814.26	0.714
814.44	0.718
814.62	0.707
814.79	0.710
814.97	0.718
815.14	0.723
815.32	0.727
815.50	0.746
815.67	0.751
815.85	0.741
816.02	0.726
816.20	0.734
816.38	0.753
816.55	0.761
816.73	0.762
816.90	0.772
817.08	0.806
817.26	0.811
817.43	0.786
817.61	0.815
817.78	0.840
817.96	0.820
818.13	0.808
818.31	0.808
818.49	0.822
818.66	0.810
818.84	0.791
819.01	0.770
819.19	0.782
819.36	0.784
819.54	0.753
819.71	0.801
819.89	0.819
820.07	0.833
820.24	0.821
820.42	0.822
820.59	0.847
820.77	0.876
820.94	0.862
821.12	0.886
821.29	0.910
821.47	0.910
821.64	0.833
821.82	0.848
822.00	0.848
822.17	0.846
822.35	0.835
822.52	0.836
822.70	0.823
822.87	0.832
823.05	0.801
823.22	0.818
823.40	0.849
823.57	0.873
823.75	0.848
823.92	0.877
824.10	0.904
824.27	0.955
824.45	0.940
824.62	1.023
824.80	1.054
824.97	1.079
825.15	1.058
825.32	1.083
825.50	1.098
825.67	1.111
825.85	1.078
826.02	1.110
826.20	1.157
826.37	1.389
826.55	1.242
826.72	1.656
826.90	2.006
827.07	2.470
827.25	1.901
827.42	-0.000
827.60	-0.000
827.77	-0.000
827.95	-0.000
828.12	-0.000
828.30	-0.000
828.47	-0.000
828.65	2.081
828.82	2.584
829.00	-0.000
829.17	-0.000
829.34	-0.000
829.52	-0.000
829.69	-0.000
829.87	-0.000
830.04	-0.000
830.22	-0.000
830.39	-0.000
830.57	-0.000
830.74	-0.000
830.92	-0.000
831.09	-0.000
831.26	-0.000
831.44	-0.000
831.61	-0.000
831.79	-0.000
831.96	-0.000
832.14	-0.000
832.31	-0.000
832.49	-0.000
832.66	-0.000
832.83	-0.000
833.01	-0.000
833.18	-0.000
833.36	-0.000
833.53	-0.000
833.70	-0.000
833.88	-0.000
834.05	-0.000
834.23	-0.000
834.40	-0.000
834.58	-0.000
834.75	-0.000
834.92	-0.000
835.10	-0.000
835.27	-0.000
835.45	-0.000
835.62	-0.000
835.79	-0.000
835.97	-0.000
836.14	-0.000
836.32	-0.000
836.49	-0.000
836.66	-0.000
836.84	-0.000
837.01	-0.000
837.18	-0.000
837.36	-0.000
837.53	-0.000
837.71	-0.000
837.88	-0.000
838.05	-0.000
838.23	-0.000
838.40	-0.000
838.58	-0.000
838.75	-0.000
838.92	-0.000
839.10	-0.000
839.27	-0.000
839.44	-0.000
839.62	-0.000
839.79	-0.000
839.96	-0.000
840.14	-0.000
840.31	-0.000
840.48	-0.000
840.66	-0.000
840.83	-0.000
841.01	-0.000
841.18	-0.000
841.35	-0.000
841.53	-0.000
841.70	-0.000
841.87	-0.000
842.05	-0.000
842.22	-0.000
842.39	-0.000
842.57	-0.000
842.74	-0.000
842.91	-0.000
843.09	-0.000
843.26	-0.000
843.43	-0.000
843.60	-0.000
843.78	-0.000
843.95	-0.000
844.12	-0.000
844.30	-0.000
844.47	-0.000
844.64	-0.000
844.82	-0.000
844.99	-0.000
845.16	-0.000
845.34	-0.000
845.51	-0.000
845.68	-0.000
845.85	-0.000
846.03	-0.000
846.20	-0.000
846.37	-0.000
846.55	-0.000
846.72	-0.000
846.89	-0.000
847.06	-0.000
847.24	-0.000
847.41	-0.000
847.58	-0.000
847.76	-0.000
847.93	-0.000
848.10	-0.000
848.27	-0.000
848.45	-0.000
848.62	-0.000
848.79	-0.000
848.97	-0.000
849.14	-0.000
849.31	-0.000
849.48	-0.000
849.66	-0.000
849.83	-0.000
850.00	-0.000
850.17	-0.000
850.35	-0.000
850.52	-0.000
850.69	-0.000
850.86	-0.000
851.04	-0.000
851.21	-0.000
851.38	-0.000
851.55	-0.000
851.72	-0.000
851.90	-0.000
852.07	-0.000
852.24	-0.000
852.41	-0.000
852.59	-0.000
852.76	-0.000
852.93	-0.000
853.10	-0.000
853.28	-0.000
853.45	-0.000
853.62	-0.000
853.79	-0.000
853.96	-0.000
854.14	-0.000
854.31	-0.000
854.48	-0.000
854.65	-0.000
854.82	-0.000
855.00	-0.000
855.17	-0.000
855.34	-0.000
855.51	-0.000
855.68	-0.000
855.86	-0.000
856.03	-0.000
856.20	-0.000
856.37	-0.000
856.54	-0.000
856.72	-0.000
856.89	-0.000
857.06	-0.000
857.23	-0.000
857.40	-0.000
857.57	-0.000
857.75	-0.000
857.92	-0.000
858.09	-0.000
858.26	-0.000
858.43	-0.000
858.60	-0.000
858.78	-0.000
858.95	-0.000
859.12	-0.000
859.29	-0.000
859.46	-0.000
859.63	-0.000
859.81	-0.000
859.98	-0.000
860.15	-0.000
860.32	-0.000
860.49	-0.000
860.66	-0.000
860.83	-0.000
861.01	-0.000
861.18	-0.000
861.35	-0.000
861.52	-0.000
861.69	-0.000
861.86	-0.000
862.03	-0.000
862.21	-0.000
862.38	-0.000
862.55	-0.000
862.72	-0.000
862.89	-0.000
863.06	-0.000
863.23	-0.000
863.40	-0.000
863.58	-0.000
863.75	-0.000
863.92	-0.000
864.09	-0.000
864.26	-0.000
864.43	-0.000
864.60	-0.000
864.77	-0.000
864.94	-0.000
865.11	-0.000
865.29	-0.000
865.46	-0.000
865.63	-0.000
865.80	-0.000
865.97	-0.000
866.14	-0.000
866.31	-0.000
866.48	-0.000
866.65	-0.000
866.82	-0.000
866.99	-0.000
867.16	-0.000
867.34	-0.000
867.51	-0.000
867.68	-0.000
867.85	-0.000
868.02	-0.000
868.19	-0.000
868.36	-0.000
868.53	-0.000
868.70	-0.000
868.87	-0.000
869.04	-0.000
869.21	-0.000
869.38	-0.000
869.55	-0.000
869.72	-0.000
869.89	-0.000
870.06	-0.000
870.24	-0.000
870.41	-0.000
870.58	-0.000
870.75	-0.000
870.92	-0.000
871.09	-0.000
871.26	-0.000
871.43	-0.000
871.60	-0.000
871.77	-0.000
871.94	-0.000
872.11	-0.000
872.28	-0.000
872.45	-0.000
872.62	-0.000
872.79	-0.000
872.96	-0.000
873.13	-0.000
873.30	-0.000
873.47	-0.000
873.64	-0.000
873.81	-0.000
873.98	-0.000
874.15	-0.000
874.32	-0.000
874.49	-0.000
874.66	-0.000
874.83	-0.000
875.00	-0.000
875.17	-0.000
875.34	-0.000
875.51	-0.000
875.68	-0.000
875.85	-0.000
876.02	-0.000
876.19	-0.000
876.36	-0.000
876.53	-0.000
876.70	-0.000
876.87	-0.000
877.04	-0.000
877.21	-0.000
877.38	-0.000
877.55	-0.000
877.72	-0.000
877.89	-0.000
878.06	-0.000
878.23	-0.000
878.39	-0.000
878.56	-0.000
878.73	-0.000
878.90	-0.000
879.07	-0.000
879.24	-0.000
879.41	-0.000
879.58	-0.000
879.75	-0.000
879.92	-0.000
880.09	-0.000
880.26	-0.000
880.43	-0.000
880.60	-0.000
880.77	-0.000
880.94	-0.000
881.11	-0.000
881.27	-0.000
881.44	-0.000
881.61	-0.000
881.78	-0.000
881.95	-0.000
882.12	-0.000
882.29	-0.000
882.46	-0.000
882.63	-0.000
882.80	-0.000
882.97	-0.000
883.14	-0.000
883.30	-0.000
883.47	-0.000
883.64	-0.000
883.81	-0.000
883.98	-0.000
884.15	-0.000
884.32	-0.000
884.49	-0.000
884.66	-0.000
884.82	-0.000
884.99	-0.000
885.16	-0.000
885.33	-0.000
885.50	-0.000
885.67	-0.000
885.84	-0.000
886.01	-0.000
886.17	-0.000
886.34	-0.000
886.51	-0.000
886.68	-0.000
886.85	-0.000
887.02	-0.000
887.19	-0.000
887.36	-0.000
887.52	-0.000
887.69	-0.000
887.86	-0.000
888.03	-0.000
888.20	-0.000
888.37	-0.000
888.54	-0.000
888.70	-0.000
888.87	-0.000
889.04	-0.000
889.21	-0.000
889.38	-0.000
889.55	-0.000
889.71	-0.000
889.88	-0.000
890.05	-0.000
890.22	-0.000
890.39	-0.000
>>>>>End Processed Spectral Data<<<<<
