SpectraSuite Data File
++++++++++++++++++++++++++++++++++++
Date: Fri Jun 19 12:51:49 CEST 2015
User: introlabs
Dark Spectrum Present: Yes
Reference Spectrum Present: Yes
Number of Sampled Component Spectra: 1
Spectrometers: USB4H08886
Integration Time (usec): 745692 (USB4H08886)
Spectra Averaged: 5 (USB4H08886)
Boxcar Smoothing: 5 (USB4H08886)
Correct for Electrical Dark: Yes (USB4H08886)
Strobe/Lamp Enabled: No (USB4H08886)
Correct for Detector Non-linearity: Yes (USB4H08886)
Correct for Stray Light: Yes (USB4H08886)
Number of Pixels in Processed Spectrum: 3648
>>>>>Begin Processed Spectral Data<<<<<
178.14	-0.000
178.36	-0.000
178.57	-0.000
178.79	-0.000
179.01	-0.000
179.22	-0.000
179.44	-0.000
179.65	-0.000
179.87	-0.000
180.08	-0.000
180.30	-0.000
180.52	-0.000
180.73	-0.000
180.95	-0.000
181.16	-0.000
181.38	-0.000
181.59	-0.000
181.81	-0.000
182.03	-0.000
182.24	-0.000
182.46	-0.000
182.67	-0.000
182.89	-0.000
183.10	-0.000
183.32	-0.000
183.54	-0.000
183.75	-0.000
183.97	-0.000
184.18	-0.000
184.40	-0.000
184.61	-0.000
184.83	-0.000
185.04	-0.000
185.26	-0.000
185.48	-0.000
185.69	-0.000
185.91	-0.000
186.12	-0.000
186.34	-0.000
186.55	-0.000
186.77	-0.000
186.98	-0.000
187.20	-0.000
187.42	-0.000
187.63	-0.000
187.85	-0.000
188.06	-0.000
188.28	-0.000
188.49	-0.000
188.71	-0.000
188.92	-0.000
189.14	-0.000
189.36	-0.000
189.57	-0.000
189.79	-0.000
190.00	-0.000
190.22	-0.000
190.43	-0.000
190.65	-0.000
190.86	-0.000
191.08	-0.000
191.29	-0.000
191.51	-0.000
191.72	-0.000
191.94	-0.000
192.16	-0.000
192.37	-0.000
192.59	-0.000
192.80	-0.000
193.02	-0.000
193.23	-0.000
193.45	-0.000
193.66	-0.000
193.88	-0.000
194.09	-0.000
194.31	-0.000
194.52	-0.000
194.74	-0.000
194.95	-0.000
195.17	-0.000
195.38	-0.000
195.60	-0.000
195.81	-0.000
196.03	-0.000
196.25	-0.000
196.46	-0.000
196.68	-0.000
196.89	-0.000
197.11	-0.000
197.32	-0.000
197.54	-0.000
197.75	-0.000
197.97	-0.000
198.18	-0.000
198.40	-0.000
198.61	-0.000
198.83	-0.000
199.04	-0.000
199.26	-0.000
199.47	-0.000
199.69	-0.000
199.90	-0.000
200.12	-0.000
200.33	-0.000
200.55	-0.000
200.76	-0.000
200.98	-0.000
201.19	-0.000
201.41	-0.000
201.62	-0.000
201.84	-0.000
202.05	-0.000
202.27	-0.000
202.48	-0.000
202.70	-0.000
202.91	-0.000
203.13	-0.000
203.34	-0.000
203.56	-0.000
203.77	-0.000
203.99	-0.000
204.20	-0.000
204.42	-0.000
204.63	-0.000
204.85	-0.000
205.06	-0.000
205.28	-0.000
205.49	-0.000
205.71	-0.000
205.92	-0.000
206.14	-0.000
206.35	-0.000
206.56	-0.000
206.78	-0.000
206.99	-0.000
207.21	-0.000
207.42	-0.000
207.64	-0.000
207.85	-0.000
208.07	-0.000
208.28	-0.000
208.50	-0.000
208.71	-0.000
208.93	-0.000
209.14	-0.000
209.36	-0.000
209.57	-0.000
209.79	-0.000
210.00	-0.000
210.22	-0.000
210.43	-0.000
210.64	-0.000
210.86	-0.000
211.07	-0.000
211.29	-0.000
211.50	-0.000
211.72	-0.000
211.93	-0.000
212.15	-0.000
212.36	-0.000
212.58	-0.000
212.79	-0.000
213.01	-0.000
213.22	-0.000
213.43	-0.000
213.65	-0.000
213.86	-0.000
214.08	-0.000
214.29	-0.000
214.51	-0.000
214.72	-0.000
214.94	-0.000
215.15	-0.000
215.36	-0.000
215.58	-0.000
215.79	-0.000
216.01	-0.000
216.22	-0.000
216.44	-0.000
216.65	-0.000
216.87	-0.000
217.08	-0.000
217.29	-0.000
217.51	-0.000
217.72	-0.000
217.94	-0.000
218.15	-0.000
218.37	-0.000
218.58	-0.000
218.80	-0.000
219.01	-0.000
219.22	-0.000
219.44	-0.000
219.65	-0.000
219.87	-0.000
220.08	-0.000
220.30	-0.000
220.51	-0.000
220.72	-0.000
220.94	-0.000
221.15	-0.000
221.37	-0.000
221.58	-0.000
221.79	-0.000
222.01	-0.000
222.22	-0.000
222.44	-0.000
222.65	-0.000
222.87	-0.000
223.08	-0.000
223.29	-0.000
223.51	-0.000
223.72	-0.000
223.94	-0.000
224.15	-0.000
224.36	-0.000
224.58	-0.000
224.79	-0.000
225.01	-0.000
225.22	-0.000
225.44	-0.000
225.65	-0.000
225.86	-0.000
226.08	-0.000
226.29	-0.000
226.51	-0.000
226.72	-0.000
226.93	-0.000
227.15	-0.000
227.36	-0.000
227.58	-0.000
227.79	-0.000
228.00	-0.000
228.22	-0.000
228.43	-0.000
228.65	-0.000
228.86	-0.000
229.07	-0.000
229.29	-0.000
229.50	-0.000
229.72	-0.000
229.93	-0.000
230.14	-0.000
230.36	-0.000
230.57	-0.000
230.78	-0.000
231.00	-0.000
231.21	-0.000
231.43	-0.000
231.64	-0.000
231.85	-0.000
232.07	-0.000
232.28	-0.000
232.50	-0.000
232.71	-0.000
232.92	-0.000
233.14	-0.000
233.35	-0.000
233.56	-0.000
233.78	-0.000
233.99	-0.000
234.21	-0.000
234.42	-0.000
234.63	-0.000
234.85	-0.000
235.06	-0.000
235.27	-0.000
235.49	-0.000
235.70	-0.000
235.91	-0.000
236.13	-0.000
236.34	-0.000
236.56	-0.000
236.77	-0.000
236.98	-0.000
237.20	-0.000
237.41	-0.000
237.62	-0.000
237.84	-0.000
238.05	-0.000
238.26	-0.000
238.48	-0.000
238.69	-0.000
238.91	-0.000
239.12	-0.000
239.33	-0.000
239.55	-0.000
239.76	-0.000
239.97	-0.000
240.19	-0.000
240.40	-0.000
240.61	-0.000
240.83	-0.000
241.04	-0.000
241.25	-0.000
241.47	-0.000
241.68	-0.000
241.89	-0.000
242.11	-0.000
242.32	-0.000
242.53	-0.000
242.75	-0.000
242.96	-0.000
243.17	-0.000
243.39	-0.000
243.60	-0.000
243.81	-0.000
244.03	-0.000
244.24	-0.000
244.45	-0.000
244.67	-0.000
244.88	-0.000
245.09	-0.000
245.31	-0.000
245.52	-0.000
245.73	-0.000
245.95	-0.000
246.16	-0.000
246.37	-0.000
246.59	-0.000
246.80	-0.000
247.01	-0.000
247.23	-0.000
247.44	-0.000
247.65	-0.000
247.87	-0.000
248.08	-0.000
248.29	-0.000
248.51	-0.000
248.72	-0.000
248.93	-0.000
249.15	-0.000
249.36	-0.000
249.57	-0.000
249.78	-0.000
250.00	-0.000
250.21	-0.000
250.42	-0.000
250.64	-0.000
250.85	-0.000
251.06	-0.000
251.28	-0.000
251.49	-0.000
251.70	-0.000
251.92	-0.000
252.13	-0.000
252.34	-0.000
252.55	-0.000
252.77	-0.000
252.98	-0.000
253.19	-0.000
253.41	-0.000
253.62	-0.000
253.83	-0.000
254.05	-0.000
254.26	-0.000
254.47	-0.000
254.68	-0.000
254.90	-0.000
255.11	-0.000
255.32	-0.000
255.54	-0.000
255.75	-0.000
255.96	-0.000
256.17	-0.000
256.39	-0.000
256.60	-0.000
256.81	-0.000
257.03	-0.000
257.24	-0.000
257.45	-0.000
257.66	-0.000
257.88	-0.000
258.09	-0.000
258.30	-0.000
258.51	-0.000
258.73	-0.000
258.94	-0.000
259.15	-0.000
259.37	-0.000
259.58	-0.000
259.79	-0.000
260.00	-0.000
260.22	-0.000
260.43	-0.000
260.64	-0.000
260.85	-0.000
261.07	-0.000
261.28	-0.000
261.49	-0.000
261.71	-0.000
261.92	-0.000
262.13	-0.000
262.34	-0.000
262.56	-0.000
262.77	-0.000
262.98	-0.000
263.19	-0.000
263.41	-0.000
263.62	-0.000
263.83	-0.000
264.04	-0.000
264.26	-0.000
264.47	-0.000
264.68	-0.000
264.89	-0.000
265.11	-0.000
265.32	-0.000
265.53	-0.000
265.74	-0.000
265.96	-0.000
266.17	-0.000
266.38	-0.000
266.59	-0.000
266.81	-0.000
267.02	-0.000
267.23	-0.000
267.44	-0.000
267.65	-0.000
267.87	-0.000
268.08	-0.000
268.29	-0.000
268.50	-0.000
268.72	-0.000
268.93	-0.000
269.14	-0.000
269.35	-0.000
269.57	-0.000
269.78	-0.000
269.99	-0.000
270.20	-0.000
270.41	-0.000
270.63	-0.000
270.84	-0.000
271.05	-0.000
271.26	-0.000
271.48	-0.000
271.69	-0.000
271.90	-0.000
272.11	-0.000
272.32	-0.000
272.54	-0.000
272.75	-0.000
272.96	-0.000
273.17	-0.000
273.39	-0.000
273.60	-0.000
273.81	-0.000
274.02	-0.000
274.23	-0.000
274.45	-0.000
274.66	-0.000
274.87	-0.000
275.08	-0.000
275.29	-0.000
275.51	-0.000
275.72	-0.000
275.93	-0.000
276.14	-0.000
276.35	-0.000
276.57	-0.000
276.78	-0.000
276.99	-0.000
277.20	-0.000
277.41	-0.000
277.63	-0.000
277.84	-0.000
278.05	-0.000
278.26	-0.000
278.47	-0.000
278.69	-0.000
278.90	-0.000
279.11	-0.000
279.32	-0.000
279.53	-0.000
279.74	-0.000
279.96	-0.000
280.17	-0.000
280.38	-0.000
280.59	-0.000
280.80	-0.000
281.02	-0.000
281.23	-0.000
281.44	-0.000
281.65	-0.000
281.86	-0.000
282.07	-0.000
282.29	-0.000
282.50	-0.000
282.71	-0.000
282.92	-0.000
283.13	-0.000
283.35	-0.000
283.56	-0.000
283.77	-0.000
283.98	-0.000
284.19	-0.000
284.40	-0.000
284.62	-0.000
284.83	-0.000
285.04	-0.000
285.25	-0.000
285.46	-0.000
285.67	-0.000
285.88	-0.000
286.10	-0.000
286.31	-0.000
286.52	-0.000
286.73	-0.000
286.94	-0.000
287.15	-0.000
287.37	-0.000
287.58	-0.000
287.79	-0.000
288.00	-0.000
288.21	-0.000
288.42	-0.000
288.63	-0.000
288.85	-0.000
289.06	-0.000
289.27	-0.000
289.48	-0.000
289.69	-0.000
289.90	-0.000
290.11	-0.000
290.33	-0.000
290.54	-0.000
290.75	-0.000
290.96	-0.000
291.17	-0.000
291.38	-0.000
291.59	-0.000
291.81	-0.000
292.02	-0.000
292.23	-0.000
292.44	-0.000
292.65	-0.000
292.86	-0.000
293.07	-0.000
293.28	-0.000
293.50	-0.000
293.71	-0.000
293.92	-0.000
294.13	-0.000
294.34	-0.000
294.55	-0.000
294.76	-0.000
294.97	-0.000
295.19	-0.000
295.40	-0.000
295.61	-0.000
295.82	-0.000
296.03	-0.000
296.24	-0.000
296.45	-0.000
296.66	2.181
296.87	2.197
297.09	2.508
297.30	-0.000
297.51	1.977
297.72	1.895
297.93	2.092
298.14	2.002
298.35	1.899
298.56	1.839
298.77	2.095
298.99	2.049
299.20	1.956
299.41	1.912
299.62	1.859
299.83	1.843
300.04	1.723
300.25	1.693
300.46	1.767
300.67	1.724
300.88	1.641
301.10	1.639
301.31	1.744
301.52	1.666
301.73	1.580
301.94	1.583
302.15	1.605
302.36	1.545
302.57	1.474
302.78	1.479
302.99	1.535
303.20	1.552
303.41	1.435
303.63	1.410
303.84	1.421
304.05	1.415
304.26	1.347
304.47	1.355
304.68	1.365
304.89	1.352
305.10	1.304
305.31	1.290
305.52	1.339
305.73	1.333
305.94	1.288
306.15	1.281
306.37	1.305
306.58	1.311
306.79	1.273
307.00	1.296
307.21	1.341
307.42	1.333
307.63	1.291
307.84	1.260
308.05	1.304
308.26	1.302
308.47	1.272
308.68	1.270
308.89	1.274
309.10	1.269
309.31	1.220
309.52	1.211
309.73	1.228
309.95	1.219
310.16	1.184
310.37	1.172
310.58	1.191
310.79	1.187
311.00	1.181
311.21	1.182
311.42	1.187
311.63	1.183
311.84	1.161
312.05	1.158
312.26	1.185
312.47	1.197
312.68	1.170
312.89	1.154
313.10	1.165
313.31	1.135
313.52	1.134
313.73	1.135
313.94	1.139
314.15	1.123
314.36	1.098
314.57	1.089
314.78	1.079
314.99	1.072
315.21	1.058
315.42	1.061
315.63	1.077
315.84	1.055
316.05	1.040
316.26	1.046
316.47	1.066
316.68	1.063
316.89	1.042
317.10	1.060
317.31	1.068
317.52	1.071
317.73	1.049
317.94	1.049
318.15	1.094
318.36	1.092
318.57	1.075
318.78	1.062
318.99	1.099
319.20	1.097
319.41	1.061
319.62	1.060
319.83	1.071
320.04	1.066
320.25	1.047
320.46	1.015
320.67	1.019
320.88	1.012
321.09	0.996
321.30	0.982
321.51	0.996
321.72	0.995
321.93	0.978
322.14	0.972
322.35	1.000
322.56	1.003
322.77	0.988
322.98	0.999
323.19	1.010
323.40	1.016
323.61	0.994
323.82	0.989
324.03	0.996
324.24	0.994
324.45	0.980
324.66	0.961
324.87	0.959
325.08	0.958
325.29	0.936
325.50	0.929
325.71	0.937
325.92	0.946
326.13	0.932
326.34	0.933
326.55	0.942
326.76	0.941
326.97	0.930
327.18	0.924
327.39	0.950
327.60	0.951
327.80	0.950
328.01	0.945
328.22	0.946
328.43	0.949
328.64	0.936
328.85	0.939
329.06	0.943
329.27	0.942
329.48	0.937
329.69	0.918
329.90	0.929
330.11	0.922
330.32	0.916
330.53	0.909
330.74	0.908
330.95	0.906
331.16	0.890
331.37	0.897
331.58	0.897
331.79	0.895
332.00	0.886
332.21	0.880
332.42	0.884
332.63	0.875
332.83	0.871
333.04	0.873
333.25	0.887
333.46	0.884
333.67	0.871
333.88	0.874
334.09	0.886
334.30	0.882
334.51	0.873
334.72	0.869
334.93	0.874
335.14	0.872
335.35	0.864
335.56	0.858
335.77	0.868
335.98	0.866
336.18	0.860
336.39	0.852
336.60	0.856
336.81	0.854
337.02	0.852
337.23	0.855
337.44	0.859
337.65	0.860
337.86	0.851
338.07	0.849
338.28	0.854
338.49	0.852
338.70	0.844
338.91	0.852
339.11	0.859
339.32	0.855
339.53	0.844
339.74	0.840
339.95	0.839
340.16	0.836
340.37	0.827
340.58	0.826
340.79	0.830
341.00	0.829
341.21	0.818
341.41	0.819
341.62	0.822
341.83	0.822
342.04	0.817
342.25	0.828
342.46	0.833
342.67	0.831
342.88	0.822
343.09	0.821
343.30	0.830
343.50	0.833
343.71	0.823
343.92	0.822
344.13	0.827
344.34	0.827
344.55	0.810
344.76	0.808
344.97	0.814
345.18	0.814
345.38	0.811
345.59	0.805
345.80	0.804
346.01	0.802
346.22	0.796
346.43	0.790
346.64	0.800
346.85	0.799
347.06	0.791
347.26	0.791
347.47	0.795
347.68	0.790
347.89	0.787
348.10	0.782
348.31	0.790
348.52	0.789
348.73	0.786
348.93	0.782
349.14	0.786
349.35	0.786
349.56	0.779
349.77	0.774
349.98	0.781
350.19	0.778
350.39	0.772
350.60	0.768
350.81	0.785
351.02	0.784
351.23	0.778
351.44	0.781
351.65	0.785
351.86	0.783
352.06	0.782
352.27	0.782
352.48	0.785
352.69	0.784
352.90	0.778
353.11	0.766
353.31	0.774
353.52	0.770
353.73	0.762
353.94	0.763
354.15	0.771
354.36	0.770
354.57	0.760
354.77	0.762
354.98	0.763
355.19	0.762
355.40	0.760
355.61	0.766
355.82	0.771
356.02	0.770
356.23	0.762
356.44	0.764
356.65	0.767
356.86	0.769
357.07	0.762
357.27	0.765
357.48	0.769
357.69	0.764
357.90	0.748
358.11	0.745
358.32	0.749
358.52	0.752
358.73	0.741
358.94	0.743
359.15	0.747
359.36	0.749
359.56	0.743
359.77	0.740
359.98	0.747
360.19	0.747
360.40	0.744
360.61	0.744
360.81	0.743
361.02	0.744
361.23	0.736
361.44	0.734
361.65	0.735
361.85	0.735
362.06	0.732
362.27	0.735
362.48	0.736
362.69	0.738
362.89	0.732
363.10	0.734
363.31	0.739
363.52	0.742
363.73	0.737
363.93	0.737
364.14	0.740
364.35	0.742
364.56	0.732
364.77	0.733
364.97	0.736
365.18	0.737
365.39	0.730
365.60	0.727
365.81	0.729
366.01	0.729
366.22	0.725
366.43	0.724
366.64	0.726
366.84	0.732
367.05	0.728
367.26	0.727
367.47	0.729
367.68	0.730
367.88	0.726
368.09	0.724
368.30	0.727
368.51	0.727
368.71	0.725
368.92	0.729
369.13	0.727
369.34	0.727
369.55	0.725
369.75	0.724
369.96	0.732
370.17	0.732
370.38	0.728
370.58	0.727
370.79	0.734
371.00	0.732
371.21	0.723
371.41	0.729
371.62	0.733
371.83	0.729
372.04	0.727
372.24	0.720
372.45	0.722
372.66	0.723
372.87	0.719
373.07	0.715
373.28	0.717
373.49	0.720
373.70	0.710
373.90	0.709
374.11	0.718
374.32	0.718
374.53	0.716
374.73	0.716
374.94	0.718
375.15	0.719
375.36	0.715
375.56	0.724
375.77	0.726
375.98	0.725
376.19	0.722
376.39	0.716
376.60	0.720
376.81	0.721
377.02	0.718
377.22	0.717
377.43	0.717
377.64	0.717
377.84	0.708
378.05	0.713
378.26	0.720
378.47	0.719
378.67	0.715
378.88	0.712
379.09	0.713
379.30	0.713
379.50	0.710
379.71	0.713
379.92	0.716
380.12	0.715
380.33	0.705
380.54	0.702
380.75	0.708
380.95	0.708
381.16	0.706
381.37	0.706
381.57	0.708
381.78	0.709
381.99	0.708
382.20	0.707
382.40	0.710
382.61	0.711
382.82	0.707
383.02	0.701
383.23	0.705
383.44	0.705
383.64	0.703
383.85	0.704
384.06	0.707
384.27	0.705
384.47	0.703
384.68	0.703
384.89	0.709
385.09	0.709
385.30	0.708
385.51	0.706
385.71	0.710
385.92	0.709
386.13	0.707
386.33	0.709
386.54	0.710
386.75	0.709
386.95	0.704
387.16	0.699
387.37	0.701
387.58	0.701
387.78	0.699
387.99	0.697
388.20	0.700
388.40	0.697
388.61	0.692
388.82	0.695
389.02	0.698
389.23	0.699
389.44	0.697
389.64	0.697
389.85	0.709
390.06	0.708
390.26	0.707
390.47	0.706
390.68	0.708
390.88	0.706
391.09	0.703
391.30	0.701
391.50	0.701
391.71	0.701
391.92	0.698
392.12	0.691
392.33	0.691
392.53	0.691
392.74	0.691
392.95	0.691
393.15	0.694
393.36	0.694
393.57	0.691
393.77	0.695
393.98	0.697
394.19	0.696
394.39	0.694
394.60	0.696
394.81	0.698
395.01	0.696
395.22	0.693
395.43	0.694
395.63	0.699
395.84	0.701
396.04	0.697
396.25	0.699
396.46	0.701
396.66	0.699
396.87	0.696
397.08	0.693
397.28	0.695
397.49	0.696
397.69	0.691
397.90	0.686
398.11	0.688
398.31	0.688
398.52	0.684
398.73	0.684
398.93	0.684
399.14	0.683
399.34	0.681
399.55	0.682
399.76	0.683
399.96	0.684
400.17	0.682
400.37	0.680
400.58	0.687
400.79	0.689
400.99	0.686
401.20	0.692
401.41	0.694
401.61	0.695
401.82	0.699
402.02	0.699
402.23	0.700
402.44	0.699
402.64	0.699
402.85	0.693
403.05	0.692
403.26	0.691
403.47	0.684
403.67	0.683
403.88	0.685
404.08	0.679
404.29	0.677
404.50	0.677
404.70	0.678
404.91	0.677
405.11	0.673
405.32	0.674
405.52	0.674
405.73	0.674
405.94	0.671
406.14	0.674
406.35	0.676
406.55	0.675
406.76	0.672
406.97	0.673
407.17	0.676
407.38	0.675
407.58	0.674
407.79	0.676
407.99	0.679
408.20	0.680
408.41	0.674
408.61	0.673
408.82	0.675
409.02	0.674
409.23	0.672
409.43	0.671
409.64	0.673
409.84	0.672
410.05	0.668
410.26	0.666
410.46	0.666
410.67	0.665
410.87	0.667
411.08	0.668
411.28	0.670
411.49	0.671
411.69	0.669
411.90	0.670
412.11	0.672
412.31	0.673
412.52	0.672
412.72	0.673
412.93	0.674
413.13	0.673
413.34	0.669
413.54	0.670
413.75	0.672
413.95	0.672
414.16	0.668
414.37	0.670
414.57	0.671
414.78	0.673
414.98	0.671
415.19	0.672
415.39	0.670
415.60	0.672
415.80	0.670
416.01	0.669
416.21	0.671
416.42	0.671
416.62	0.666
416.83	0.666
417.03	0.666
417.24	0.666
417.44	0.663
417.65	0.663
417.86	0.664
418.06	0.662
418.27	0.659
418.47	0.661
418.68	0.661
418.88	0.662
419.09	0.660
419.29	0.661
419.50	0.663
419.70	0.663
419.91	0.661
420.11	0.659
420.32	0.661
420.52	0.661
420.73	0.660
420.93	0.661
421.14	0.662
421.34	0.661
421.55	0.658
421.75	0.657
421.96	0.658
422.16	0.659
422.37	0.658
422.57	0.656
422.78	0.658
422.98	0.655
423.19	0.653
423.39	0.652
423.60	0.656
423.80	0.657
424.01	0.655
424.21	0.658
424.42	0.659
424.62	0.660
424.83	0.659
425.03	0.659
425.23	0.661
425.44	0.662
425.64	0.661
425.85	0.660
426.05	0.662
426.26	0.663
426.46	0.659
426.67	0.658
426.87	0.662
427.08	0.662
427.28	0.660
427.49	0.661
427.69	0.663
427.90	0.662
428.10	0.659
428.31	0.659
428.51	0.661
428.71	0.660
428.92	0.661
429.12	0.658
429.33	0.659
429.53	0.662
429.74	0.666
429.94	0.666
430.15	0.665
430.35	0.666
430.56	0.663
430.76	0.662
430.96	0.663
431.17	0.661
431.37	0.658
431.58	0.657
431.78	0.654
431.99	0.648
432.19	0.650
432.40	0.652
432.60	0.653
432.80	0.655
433.01	0.654
433.21	0.654
433.42	0.656
433.62	0.657
433.83	0.656
434.03	0.658
434.23	0.662
434.44	0.660
434.64	0.658
434.85	0.662
435.05	0.663
435.26	0.663
435.46	0.662
435.66	0.662
435.87	0.662
436.07	0.662
436.28	0.658
436.48	0.655
436.69	0.656
436.89	0.655
437.09	0.649
437.30	0.649
437.50	0.650
437.71	0.661
437.91	0.660
438.11	0.662
438.32	0.666
438.52	0.666
438.73	0.665
438.93	0.663
439.13	0.663
439.34	0.667
439.54	0.665
439.75	0.664
439.95	0.655
440.15	0.659
440.36	0.658
440.56	0.656
440.77	0.657
440.97	0.658
441.17	0.657
441.38	0.658
441.58	0.655
441.79	0.655
441.99	0.653
442.19	0.652
442.40	0.650
442.60	0.650
442.81	0.647
443.01	0.647
443.21	0.648
443.42	0.647
443.62	0.646
443.82	0.646
444.03	0.648
444.23	0.648
444.44	0.648
444.64	0.647
444.84	0.649
445.05	0.649
445.25	0.646
445.45	0.647
445.66	0.650
445.86	0.649
446.06	0.649
446.27	0.649
446.47	0.653
446.68	0.651
446.88	0.649
447.08	0.648
447.29	0.651
447.49	0.651
447.69	0.651
447.90	0.650
448.10	0.654
448.30	0.652
448.51	0.653
448.71	0.650
448.91	0.654
449.12	0.653
449.32	0.655
449.52	0.653
449.73	0.657
449.93	0.656
450.14	0.656
450.34	0.655
450.54	0.658
450.75	0.655
450.95	0.655
451.15	0.654
451.36	0.656
451.56	0.653
451.76	0.652
451.97	0.649
452.17	0.650
452.37	0.649
452.58	0.645
452.78	0.646
452.98	0.648
453.19	0.647
453.39	0.647
453.59	0.646
453.79	0.647
454.00	0.648
454.20	0.647
454.40	0.648
454.61	0.650
454.81	0.650
455.01	0.648
455.22	0.648
455.42	0.651
455.62	0.649
455.83	0.648
456.03	0.651
456.23	0.652
456.44	0.653
456.64	0.651
456.84	0.651
457.04	0.652
457.25	0.652
457.45	0.649
457.65	0.648
457.86	0.649
458.06	0.648
458.26	0.644
458.47	0.642
458.67	0.644
458.87	0.644
459.07	0.642
459.28	0.644
459.48	0.646
459.68	0.646
459.89	0.645
460.09	0.644
460.29	0.646
460.49	0.648
460.70	0.647
460.90	0.647
461.10	0.648
461.31	0.647
461.51	0.644
461.71	0.646
461.91	0.647
462.12	0.647
462.32	0.646
462.52	0.647
462.72	0.650
462.93	0.650
463.13	0.648
463.33	0.649
463.53	0.651
463.74	0.651
463.94	0.646
464.14	0.646
464.35	0.648
464.55	0.648
464.75	0.646
464.95	0.643
465.16	0.646
465.36	0.645
465.56	0.643
465.76	0.643
465.97	0.644
466.17	0.645
466.37	0.642
466.57	0.643
466.78	0.645
466.98	0.645
467.18	0.643
467.38	0.642
467.59	0.643
467.79	0.645
467.99	0.644
468.19	0.645
468.39	0.648
468.60	0.648
468.80	0.646
469.00	0.648
469.20	0.649
469.41	0.650
469.61	0.649
469.81	0.649
470.01	0.648
470.22	0.649
470.42	0.646
470.62	0.644
470.82	0.647
471.02	0.645
471.23	0.643
471.43	0.643
471.63	0.646
471.83	0.645
472.04	0.643
472.24	0.642
472.44	0.647
472.64	0.648
472.84	0.645
473.05	0.645
473.25	0.648
473.45	0.648
473.65	0.645
473.85	0.646
474.06	0.648
474.26	0.648
474.46	0.650
474.66	0.646
474.86	0.647
475.07	0.647
475.27	0.645
475.47	0.642
475.67	0.643
475.87	0.645
476.08	0.642
476.28	0.643
476.48	0.644
476.68	0.642
476.88	0.640
477.09	0.641
477.29	0.643
477.49	0.643
477.69	0.642
477.89	0.643
478.09	0.642
478.30	0.644
478.50	0.640
478.70	0.640
478.90	0.641
479.10	0.643
479.31	0.644
479.51	0.642
479.71	0.643
479.91	0.644
480.11	0.642
480.31	0.642
480.52	0.641
480.72	0.642
480.92	0.640
481.12	0.639
481.32	0.637
481.52	0.635
481.72	0.635
481.93	0.638
482.13	0.639
482.33	0.639
482.53	0.637
482.73	0.637
482.93	0.639
483.14	0.639
483.34	0.638
483.54	0.639
483.74	0.638
483.94	0.637
484.14	0.633
484.34	0.632
484.55	0.633
484.75	0.633
484.95	0.631
485.15	0.630
485.35	0.631
485.55	0.630
485.75	0.628
485.96	0.629
486.16	0.631
486.36	0.630
486.56	0.629
486.76	0.629
486.96	0.629
487.16	0.629
487.36	0.627
487.57	0.627
487.77	0.629
487.97	0.630
488.17	0.627
488.37	0.627
488.57	0.628
488.77	0.628
488.97	0.626
489.18	0.626
489.38	0.629
489.58	0.629
489.78	0.628
489.98	0.627
490.18	0.627
490.38	0.628
490.58	0.627
490.78	0.627
490.98	0.629
491.19	0.629
491.39	0.628
491.59	0.627
491.79	0.630
491.99	0.631
492.19	0.630
492.39	0.633
492.59	0.633
492.79	0.635
492.99	0.635
493.20	0.635
493.40	0.635
493.60	0.636
493.80	0.634
494.00	0.632
494.20	0.633
494.40	0.632
494.60	0.630
494.80	0.634
495.00	0.634
495.20	0.632
495.40	0.631
495.61	0.633
495.81	0.633
496.01	0.637
496.21	0.637
496.41	0.637
496.61	0.638
496.81	0.636
497.01	0.631
497.21	0.630
497.41	0.631
497.61	0.631
497.81	0.628
498.01	0.629
498.21	0.627
498.41	0.625
498.61	0.625
498.82	0.626
499.02	0.629
499.22	0.630
499.42	0.629
499.62	0.630
499.82	0.631
500.02	0.632
500.22	0.630
500.42	0.632
500.62	0.632
500.82	0.632
501.02	0.630
501.22	0.630
501.42	0.630
501.62	0.632
501.82	0.631
502.02	0.632
502.22	0.632
502.42	0.634
502.62	0.631
502.82	0.632
503.02	0.632
503.22	0.632
503.42	0.630
503.63	0.630
503.83	0.629
504.03	0.627
504.23	0.626
504.43	0.627
504.63	0.628
504.83	0.628
505.03	0.626
505.23	0.628
505.43	0.630
505.63	0.630
505.83	0.630
506.03	0.632
506.23	0.635
506.43	0.634
506.63	0.633
506.83	0.631
507.03	0.634
507.23	0.634
507.43	0.631
507.63	0.633
507.83	0.633
508.03	0.634
508.23	0.632
508.43	0.631
508.63	0.633
508.83	0.634
509.03	0.635
509.23	0.634
509.43	0.635
509.63	0.636
509.83	0.634
510.03	0.636
510.23	0.638
510.43	0.639
510.63	0.639
510.83	0.639
511.03	0.640
511.23	0.638
511.43	0.637
511.63	0.639
511.83	0.641
512.03	0.642
512.22	0.639
512.42	0.639
512.62	0.640
512.82	0.639
513.02	0.637
513.22	0.637
513.42	0.639
513.62	0.642
513.82	0.639
514.02	0.639
514.22	0.640
514.42	0.640
514.62	0.639
514.82	0.640
515.02	0.643
515.22	0.646
515.42	0.645
515.62	0.647
515.82	0.646
516.02	0.648
516.22	0.647
516.42	0.649
516.62	0.650
516.82	0.651
517.01	0.649
517.21	0.648
517.41	0.651
517.61	0.652
517.81	0.648
518.01	0.647
518.21	0.648
518.41	0.647
518.61	0.645
518.81	0.646
519.01	0.647
519.21	0.647
519.41	0.646
519.61	0.640
519.81	0.643
520.00	0.643
520.20	0.643
520.40	0.646
520.60	0.647
520.80	0.646
521.00	0.646
521.20	0.647
521.40	0.652
521.60	0.653
521.80	0.652
522.00	0.652
522.20	0.655
522.39	0.654
522.59	0.651
522.79	0.652
522.99	0.654
523.19	0.652
523.39	0.650
523.59	0.648
523.79	0.651
523.99	0.654
524.19	0.652
524.38	0.651
524.58	0.653
524.78	0.654
524.98	0.652
525.18	0.654
525.38	0.656
525.58	0.656
525.78	0.654
525.98	0.652
526.18	0.653
526.37	0.652
526.57	0.654
526.77	0.653
526.97	0.654
527.17	0.655
527.37	0.651
527.57	0.652
527.77	0.655
527.96	0.655
528.16	0.653
528.36	0.654
528.56	0.656
528.76	0.654
528.96	0.652
529.16	0.653
529.36	0.657
529.55	0.657
529.75	0.654
529.95	0.654
530.15	0.656
530.35	0.659
530.55	0.656
530.75	0.656
530.94	0.659
531.14	0.659
531.34	0.657
531.54	0.655
531.74	0.659
531.94	0.662
532.13	0.659
532.33	0.661
532.53	0.660
532.73	0.659
532.93	0.657
533.13	0.658
533.33	0.659
533.52	0.659
533.72	0.662
533.92	0.660
534.12	0.658
534.32	0.658
534.52	0.656
534.71	0.657
534.91	0.661
535.11	0.663
535.31	0.661
535.51	0.663
535.71	0.665
535.90	0.662
536.10	0.664
536.30	0.665
536.50	0.667
536.70	0.667
536.89	0.665
537.09	0.664
537.29	0.665
537.49	0.666
537.69	0.663
537.89	0.663
538.08	0.663
538.28	0.661
538.48	0.661
538.68	0.663
538.88	0.665
539.07	0.665
539.27	0.663
539.47	0.662
539.67	0.663
539.87	0.664
540.06	0.662
540.26	0.663
540.46	0.665
540.66	0.663
540.86	0.660
541.05	0.660
541.25	0.662
541.45	0.663
541.65	0.661
541.84	0.662
542.04	0.663
542.24	0.664
542.44	0.663
542.64	0.663
542.83	0.667
543.03	0.667
543.23	0.664
543.43	0.665
543.62	0.666
543.82	0.667
544.02	0.665
544.22	0.664
544.42	0.668
544.61	0.669
544.81	0.666
545.01	0.664
545.21	0.667
545.40	0.667
545.60	0.665
545.80	0.669
546.00	0.669
546.19	0.669
546.39	0.668
546.59	0.665
546.79	0.667
546.98	0.668
547.18	0.667
547.38	0.668
547.58	0.671
547.77	0.672
547.97	0.667
548.17	0.669
548.37	0.670
548.56	0.670
548.76	0.669
548.96	0.672
549.16	0.674
549.35	0.674
549.55	0.670
549.75	0.671
549.95	0.674
550.14	0.675
550.34	0.672
550.54	0.677
550.73	0.681
550.93	0.681
551.13	0.677
551.33	0.675
551.52	0.677
551.72	0.678
551.92	0.675
552.12	0.676
552.31	0.677
552.51	0.677
552.71	0.672
552.90	0.672
553.10	0.673
553.30	0.674
553.50	0.673
553.69	0.674
553.89	0.675
554.09	0.675
554.28	0.672
554.48	0.674
554.68	0.676
554.87	0.677
555.07	0.672
555.27	0.672
555.47	0.674
555.66	0.674
555.86	0.672
556.06	0.675
556.25	0.677
556.45	0.685
556.65	0.683
556.84	0.686
557.04	0.689
557.24	0.691
557.43	0.691
557.63	0.693
557.83	0.695
558.02	0.696
558.22	0.700
558.42	0.700
558.61	0.693
558.81	0.693
559.01	0.689
559.21	0.688
559.40	0.689
559.60	0.689
559.80	0.685
559.99	0.687
560.19	0.689
560.39	0.683
560.58	0.680
560.78	0.680
560.97	0.684
561.17	0.683
561.37	0.681
561.56	0.681
561.76	0.683
561.96	0.682
562.15	0.679
562.35	0.681
562.55	0.683
562.74	0.683
562.94	0.681
563.14	0.679
563.33	0.680
563.53	0.680
563.73	0.678
563.92	0.680
564.12	0.683
564.31	0.685
564.51	0.684
564.71	0.685
564.90	0.689
565.10	0.690
565.30	0.692
565.49	0.693
565.69	0.696
565.89	0.695
566.08	0.692
566.28	0.693
566.47	0.696
566.67	0.693
566.87	0.689
567.06	0.691
567.26	0.697
567.46	0.692
567.65	0.691
567.85	0.693
568.04	0.696
568.24	0.696
568.44	0.692
568.63	0.690
568.83	0.692
569.02	0.691
569.22	0.686
569.42	0.683
569.61	0.685
569.81	0.684
570.00	0.681
570.20	0.682
570.40	0.684
570.59	0.684
570.79	0.682
570.98	0.680
571.18	0.681
571.38	0.681
571.57	0.677
571.77	0.675
571.96	0.679
572.16	0.676
572.35	0.670
572.55	0.671
572.75	0.670
572.94	0.670
573.14	0.668
573.33	0.669
573.53	0.670
573.73	0.670
573.92	0.667
574.12	0.665
574.31	0.669
574.51	0.670
574.70	0.666
574.90	0.668
575.09	0.670
575.29	0.670
575.49	0.667
575.68	0.668
575.88	0.669
576.07	0.671
576.27	0.669
576.46	0.668
576.66	0.667
576.86	0.667
577.05	0.664
577.25	0.662
577.44	0.664
577.64	0.664
577.83	0.662
578.03	0.662
578.22	0.662
578.42	0.660
578.61	0.658
578.81	0.659
579.00	0.660
579.20	0.660
579.40	0.659
579.59	0.658
579.79	0.658
579.98	0.658
580.18	0.657
580.37	0.658
580.57	0.661
580.76	0.665
580.96	0.663
581.15	0.663
581.35	0.665
581.54	0.665
581.74	0.664
581.93	0.665
582.13	0.666
582.32	0.664
582.52	0.662
582.71	0.661
582.91	0.658
583.10	0.658
583.30	0.657
583.49	0.656
583.69	0.661
583.88	0.662
584.08	0.661
584.27	0.663
584.47	0.666
584.66	0.666
584.86	0.665
585.05	0.667
585.25	0.670
585.44	0.669
585.64	0.667
585.83	0.664
586.03	0.666
586.22	0.664
586.42	0.661
586.61	0.663
586.81	0.666
587.00	0.666
587.20	0.663
587.39	0.664
587.59	0.666
587.78	0.668
587.98	0.667
588.17	0.668
588.37	0.670
588.56	0.672
588.76	0.668
588.95	0.668
589.15	0.672
589.34	0.674
589.54	0.672
589.73	0.672
589.92	0.676
590.12	0.676
590.31	0.673
590.51	0.678
590.70	0.680
590.90	0.680
591.09	0.677
591.29	0.676
591.48	0.677
591.68	0.677
591.87	0.674
592.06	0.674
592.26	0.677
592.45	0.676
592.65	0.669
592.84	0.669
593.04	0.672
593.23	0.674
593.43	0.671
593.62	0.671
593.81	0.673
594.01	0.673
594.20	0.670
594.40	0.669
594.59	0.672
594.79	0.673
594.98	0.672
595.17	0.670
595.37	0.672
595.56	0.673
595.76	0.671
595.95	0.672
596.14	0.675
596.34	0.676
596.53	0.674
596.73	0.675
596.92	0.676
597.12	0.678
597.31	0.678
597.50	0.676
597.70	0.679
597.89	0.679
598.09	0.675
598.28	0.677
598.47	0.680
598.67	0.679
598.86	0.675
599.06	0.677
599.25	0.678
599.44	0.677
599.64	0.674
599.83	0.672
600.03	0.675
600.22	0.676
600.41	0.675
600.61	0.673
600.80	0.676
601.00	0.676
601.19	0.672
601.38	0.670
601.58	0.673
601.77	0.674
601.96	0.676
602.16	0.676
602.35	0.685
602.55	0.683
602.74	0.683
602.93	0.684
603.13	0.690
603.32	0.692
603.51	0.691
603.71	0.694
603.90	0.697
604.09	0.697
604.29	0.693
604.48	0.687
604.68	0.689
604.87	0.687
605.06	0.683
605.26	0.680
605.45	0.681
605.64	0.680
605.84	0.675
606.03	0.674
606.22	0.674
606.42	0.674
606.61	0.670
606.80	0.670
607.00	0.673
607.19	0.673
607.38	0.672
607.58	0.673
607.77	0.675
607.96	0.675
608.16	0.673
608.35	0.678
608.54	0.682
608.74	0.685
608.93	0.690
609.12	0.693
609.32	0.696
609.51	0.699
609.70	0.698
609.90	0.700
610.09	0.705
610.28	0.711
610.48	0.703
610.67	0.705
610.86	0.705
611.06	0.699
611.25	0.696
611.44	0.696
611.64	0.697
611.83	0.699
612.02	0.695
612.21	0.693
612.41	0.692
612.60	0.691
612.79	0.687
612.99	0.687
613.18	0.689
613.37	0.687
613.57	0.685
613.76	0.686
613.95	0.685
614.14	0.685
614.34	0.683
614.53	0.684
614.72	0.688
614.92	0.688
615.11	0.685
615.30	0.682
615.49	0.684
615.69	0.686
615.88	0.682
616.07	0.683
616.26	0.685
616.46	0.685
616.65	0.681
616.84	0.680
617.04	0.682
617.23	0.685
617.42	0.686
617.61	0.690
617.81	0.691
618.00	0.693
618.19	0.691
618.38	0.696
618.58	0.700
618.77	0.702
618.96	0.700
619.15	0.702
619.35	0.704
619.54	0.704
619.73	0.699
619.92	0.701
620.12	0.705
620.31	0.705
620.50	0.699
620.69	0.699
620.89	0.703
621.08	0.703
621.27	0.703
621.46	0.702
621.66	0.707
621.85	0.707
622.04	0.703
622.23	0.704
622.43	0.705
622.62	0.705
622.81	0.704
623.00	0.703
623.19	0.708
623.39	0.708
623.58	0.704
623.77	0.703
623.96	0.707
624.16	0.707
624.35	0.701
624.54	0.705
624.73	0.709
624.92	0.706
625.12	0.703
625.31	0.702
625.50	0.706
625.69	0.706
625.88	0.702
626.08	0.701
626.27	0.703
626.46	0.703
626.65	0.699
626.84	0.699
627.04	0.706
627.23	0.706
627.42	0.701
627.61	0.703
627.80	0.708
628.00	0.709
628.19	0.707
628.38	0.710
628.57	0.714
628.76	0.713
628.96	0.709
629.15	0.710
629.34	0.714
629.53	0.714
629.72	0.707
629.91	0.707
630.11	0.713
630.30	0.713
630.49	0.714
630.68	0.716
630.87	0.720
631.06	0.723
631.26	0.717
631.45	0.719
631.64	0.729
631.83	0.731
632.02	0.727
632.21	0.726
632.41	0.734
632.60	0.729
632.79	0.726
632.98	0.726
633.17	0.728
633.36	0.729
633.55	0.724
633.75	0.719
633.94	0.721
634.13	0.721
634.32	0.717
634.51	0.711
634.70	0.714
634.89	0.713
635.09	0.709
635.28	0.711
635.47	0.713
635.66	0.717
635.85	0.712
636.04	0.713
636.23	0.720
636.43	0.721
636.62	0.720
636.81	0.719
637.00	0.723
637.19	0.726
637.38	0.721
637.57	0.721
637.76	0.723
637.95	0.725
638.15	0.720
638.34	0.716
638.53	0.721
638.72	0.723
638.91	0.720
639.10	0.716
639.29	0.718
639.48	0.719
639.67	0.719
639.87	0.718
640.06	0.724
640.25	0.725
640.44	0.724
640.63	0.724
640.82	0.727
641.01	0.726
641.20	0.726
641.39	0.727
641.58	0.730
641.78	0.727
641.97	0.722
642.16	0.736
642.35	0.738
642.54	0.737
642.73	0.731
642.92	0.730
643.11	0.735
643.30	0.735
643.49	0.730
643.68	0.732
643.87	0.735
644.06	0.736
644.25	0.714
644.45	0.716
644.64	0.718
644.83	0.719
645.02	0.713
645.21	0.712
645.40	0.715
645.59	0.715
645.78	0.709
645.97	0.710
646.16	0.712
646.35	0.712
646.54	0.709
646.73	0.710
646.92	0.713
647.11	0.711
647.30	0.707
647.49	0.709
647.68	0.709
647.88	0.708
648.07	0.699
648.26	0.703
648.45	0.706
648.64	0.702
648.83	0.699
649.02	0.701
649.21	0.714
649.40	0.713
649.59	0.707
649.78	0.707
649.97	0.723
650.16	0.724
650.35	0.717
650.54	0.719
650.73	0.728
650.92	0.725
651.11	0.717
651.30	0.714
651.49	0.719
651.68	0.718
651.87	0.715
652.06	0.703
652.25	0.707
652.44	0.708
652.63	0.703
652.82	0.702
653.01	0.701
653.20	0.699
653.39	0.685
653.58	0.683
653.77	0.683
653.96	0.678
654.15	0.670
654.34	0.668
654.53	0.665
654.72	0.659
654.91	0.650
655.10	0.647
655.29	0.646
655.48	0.644
655.67	0.639
655.86	0.637
656.05	0.636
656.24	0.636
656.43	0.630
656.62	0.630
656.81	0.632
657.00	0.631
657.19	0.628
657.38	0.629
657.57	0.629
657.76	0.632
657.95	0.630
658.14	0.633
658.33	0.636
658.51	0.642
658.70	0.643
658.89	0.643
659.08	0.652
659.27	0.659
659.46	0.658
659.65	0.665
659.84	0.668
660.03	0.671
660.22	0.671
660.41	0.676
660.60	0.675
660.79	0.676
660.98	0.681
661.17	0.680
661.36	0.681
661.55	0.681
661.74	0.677
661.92	0.680
662.11	0.683
662.30	0.682
662.49	0.674
662.68	0.674
662.87	0.677
663.06	0.671
663.25	0.672
663.44	0.672
663.63	0.674
663.82	0.673
664.01	0.668
664.20	0.666
664.38	0.668
664.57	0.669
664.76	0.668
664.95	0.668
665.14	0.674
665.33	0.669
665.52	0.675
665.71	0.678
665.90	0.679
666.09	0.680
666.28	0.677
666.46	0.677
666.65	0.678
666.84	0.677
667.03	0.671
667.22	0.668
667.41	0.672
667.60	0.661
667.79	0.654
667.98	0.656
668.16	0.657
668.35	0.657
668.54	0.651
668.73	0.653
668.92	0.654
669.11	0.653
669.30	0.646
669.49	0.642
669.67	0.645
669.86	0.648
670.05	0.644
670.24	0.642
670.43	0.640
670.62	0.640
670.81	0.634
671.00	0.636
671.18	0.636
671.37	0.636
671.56	0.632
671.75	0.632
671.94	0.629
672.13	0.627
672.32	0.622
672.50	0.622
672.69	0.622
672.88	0.622
673.07	0.617
673.26	0.619
673.45	0.620
673.63	0.620
673.82	0.615
674.01	0.617
674.20	0.618
674.39	0.617
674.58	0.615
674.76	0.615
674.95	0.614
675.14	0.614
675.33	0.609
675.52	0.607
675.71	0.608
675.89	0.608
676.08	0.603
676.27	0.603
676.46	0.604
676.65	0.604
676.84	0.604
677.02	0.606
677.21	0.609
677.40	0.607
677.59	0.604
677.78	0.606
677.96	0.608
678.15	0.608
678.34	0.605
678.53	0.606
678.72	0.606
678.90	0.602
679.09	0.598
679.28	0.594
679.47	0.595
679.66	0.595
679.84	0.590
680.03	0.588
680.22	0.587
680.41	0.589
680.60	0.585
680.78	0.584
680.97	0.587
681.16	0.587
681.35	0.586
681.53	0.585
681.72	0.587
681.91	0.589
682.10	0.586
682.29	0.589
682.47	0.587
682.66	0.587
682.85	0.585
683.04	0.583
683.22	0.583
683.41	0.585
683.60	0.583
683.79	0.584
683.97	0.584
684.16	0.583
684.35	0.578
684.54	0.580
684.72	0.580
684.91	0.581
685.10	0.579
685.29	0.580
685.47	0.577
685.66	0.577
685.85	0.573
686.04	0.572
686.22	0.574
686.41	0.577
686.60	0.574
686.79	0.576
686.97	0.577
687.16	0.579
687.35	0.577
687.54	0.580
687.72	0.584
687.91	0.584
688.10	0.586
688.29	0.585
688.47	0.584
688.66	0.584
688.85	0.579
689.03	0.577
689.22	0.582
689.41	0.582
689.60	0.577
689.78	0.575
689.97	0.575
690.16	0.572
690.34	0.569
690.53	0.568
690.72	0.569
690.91	0.567
691.09	0.565
691.28	0.559
691.47	0.557
691.65	0.556
691.84	0.552
692.03	0.552
692.21	0.550
692.40	0.550
692.59	0.547
692.77	0.546
692.96	0.548
693.15	0.548
693.34	0.546
693.52	0.546
693.71	0.547
693.90	0.549
694.08	0.549
694.27	0.550
694.46	0.560
694.64	0.561
694.83	0.561
695.02	0.559
695.20	0.559
695.39	0.558
695.58	0.558
695.76	0.559
695.95	0.559
696.14	0.558
696.32	0.556
696.51	0.546
696.70	0.546
696.88	0.547
697.07	0.546
697.26	0.548
697.44	0.549
697.63	0.548
697.81	0.545
698.00	0.544
698.19	0.545
698.37	0.544
698.56	0.544
698.75	0.543
698.93	0.543
699.12	0.543
699.31	0.541
699.49	0.540
699.68	0.542
699.87	0.545
700.05	0.544
700.24	0.542
700.42	0.544
700.61	0.543
700.80	0.541
700.98	0.541
701.17	0.542
701.36	0.541
701.54	0.540
701.73	0.542
701.91	0.540
702.10	0.539
702.29	0.536
702.47	0.535
702.66	0.537
702.84	0.539
703.03	0.537
703.22	0.539
703.40	0.540
703.59	0.541
703.77	0.539
703.96	0.539
704.15	0.540
704.33	0.541
704.52	0.540
704.70	0.540
704.89	0.540
705.08	0.538
705.26	0.533
705.45	0.534
705.63	0.534
705.82	0.531
706.00	0.529
706.19	0.528
706.38	0.529
706.56	0.527
706.75	0.525
706.93	0.524
707.12	0.525
707.30	0.526
707.49	0.523
707.68	0.521
707.86	0.521
708.05	0.521
708.23	0.518
708.42	0.518
708.60	0.522
708.79	0.522
708.98	0.521
709.16	0.520
709.35	0.523
709.53	0.527
709.72	0.526
709.90	0.527
710.09	0.529
710.27	0.531
710.46	0.535
710.64	0.532
710.83	0.534
711.02	0.535
711.20	0.533
711.39	0.531
711.57	0.529
711.76	0.529
711.94	0.527
712.13	0.528
712.31	0.527
712.50	0.523
712.68	0.520
712.87	0.521
713.05	0.521
713.24	0.522
713.42	0.520
713.61	0.521
713.79	0.523
713.98	0.523
714.16	0.523
714.35	0.523
714.54	0.525
714.72	0.525
714.91	0.522
715.09	0.529
715.28	0.533
715.46	0.533
715.65	0.530
715.83	0.531
716.02	0.534
716.20	0.530
716.39	0.529
716.57	0.531
716.76	0.533
716.94	0.533
717.12	0.525
717.31	0.526
717.49	0.530
717.68	0.532
717.86	0.529
718.05	0.531
718.23	0.534
718.42	0.536
718.60	0.537
718.79	0.546
718.97	0.549
719.16	0.550
719.34	0.547
719.53	0.547
719.71	0.547
719.90	0.550
720.08	0.546
720.27	0.547
720.45	0.548
720.63	0.546
720.82	0.539
721.00	0.541
721.19	0.545
721.37	0.544
721.56	0.543
721.74	0.545
721.93	0.554
722.11	0.559
722.30	0.558
722.48	0.562
722.66	0.564
722.85	0.563
723.03	0.563
723.22	0.561
723.40	0.565
723.59	0.565
723.77	0.569
723.95	0.563
724.14	0.567
724.32	0.568
724.51	0.567
724.69	0.569
724.88	0.570
725.06	0.567
725.24	0.569
725.43	0.570
725.61	0.573
725.80	0.566
725.98	0.562
726.16	0.558
726.35	0.565
726.53	0.563
726.72	0.561
726.90	0.573
727.09	0.573
727.27	0.579
727.45	0.576
727.64	0.585
727.82	0.595
728.01	0.599
728.19	0.595
728.37	0.600
728.56	0.604
728.74	0.611
728.92	0.597
729.11	0.601
729.29	0.600
729.48	0.602
729.66	0.590
729.84	0.591
730.03	0.598
730.21	0.600
730.40	0.589
730.58	0.592
730.76	0.593
730.95	0.596
731.13	0.594
731.31	0.608
731.50	0.617
731.68	0.620
731.86	0.614
732.05	0.626
732.23	0.630
732.42	0.634
732.60	0.637
732.78	0.642
732.97	0.662
733.15	0.668
733.33	0.654
733.52	0.662
733.70	0.676
733.88	0.686
734.07	0.672
734.25	0.700
734.43	0.711
734.62	0.714
734.80	0.707
734.98	0.695
735.17	0.705
735.35	0.713
735.53	0.699
735.72	0.701
735.90	0.725
736.08	0.746
736.27	0.717
736.45	0.727
736.63	0.742
736.82	0.754
737.00	0.754
737.18	0.765
737.37	0.801
737.55	0.827
737.73	0.818
737.92	0.821
738.10	0.820
738.28	0.844
738.46	0.829
738.65	0.842
738.83	0.865
739.01	0.921
739.20	0.908
739.38	0.889
739.56	0.883
739.75	0.886
739.93	0.845
740.11	0.872
740.29	0.877
740.48	0.881
740.66	0.851
740.84	0.846
741.03	0.815
741.21	0.827
741.39	0.802
741.57	0.814
741.76	0.837
741.94	0.847
742.12	0.807
742.31	0.810
742.49	0.840
742.67	0.870
742.85	0.886
743.04	0.891
743.22	0.903
743.40	0.969
743.58	0.945
743.77	0.965
743.95	1.008
744.13	1.063
744.31	1.036
744.50	1.026
744.68	1.034
744.86	1.002
745.04	1.015
745.23	1.095
745.41	1.077
745.59	1.084
745.77	1.036
745.96	1.022
746.14	1.040
746.32	1.041
746.50	1.026
746.69	1.001
746.87	1.022
747.05	0.999
747.23	0.909
747.42	0.893
747.60	0.928
747.78	0.932
747.96	0.960
748.14	0.909
748.33	0.942
748.51	0.932
748.69	0.922
748.87	0.951
749.06	0.952
749.24	0.955
749.42	0.937
749.60	0.915
749.78	0.930
749.97	0.883
750.15	0.877
750.33	0.879
750.51	0.917
750.69	0.922
750.88	0.924
751.06	0.938
751.24	0.971
751.42	0.956
751.60	0.942
751.79	1.030
751.97	1.093
752.15	1.089
752.33	1.049
752.51	1.128
752.69	1.163
752.88	1.118
753.06	1.164
753.24	1.135
753.42	1.189
753.60	1.437
753.78	1.201
753.97	1.222
754.15	1.254
754.33	1.290
754.51	1.110
754.69	1.086
754.87	1.124
755.06	1.042
755.24	1.039
755.42	1.050
755.60	0.938
755.78	0.952
755.96	0.888
756.15	0.890
756.33	0.900
756.51	0.923
756.69	0.901
756.87	0.860
757.05	0.885
757.23	0.867
757.42	0.829
757.60	0.828
757.78	0.820
757.96	0.818
758.14	0.794
758.32	0.776
758.50	0.792
758.69	0.792
758.87	0.784
759.05	0.788
759.23	0.802
759.41	0.803
759.59	0.796
759.77	0.818
759.95	0.852
760.13	0.909
760.32	0.907
760.50	0.901
760.68	0.933
760.86	0.933
761.04	0.898
761.22	0.902
761.40	0.960
761.58	0.961
761.76	0.924
761.95	0.899
762.13	0.854
762.31	0.854
762.49	0.817
762.67	0.836
762.85	0.854
763.03	0.845
763.21	0.820
763.39	0.798
763.57	0.802
763.75	0.798
763.94	0.782
764.12	0.783
764.30	0.809
764.48	0.814
764.66	0.772
764.84	0.770
765.02	0.816
765.20	0.823
765.38	0.801
765.56	0.807
765.74	0.854
765.92	0.854
766.10	0.862
766.28	0.854
766.46	0.885
766.65	0.889
766.83	0.871
767.01	0.850
767.19	0.865
767.37	0.865
767.55	0.846
767.73	0.824
767.91	0.830
768.09	0.814
768.27	0.799
768.45	0.790
768.63	0.796
768.81	0.799
768.99	0.771
769.17	0.795
769.35	0.813
769.53	0.814
769.71	0.791
769.89	0.804
770.07	0.814
770.25	0.797
770.43	0.772
770.61	0.800
770.79	0.809
770.97	0.818
771.15	0.780
771.33	0.784
771.51	0.789
771.69	0.802
771.87	0.802
772.05	0.809
772.24	0.821
772.42	0.831
772.60	0.801
772.78	0.864
772.96	0.901
773.14	0.897
773.32	0.867
773.49	0.875
773.67	0.871
773.85	0.851
774.03	0.836
774.21	0.871
774.39	0.888
774.57	0.915
774.75	0.834
774.93	0.828
775.11	0.857
775.29	0.865
775.47	0.864
775.65	0.879
775.83	0.900
776.01	0.926
776.19	0.869
776.37	0.867
776.55	0.866
776.73	0.862
776.91	0.851
777.09	0.832
777.27	0.835
777.45	0.821
777.63	0.792
777.81	0.792
777.99	0.778
778.17	0.779
778.35	0.756
778.53	0.747
778.71	0.755
778.89	0.743
779.07	0.730
779.24	0.733
779.42	0.738
779.60	0.761
779.78	0.753
779.96	0.757
780.14	0.767
780.32	0.790
780.50	0.768
780.68	0.770
780.86	0.763
781.04	0.780
781.22	0.785
781.40	0.798
781.58	0.787
781.75	0.778
781.93	0.759
782.11	0.759
782.29	0.745
782.47	0.744
782.65	0.728
782.83	0.760
783.01	0.756
783.19	0.748
783.37	0.730
783.55	0.734
783.72	0.758
783.90	0.769
784.08	0.758
784.26	0.773
784.44	0.797
784.62	0.797
784.80	0.759
784.98	0.765
785.16	0.773
785.33	0.787
785.51	0.769
785.69	0.751
785.87	0.753
786.05	0.764
786.23	0.758
786.41	0.756
786.59	0.766
786.77	0.764
786.94	0.748
787.12	0.749
787.30	0.752
787.48	0.749
787.66	0.736
787.84	0.736
788.02	0.727
788.19	0.723
788.37	0.706
788.55	0.707
788.73	0.709
788.91	0.702
789.09	0.685
789.27	0.675
789.44	0.688
789.62	0.694
789.80	0.704
789.98	0.731
790.16	0.717
790.34	0.715
790.51	0.701
790.69	0.724
790.87	0.734
791.05	0.731
791.23	0.721
791.41	0.723
791.58	0.732
791.76	0.707
791.94	0.671
792.12	0.682
792.30	0.685
792.48	0.681
792.65	0.671
792.83	0.679
793.01	0.689
793.19	0.687
793.37	0.670
793.54	0.667
793.72	0.681
793.90	0.682
794.08	0.669
794.26	0.672
794.43	0.684
794.61	0.666
794.79	0.652
794.97	0.651
795.15	0.660
795.32	0.665
795.50	0.651
795.68	0.647
795.86	0.651
796.04	0.653
796.21	0.644
796.39	0.643
796.57	0.661
796.75	0.668
796.92	0.667
797.10	0.672
797.28	0.676
797.46	0.678
797.64	0.676
797.81	0.686
797.99	0.692
798.17	0.698
798.35	0.689
798.52	0.692
798.70	0.690
798.88	0.699
799.06	0.696
799.23	0.698
799.41	0.708
799.59	0.700
799.77	0.686
799.94	0.696
800.12	0.708
800.30	0.726
800.48	0.723
800.65	0.722
800.83	0.715
801.01	0.706
801.19	0.703
801.36	0.702
801.54	0.708
801.72	0.718
801.90	0.699
802.07	0.692
802.25	0.678
802.43	0.662
802.60	0.656
802.78	0.662
802.96	0.671
803.14	0.663
803.31	0.658
803.49	0.657
803.67	0.654
803.84	0.659
804.02	0.649
804.20	0.652
804.38	0.657
804.55	0.655
804.73	0.639
804.91	0.638
805.08	0.653
805.26	0.649
805.44	0.708
805.61	0.715
805.79	0.718
805.97	0.717
806.15	0.708
806.32	0.704
806.50	0.714
806.68	0.714
806.85	0.705
807.03	0.696
807.21	0.717
807.38	0.653
807.56	0.638
807.74	0.648
807.91	0.656
808.09	0.657
808.27	0.677
808.44	0.704
808.62	0.716
808.80	0.715
808.97	0.708
809.15	0.700
809.33	0.719
809.50	0.728
809.68	0.709
809.86	0.716
810.03	0.754
810.21	0.730
810.39	0.711
810.56	0.716
810.74	0.745
810.91	0.825
811.09	0.812
811.27	0.837
811.44	0.850
811.62	0.853
811.80	0.837
811.97	0.799
812.15	0.799
812.33	0.793
812.50	0.774
812.68	0.760
812.85	0.699
813.03	0.702
813.21	0.665
813.38	0.656
813.56	0.660
813.74	0.670
813.91	0.679
814.09	0.714
814.26	0.708
814.44	0.713
814.62	0.700
814.79	0.704
814.97	0.712
815.14	0.716
815.32	0.718
815.50	0.736
815.67	0.743
815.85	0.731
816.02	0.715
816.20	0.724
816.38	0.740
816.55	0.748
816.73	0.747
816.90	0.757
817.08	0.796
817.26	0.804
817.43	0.778
817.61	0.801
817.78	0.830
817.96	0.807
818.13	0.794
818.31	0.796
818.49	0.813
818.66	0.801
818.84	0.782
819.01	0.759
819.19	0.770
819.36	0.772
819.54	0.740
819.71	0.785
819.89	0.801
820.07	0.816
820.24	0.805
820.42	0.805
820.59	0.832
820.77	0.861
820.94	0.844
821.12	0.865
821.29	0.887
821.47	0.885
821.64	0.808
821.82	0.827
822.00	0.825
822.17	0.825
822.35	0.812
822.52	0.817
822.70	0.802
822.87	0.815
823.05	0.786
823.22	0.803
823.40	0.839
823.57	0.866
823.75	0.838
823.92	0.870
824.10	0.895
824.27	0.940
824.45	0.922
824.62	0.999
824.80	1.030
824.97	1.051
825.15	1.026
825.32	1.045
825.50	1.058
825.67	1.074
825.85	1.037
826.02	1.061
826.20	1.111
826.37	1.303
826.55	1.175
826.72	1.496
826.90	1.697
827.07	1.871
827.25	1.660
827.42	2.422
827.60	-0.000
827.77	-0.000
827.95	-0.000
828.12	-0.000
828.30	-0.000
828.47	-0.000
828.65	1.631
828.82	1.815
829.00	2.347
829.17	-0.000
829.34	-0.000
829.52	-0.000
829.69	-0.000
829.87	-0.000
830.04	-0.000
830.22	-0.000
830.39	-0.000
830.57	-0.000
830.74	-0.000
830.92	-0.000
831.09	-0.000
831.26	-0.000
831.44	-0.000
831.61	-0.000
831.79	-0.000
831.96	-0.000
832.14	-0.000
832.31	-0.000
832.49	-0.000
832.66	-0.000
832.83	-0.000
833.01	-0.000
833.18	-0.000
833.36	-0.000
833.53	-0.000
833.70	-0.000
833.88	-0.000
834.05	-0.000
834.23	-0.000
834.40	-0.000
834.58	-0.000
834.75	-0.000
834.92	-0.000
835.10	-0.000
835.27	-0.000
835.45	-0.000
835.62	-0.000
835.79	-0.000
835.97	-0.000
836.14	-0.000
836.32	-0.000
836.49	-0.000
836.66	-0.000
836.84	-0.000
837.01	-0.000
837.18	-0.000
837.36	-0.000
837.53	-0.000
837.71	-0.000
837.88	-0.000
838.05	-0.000
838.23	-0.000
838.40	-0.000
838.58	-0.000
838.75	-0.000
838.92	-0.000
839.10	-0.000
839.27	-0.000
839.44	-0.000
839.62	-0.000
839.79	-0.000
839.96	-0.000
840.14	-0.000
840.31	-0.000
840.48	-0.000
840.66	-0.000
840.83	-0.000
841.01	-0.000
841.18	-0.000
841.35	-0.000
841.53	-0.000
841.70	-0.000
841.87	-0.000
842.05	-0.000
842.22	-0.000
842.39	-0.000
842.57	-0.000
842.74	-0.000
842.91	-0.000
843.09	-0.000
843.26	-0.000
843.43	-0.000
843.60	-0.000
843.78	-0.000
843.95	-0.000
844.12	-0.000
844.30	-0.000
844.47	-0.000
844.64	-0.000
844.82	-0.000
844.99	-0.000
845.16	-0.000
845.34	-0.000
845.51	-0.000
845.68	-0.000
845.85	-0.000
846.03	-0.000
846.20	-0.000
846.37	-0.000
846.55	-0.000
846.72	-0.000
846.89	-0.000
847.06	-0.000
847.24	-0.000
847.41	-0.000
847.58	-0.000
847.76	-0.000
847.93	-0.000
848.10	-0.000
848.27	-0.000
848.45	-0.000
848.62	-0.000
848.79	-0.000
848.97	-0.000
849.14	-0.000
849.31	-0.000
849.48	-0.000
849.66	-0.000
849.83	-0.000
850.00	-0.000
850.17	-0.000
850.35	-0.000
850.52	-0.000
850.69	-0.000
850.86	-0.000
851.04	-0.000
851.21	-0.000
851.38	-0.000
851.55	-0.000
851.72	-0.000
851.90	-0.000
852.07	-0.000
852.24	-0.000
852.41	-0.000
852.59	-0.000
852.76	-0.000
852.93	-0.000
853.10	-0.000
853.28	-0.000
853.45	-0.000
853.62	-0.000
853.79	-0.000
853.96	-0.000
854.14	-0.000
854.31	-0.000
854.48	-0.000
854.65	-0.000
854.82	-0.000
855.00	-0.000
855.17	-0.000
855.34	-0.000
855.51	-0.000
855.68	-0.000
855.86	-0.000
856.03	-0.000
856.20	-0.000
856.37	-0.000
856.54	-0.000
856.72	-0.000
856.89	-0.000
857.06	-0.000
857.23	-0.000
857.40	-0.000
857.57	-0.000
857.75	-0.000
857.92	-0.000
858.09	-0.000
858.26	-0.000
858.43	-0.000
858.60	-0.000
858.78	-0.000
858.95	-0.000
859.12	-0.000
859.29	-0.000
859.46	-0.000
859.63	-0.000
859.81	-0.000
859.98	-0.000
860.15	-0.000
860.32	-0.000
860.49	-0.000
860.66	-0.000
860.83	-0.000
861.01	-0.000
861.18	-0.000
861.35	-0.000
861.52	-0.000
861.69	-0.000
861.86	-0.000
862.03	-0.000
862.21	-0.000
862.38	-0.000
862.55	-0.000
862.72	-0.000
862.89	-0.000
863.06	-0.000
863.23	-0.000
863.40	-0.000
863.58	-0.000
863.75	-0.000
863.92	-0.000
864.09	-0.000
864.26	-0.000
864.43	-0.000
864.60	-0.000
864.77	-0.000
864.94	-0.000
865.11	-0.000
865.29	-0.000
865.46	-0.000
865.63	-0.000
865.80	-0.000
865.97	-0.000
866.14	-0.000
866.31	-0.000
866.48	-0.000
866.65	-0.000
866.82	-0.000
866.99	-0.000
867.16	-0.000
867.34	-0.000
867.51	-0.000
867.68	-0.000
867.85	-0.000
868.02	-0.000
868.19	-0.000
868.36	-0.000
868.53	-0.000
868.70	-0.000
868.87	-0.000
869.04	-0.000
869.21	-0.000
869.38	-0.000
869.55	-0.000
869.72	-0.000
869.89	-0.000
870.06	-0.000
870.24	-0.000
870.41	-0.000
870.58	-0.000
870.75	-0.000
870.92	-0.000
871.09	-0.000
871.26	-0.000
871.43	-0.000
871.60	-0.000
871.77	-0.000
871.94	-0.000
872.11	-0.000
872.28	-0.000
872.45	-0.000
872.62	-0.000
872.79	-0.000
872.96	-0.000
873.13	-0.000
873.30	-0.000
873.47	-0.000
873.64	-0.000
873.81	-0.000
873.98	-0.000
874.15	-0.000
874.32	-0.000
874.49	-0.000
874.66	-0.000
874.83	-0.000
875.00	-0.000
875.17	-0.000
875.34	-0.000
875.51	-0.000
875.68	-0.000
875.85	-0.000
876.02	-0.000
876.19	-0.000
876.36	-0.000
876.53	-0.000
876.70	-0.000
876.87	-0.000
877.04	-0.000
877.21	-0.000
877.38	-0.000
877.55	-0.000
877.72	-0.000
877.89	-0.000
878.06	-0.000
878.23	-0.000
878.39	-0.000
878.56	-0.000
878.73	-0.000
878.90	-0.000
879.07	-0.000
879.24	-0.000
879.41	-0.000
879.58	-0.000
879.75	-0.000
879.92	-0.000
880.09	-0.000
880.26	-0.000
880.43	-0.000
880.60	-0.000
880.77	-0.000
880.94	-0.000
881.11	-0.000
881.27	-0.000
881.44	-0.000
881.61	-0.000
881.78	-0.000
881.95	-0.000
882.12	-0.000
882.29	-0.000
882.46	-0.000
882.63	-0.000
882.80	-0.000
882.97	-0.000
883.14	-0.000
883.30	-0.000
883.47	-0.000
883.64	-0.000
883.81	-0.000
883.98	-0.000
884.15	-0.000
884.32	-0.000
884.49	-0.000
884.66	-0.000
884.82	-0.000
884.99	-0.000
885.16	-0.000
885.33	-0.000
885.50	-0.000
885.67	-0.000
885.84	-0.000
886.01	-0.000
886.17	-0.000
886.34	-0.000
886.51	-0.000
886.68	-0.000
886.85	-0.000
887.02	-0.000
887.19	-0.000
887.36	-0.000
887.52	-0.000
887.69	-0.000
887.86	-0.000
888.03	-0.000
888.20	-0.000
888.37	-0.000
888.54	-0.000
888.70	-0.000
888.87	-0.000
889.04	-0.000
889.21	-0.000
889.38	-0.000
889.55	-0.000
889.71	-0.000
889.88	-0.000
890.05	-0.000
890.22	-0.000
890.39	-0.000
>>>>>End Processed Spectral Data<<<<<
