SpectraSuite Data File
++++++++++++++++++++++++++++++++++++
Date: Fri Jun 19 14:36:23 CEST 2015
User: introlabs
Dark Spectrum Present: Yes
Reference Spectrum Present: Yes
Number of Sampled Component Spectra: 1
Spectrometers: USB4H08886
Integration Time (usec): 745692 (USB4H08886)
Spectra Averaged: 5 (USB4H08886)
Boxcar Smoothing: 5 (USB4H08886)
Correct for Electrical Dark: Yes (USB4H08886)
Strobe/Lamp Enabled: No (USB4H08886)
Correct for Detector Non-linearity: Yes (USB4H08886)
Correct for Stray Light: Yes (USB4H08886)
Number of Pixels in Processed Spectrum: 3648
>>>>>Begin Processed Spectral Data<<<<<
178.14	-0.000
178.36	-0.000
178.57	-0.000
178.79	-0.000
179.01	-0.000
179.22	-0.000
179.44	-0.000
179.65	-0.000
179.87	-0.000
180.08	-0.000
180.30	-0.000
180.52	-0.000
180.73	-0.000
180.95	-0.000
181.16	-0.000
181.38	-0.000
181.59	-0.000
181.81	-0.000
182.03	-0.000
182.24	-0.000
182.46	-0.000
182.67	-0.000
182.89	-0.000
183.10	-0.000
183.32	-0.000
183.54	-0.000
183.75	-0.000
183.97	-0.000
184.18	-0.000
184.40	-0.000
184.61	-0.000
184.83	-0.000
185.04	-0.000
185.26	-0.000
185.48	-0.000
185.69	-0.000
185.91	-0.000
186.12	-0.000
186.34	-0.000
186.55	-0.000
186.77	-0.000
186.98	-0.000
187.20	-0.000
187.42	-0.000
187.63	-0.000
187.85	-0.000
188.06	-0.000
188.28	-0.000
188.49	-0.000
188.71	-0.000
188.92	-0.000
189.14	-0.000
189.36	-0.000
189.57	-0.000
189.79	-0.000
190.00	-0.000
190.22	-0.000
190.43	-0.000
190.65	-0.000
190.86	-0.000
191.08	-0.000
191.29	-0.000
191.51	-0.000
191.72	-0.000
191.94	-0.000
192.16	-0.000
192.37	-0.000
192.59	-0.000
192.80	-0.000
193.02	-0.000
193.23	-0.000
193.45	-0.000
193.66	-0.000
193.88	-0.000
194.09	-0.000
194.31	-0.000
194.52	-0.000
194.74	-0.000
194.95	-0.000
195.17	-0.000
195.38	-0.000
195.60	-0.000
195.81	-0.000
196.03	-0.000
196.25	-0.000
196.46	-0.000
196.68	-0.000
196.89	-0.000
197.11	-0.000
197.32	-0.000
197.54	-0.000
197.75	-0.000
197.97	-0.000
198.18	-0.000
198.40	-0.000
198.61	-0.000
198.83	-0.000
199.04	-0.000
199.26	-0.000
199.47	-0.000
199.69	-0.000
199.90	-0.000
200.12	-0.000
200.33	-0.000
200.55	-0.000
200.76	-0.000
200.98	-0.000
201.19	-0.000
201.41	-0.000
201.62	-0.000
201.84	-0.000
202.05	-0.000
202.27	-0.000
202.48	-0.000
202.70	-0.000
202.91	-0.000
203.13	-0.000
203.34	-0.000
203.56	-0.000
203.77	-0.000
203.99	-0.000
204.20	-0.000
204.42	-0.000
204.63	-0.000
204.85	-0.000
205.06	-0.000
205.28	-0.000
205.49	-0.000
205.71	-0.000
205.92	-0.000
206.14	-0.000
206.35	-0.000
206.56	-0.000
206.78	-0.000
206.99	-0.000
207.21	-0.000
207.42	-0.000
207.64	-0.000
207.85	-0.000
208.07	-0.000
208.28	-0.000
208.50	-0.000
208.71	-0.000
208.93	-0.000
209.14	-0.000
209.36	-0.000
209.57	-0.000
209.79	-0.000
210.00	-0.000
210.22	-0.000
210.43	-0.000
210.64	-0.000
210.86	-0.000
211.07	-0.000
211.29	-0.000
211.50	-0.000
211.72	-0.000
211.93	-0.000
212.15	-0.000
212.36	-0.000
212.58	-0.000
212.79	-0.000
213.01	-0.000
213.22	-0.000
213.43	-0.000
213.65	-0.000
213.86	-0.000
214.08	-0.000
214.29	-0.000
214.51	-0.000
214.72	-0.000
214.94	-0.000
215.15	-0.000
215.36	-0.000
215.58	-0.000
215.79	-0.000
216.01	-0.000
216.22	-0.000
216.44	-0.000
216.65	-0.000
216.87	-0.000
217.08	-0.000
217.29	-0.000
217.51	-0.000
217.72	-0.000
217.94	-0.000
218.15	-0.000
218.37	-0.000
218.58	-0.000
218.80	-0.000
219.01	-0.000
219.22	-0.000
219.44	-0.000
219.65	-0.000
219.87	-0.000
220.08	-0.000
220.30	-0.000
220.51	-0.000
220.72	-0.000
220.94	-0.000
221.15	-0.000
221.37	-0.000
221.58	-0.000
221.79	-0.000
222.01	-0.000
222.22	-0.000
222.44	-0.000
222.65	-0.000
222.87	-0.000
223.08	-0.000
223.29	-0.000
223.51	-0.000
223.72	-0.000
223.94	-0.000
224.15	-0.000
224.36	-0.000
224.58	-0.000
224.79	-0.000
225.01	-0.000
225.22	-0.000
225.44	-0.000
225.65	-0.000
225.86	-0.000
226.08	-0.000
226.29	-0.000
226.51	-0.000
226.72	-0.000
226.93	-0.000
227.15	-0.000
227.36	-0.000
227.58	-0.000
227.79	-0.000
228.00	-0.000
228.22	-0.000
228.43	-0.000
228.65	-0.000
228.86	-0.000
229.07	-0.000
229.29	-0.000
229.50	-0.000
229.72	-0.000
229.93	-0.000
230.14	-0.000
230.36	-0.000
230.57	-0.000
230.78	-0.000
231.00	-0.000
231.21	-0.000
231.43	-0.000
231.64	-0.000
231.85	-0.000
232.07	-0.000
232.28	-0.000
232.50	-0.000
232.71	-0.000
232.92	-0.000
233.14	-0.000
233.35	-0.000
233.56	-0.000
233.78	-0.000
233.99	-0.000
234.21	-0.000
234.42	-0.000
234.63	-0.000
234.85	-0.000
235.06	-0.000
235.27	-0.000
235.49	-0.000
235.70	-0.000
235.91	-0.000
236.13	-0.000
236.34	-0.000
236.56	-0.000
236.77	-0.000
236.98	-0.000
237.20	-0.000
237.41	-0.000
237.62	-0.000
237.84	-0.000
238.05	-0.000
238.26	-0.000
238.48	-0.000
238.69	-0.000
238.91	-0.000
239.12	-0.000
239.33	-0.000
239.55	-0.000
239.76	-0.000
239.97	-0.000
240.19	-0.000
240.40	-0.000
240.61	-0.000
240.83	-0.000
241.04	-0.000
241.25	-0.000
241.47	-0.000
241.68	-0.000
241.89	-0.000
242.11	-0.000
242.32	-0.000
242.53	-0.000
242.75	-0.000
242.96	-0.000
243.17	-0.000
243.39	-0.000
243.60	-0.000
243.81	-0.000
244.03	-0.000
244.24	-0.000
244.45	-0.000
244.67	-0.000
244.88	-0.000
245.09	-0.000
245.31	-0.000
245.52	-0.000
245.73	-0.000
245.95	-0.000
246.16	-0.000
246.37	-0.000
246.59	-0.000
246.80	-0.000
247.01	-0.000
247.23	-0.000
247.44	-0.000
247.65	-0.000
247.87	-0.000
248.08	-0.000
248.29	-0.000
248.51	-0.000
248.72	-0.000
248.93	-0.000
249.15	-0.000
249.36	-0.000
249.57	-0.000
249.78	-0.000
250.00	-0.000
250.21	-0.000
250.42	-0.000
250.64	-0.000
250.85	-0.000
251.06	-0.000
251.28	-0.000
251.49	-0.000
251.70	-0.000
251.92	-0.000
252.13	-0.000
252.34	-0.000
252.55	-0.000
252.77	-0.000
252.98	-0.000
253.19	-0.000
253.41	-0.000
253.62	-0.000
253.83	-0.000
254.05	-0.000
254.26	-0.000
254.47	-0.000
254.68	-0.000
254.90	-0.000
255.11	-0.000
255.32	-0.000
255.54	-0.000
255.75	-0.000
255.96	-0.000
256.17	-0.000
256.39	-0.000
256.60	-0.000
256.81	-0.000
257.03	-0.000
257.24	-0.000
257.45	-0.000
257.66	-0.000
257.88	-0.000
258.09	-0.000
258.30	-0.000
258.51	-0.000
258.73	-0.000
258.94	-0.000
259.15	-0.000
259.37	-0.000
259.58	-0.000
259.79	-0.000
260.00	-0.000
260.22	-0.000
260.43	-0.000
260.64	-0.000
260.85	-0.000
261.07	-0.000
261.28	-0.000
261.49	-0.000
261.71	-0.000
261.92	-0.000
262.13	-0.000
262.34	-0.000
262.56	-0.000
262.77	-0.000
262.98	-0.000
263.19	-0.000
263.41	-0.000
263.62	-0.000
263.83	-0.000
264.04	-0.000
264.26	-0.000
264.47	-0.000
264.68	-0.000
264.89	-0.000
265.11	-0.000
265.32	-0.000
265.53	-0.000
265.74	-0.000
265.96	-0.000
266.17	-0.000
266.38	-0.000
266.59	-0.000
266.81	-0.000
267.02	-0.000
267.23	-0.000
267.44	-0.000
267.65	-0.000
267.87	-0.000
268.08	-0.000
268.29	-0.000
268.50	-0.000
268.72	-0.000
268.93	-0.000
269.14	-0.000
269.35	-0.000
269.57	-0.000
269.78	-0.000
269.99	-0.000
270.20	-0.000
270.41	-0.000
270.63	-0.000
270.84	-0.000
271.05	-0.000
271.26	-0.000
271.48	-0.000
271.69	-0.000
271.90	-0.000
272.11	-0.000
272.32	-0.000
272.54	-0.000
272.75	-0.000
272.96	-0.000
273.17	-0.000
273.39	-0.000
273.60	-0.000
273.81	-0.000
274.02	-0.000
274.23	-0.000
274.45	-0.000
274.66	-0.000
274.87	-0.000
275.08	-0.000
275.29	-0.000
275.51	-0.000
275.72	-0.000
275.93	-0.000
276.14	-0.000
276.35	-0.000
276.57	-0.000
276.78	-0.000
276.99	-0.000
277.20	-0.000
277.41	-0.000
277.63	-0.000
277.84	-0.000
278.05	-0.000
278.26	-0.000
278.47	-0.000
278.69	-0.000
278.90	-0.000
279.11	-0.000
279.32	-0.000
279.53	-0.000
279.74	-0.000
279.96	-0.000
280.17	-0.000
280.38	-0.000
280.59	-0.000
280.80	-0.000
281.02	-0.000
281.23	-0.000
281.44	-0.000
281.65	-0.000
281.86	-0.000
282.07	-0.000
282.29	-0.000
282.50	-0.000
282.71	-0.000
282.92	-0.000
283.13	-0.000
283.35	-0.000
283.56	-0.000
283.77	-0.000
283.98	-0.000
284.19	-0.000
284.40	-0.000
284.62	-0.000
284.83	-0.000
285.04	-0.000
285.25	-0.000
285.46	-0.000
285.67	-0.000
285.88	-0.000
286.10	-0.000
286.31	-0.000
286.52	-0.000
286.73	-0.000
286.94	-0.000
287.15	-0.000
287.37	-0.000
287.58	-0.000
287.79	-0.000
288.00	-0.000
288.21	-0.000
288.42	-0.000
288.63	-0.000
288.85	-0.000
289.06	-0.000
289.27	-0.000
289.48	-0.000
289.69	-0.000
289.90	-0.000
290.11	-0.000
290.33	-0.000
290.54	-0.000
290.75	-0.000
290.96	-0.000
291.17	-0.000
291.38	-0.000
291.59	-0.000
291.81	-0.000
292.02	-0.000
292.23	-0.000
292.44	-0.000
292.65	-0.000
292.86	-0.000
293.07	-0.000
293.28	-0.000
293.50	-0.000
293.71	-0.000
293.92	-0.000
294.13	-0.000
294.34	-0.000
294.55	-0.000
294.76	-0.000
294.97	-0.000
295.19	-0.000
295.40	-0.000
295.61	-0.000
295.82	-0.000
296.03	-0.000
296.24	-0.000
296.45	2.263
296.66	1.833
296.87	1.855
297.09	1.952
297.30	2.267
297.51	1.777
297.72	1.745
297.93	1.874
298.14	1.822
298.35	1.773
298.56	1.735
298.77	1.898
298.99	1.860
299.20	1.818
299.41	1.791
299.62	1.730
299.83	1.717
300.04	1.640
300.25	1.630
300.46	1.679
300.67	1.643
300.88	1.584
301.10	1.583
301.31	1.663
301.52	1.595
301.73	1.536
301.94	1.540
302.15	1.554
302.36	1.506
302.57	1.436
302.78	1.445
302.99	1.491
303.20	1.519
303.41	1.417
303.63	1.398
303.84	1.406
304.05	1.403
304.26	1.338
304.47	1.346
304.68	1.351
304.89	1.343
305.10	1.298
305.31	1.287
305.52	1.325
305.73	1.322
305.94	1.283
306.15	1.274
306.37	1.296
306.58	1.306
306.79	1.275
307.00	1.293
307.21	1.336
307.42	1.328
307.63	1.292
307.84	1.258
308.05	1.295
308.26	1.293
308.47	1.271
308.68	1.267
308.89	1.268
309.10	1.263
309.31	1.227
309.52	1.214
309.73	1.229
309.95	1.222
310.16	1.193
310.37	1.182
310.58	1.201
310.79	1.197
311.00	1.193
311.21	1.194
311.42	1.199
311.63	1.194
311.84	1.176
312.05	1.175
312.26	1.199
312.47	1.211
312.68	1.188
312.89	1.169
313.10	1.176
313.31	1.148
313.52	1.148
313.73	1.148
313.94	1.152
314.15	1.133
314.36	1.112
314.57	1.105
314.78	1.094
314.99	1.087
315.21	1.076
315.42	1.080
315.63	1.092
315.84	1.070
316.05	1.057
316.26	1.062
316.47	1.079
316.68	1.075
316.89	1.055
317.10	1.076
317.31	1.083
317.52	1.084
317.73	1.065
317.94	1.064
318.15	1.117
318.36	1.115
318.57	1.099
318.78	1.089
318.99	1.126
319.20	1.124
319.41	1.086
319.62	1.088
319.83	1.100
320.04	1.095
320.25	1.081
320.46	1.038
320.67	1.041
320.88	1.036
321.09	1.022
321.30	1.007
321.51	1.021
321.72	1.020
321.93	1.003
322.14	0.996
322.35	1.022
322.56	1.025
322.77	1.012
322.98	1.025
323.19	1.035
323.40	1.042
323.61	1.020
323.82	1.015
324.03	1.020
324.24	1.018
324.45	1.005
324.66	0.986
324.87	0.983
325.08	0.983
325.29	0.963
325.50	0.955
325.71	0.960
325.92	0.968
326.13	0.955
326.34	0.956
326.55	0.964
326.76	0.962
326.97	0.951
327.18	0.945
327.39	0.971
327.60	0.972
327.80	0.972
328.01	0.970
328.22	0.969
328.43	0.974
328.64	0.961
328.85	0.966
329.06	0.968
329.27	0.967
329.48	0.963
329.69	0.944
329.90	0.956
330.11	0.949
330.32	0.943
330.53	0.937
330.74	0.935
330.95	0.933
331.16	0.916
331.37	0.924
331.58	0.924
331.79	0.923
332.00	0.913
332.21	0.905
332.42	0.910
332.63	0.901
332.83	0.897
333.04	0.899
333.25	0.912
333.46	0.911
333.67	0.898
333.88	0.900
334.09	0.911
334.30	0.908
334.51	0.899
334.72	0.894
334.93	0.897
335.14	0.896
335.35	0.889
335.56	0.884
335.77	0.893
335.98	0.892
336.18	0.886
336.39	0.879
336.60	0.882
336.81	0.881
337.02	0.881
337.23	0.886
337.44	0.888
337.65	0.890
337.86	0.880
338.07	0.875
338.28	0.879
338.49	0.877
338.70	0.870
338.91	0.876
339.11	0.882
339.32	0.878
339.53	0.866
339.74	0.863
339.95	0.859
340.16	0.858
340.37	0.849
340.58	0.847
340.79	0.850
341.00	0.849
341.21	0.838
341.41	0.839
341.62	0.840
341.83	0.841
342.04	0.836
342.25	0.847
342.46	0.852
342.67	0.851
342.88	0.844
343.09	0.844
343.30	0.851
343.50	0.854
343.71	0.844
343.92	0.843
344.13	0.847
344.34	0.848
344.55	0.832
344.76	0.830
344.97	0.834
345.18	0.833
345.38	0.830
345.59	0.826
345.80	0.827
346.01	0.825
346.22	0.821
346.43	0.814
346.64	0.823
346.85	0.821
347.06	0.816
347.26	0.816
347.47	0.820
347.68	0.815
347.89	0.810
348.10	0.804
348.31	0.811
348.52	0.810
348.73	0.807
348.93	0.803
349.14	0.807
349.35	0.805
349.56	0.799
349.77	0.794
349.98	0.800
350.19	0.798
350.39	0.794
350.60	0.790
350.81	0.806
351.02	0.804
351.23	0.800
351.44	0.802
351.65	0.805
351.86	0.803
352.06	0.801
352.27	0.801
352.48	0.803
352.69	0.802
352.90	0.796
353.11	0.782
353.31	0.790
353.52	0.787
353.73	0.778
353.94	0.779
354.15	0.784
354.36	0.784
354.57	0.776
354.77	0.778
354.98	0.778
355.19	0.777
355.40	0.776
355.61	0.781
355.82	0.785
356.02	0.783
356.23	0.777
356.44	0.779
356.65	0.782
356.86	0.783
357.07	0.776
357.27	0.779
357.48	0.782
357.69	0.777
357.90	0.763
358.11	0.760
358.32	0.765
358.52	0.768
358.73	0.758
358.94	0.761
359.15	0.766
359.36	0.767
359.56	0.762
359.77	0.758
359.98	0.765
360.19	0.765
360.40	0.762
360.61	0.763
360.81	0.762
361.02	0.762
361.23	0.754
361.44	0.752
361.65	0.752
361.85	0.751
362.06	0.751
362.27	0.753
362.48	0.753
362.69	0.754
362.89	0.748
363.10	0.749
363.31	0.753
363.52	0.756
363.73	0.752
363.93	0.751
364.14	0.754
364.35	0.755
364.56	0.745
364.77	0.746
364.97	0.748
365.18	0.749
365.39	0.744
365.60	0.741
365.81	0.741
366.01	0.741
366.22	0.739
366.43	0.737
366.64	0.739
366.84	0.745
367.05	0.742
367.26	0.741
367.47	0.743
367.68	0.743
367.88	0.741
368.09	0.739
368.30	0.742
368.51	0.741
368.71	0.741
368.92	0.746
369.13	0.743
369.34	0.742
369.55	0.741
369.75	0.741
369.96	0.748
370.17	0.747
370.38	0.742
370.58	0.742
370.79	0.747
371.00	0.745
371.21	0.737
371.41	0.743
371.62	0.747
371.83	0.742
372.04	0.739
372.24	0.733
372.45	0.735
372.66	0.735
372.87	0.732
373.07	0.729
373.28	0.729
373.49	0.733
373.70	0.723
373.90	0.722
374.11	0.731
374.32	0.731
374.53	0.730
374.73	0.730
374.94	0.733
375.15	0.733
375.36	0.730
375.56	0.740
375.77	0.739
375.98	0.739
376.19	0.736
376.39	0.730
376.60	0.734
376.81	0.735
377.02	0.732
377.22	0.731
377.43	0.730
377.64	0.730
377.84	0.721
378.05	0.726
378.26	0.732
378.47	0.731
378.67	0.728
378.88	0.726
379.09	0.726
379.30	0.726
379.50	0.724
379.71	0.726
379.92	0.729
380.12	0.729
380.33	0.721
380.54	0.717
380.75	0.724
380.95	0.723
381.16	0.721
381.37	0.722
381.57	0.724
381.78	0.725
381.99	0.725
382.20	0.724
382.40	0.727
382.61	0.728
382.82	0.724
383.02	0.718
383.23	0.721
383.44	0.722
383.64	0.719
383.85	0.721
384.06	0.724
384.27	0.721
384.47	0.720
384.68	0.720
384.89	0.725
385.09	0.725
385.30	0.724
385.51	0.723
385.71	0.726
385.92	0.727
386.13	0.726
386.33	0.728
386.54	0.730
386.75	0.728
386.95	0.724
387.16	0.720
387.37	0.723
387.58	0.722
387.78	0.720
387.99	0.718
388.20	0.721
388.40	0.718
388.61	0.713
388.82	0.716
389.02	0.718
389.23	0.719
389.44	0.717
389.64	0.718
389.85	0.729
390.06	0.729
390.26	0.729
390.47	0.728
390.68	0.730
390.88	0.728
391.09	0.724
391.30	0.724
391.50	0.723
391.71	0.723
391.92	0.720
392.12	0.712
392.33	0.713
392.53	0.713
392.74	0.713
392.95	0.713
393.15	0.716
393.36	0.717
393.57	0.715
393.77	0.718
393.98	0.720
394.19	0.719
394.39	0.719
394.60	0.720
394.81	0.722
395.01	0.720
395.22	0.718
395.43	0.719
395.63	0.725
395.84	0.726
396.04	0.723
396.25	0.724
396.46	0.727
396.66	0.724
396.87	0.721
397.08	0.718
397.28	0.720
397.49	0.721
397.69	0.718
397.90	0.712
398.11	0.714
398.31	0.714
398.52	0.710
398.73	0.711
398.93	0.710
399.14	0.710
399.34	0.708
399.55	0.709
399.76	0.709
399.96	0.710
400.17	0.708
400.37	0.707
400.58	0.713
400.79	0.715
400.99	0.713
401.20	0.719
401.41	0.721
401.61	0.723
401.82	0.729
402.02	0.728
402.23	0.729
402.44	0.729
402.64	0.730
402.85	0.724
403.05	0.723
403.26	0.722
403.47	0.716
403.67	0.714
403.88	0.715
404.08	0.708
404.29	0.707
404.50	0.707
404.70	0.707
404.91	0.705
405.11	0.703
405.32	0.704
405.52	0.704
405.73	0.703
405.94	0.702
406.14	0.705
406.35	0.707
406.55	0.706
406.76	0.704
406.97	0.705
407.17	0.708
407.38	0.709
407.58	0.706
407.79	0.709
407.99	0.712
408.20	0.713
408.41	0.708
408.61	0.706
408.82	0.707
409.02	0.707
409.23	0.705
409.43	0.704
409.64	0.704
409.84	0.704
410.05	0.701
410.26	0.699
410.46	0.698
410.67	0.698
410.87	0.700
411.08	0.702
411.28	0.703
411.49	0.704
411.69	0.702
411.90	0.703
412.11	0.705
412.31	0.705
412.52	0.704
412.72	0.705
412.93	0.706
413.13	0.704
413.34	0.700
413.54	0.702
413.75	0.703
413.95	0.703
414.16	0.699
414.37	0.701
414.57	0.702
414.78	0.705
414.98	0.703
415.19	0.704
415.39	0.702
415.60	0.705
415.80	0.704
416.01	0.702
416.21	0.704
416.42	0.704
416.62	0.699
416.83	0.700
417.03	0.699
417.24	0.699
417.44	0.696
417.65	0.696
417.86	0.696
418.06	0.694
418.27	0.693
418.47	0.694
418.68	0.696
418.88	0.696
419.09	0.694
419.29	0.696
419.50	0.696
419.70	0.696
419.91	0.694
420.11	0.692
420.32	0.694
420.52	0.694
420.73	0.693
420.93	0.693
421.14	0.695
421.34	0.693
421.55	0.689
421.75	0.689
421.96	0.691
422.16	0.691
422.37	0.689
422.57	0.686
422.78	0.688
422.98	0.684
423.19	0.682
423.39	0.681
423.60	0.685
423.80	0.686
424.01	0.685
424.21	0.687
424.42	0.687
424.62	0.688
424.83	0.688
425.03	0.688
425.23	0.690
425.44	0.690
425.64	0.690
425.85	0.688
426.05	0.689
426.26	0.689
426.46	0.686
426.67	0.685
426.87	0.689
427.08	0.689
427.28	0.687
427.49	0.688
427.69	0.689
427.90	0.688
428.10	0.685
428.31	0.685
428.51	0.687
428.71	0.687
428.92	0.688
429.12	0.686
429.33	0.687
429.53	0.691
429.74	0.695
429.94	0.696
430.15	0.695
430.35	0.695
430.56	0.692
430.76	0.690
430.96	0.691
431.17	0.688
431.37	0.685
431.58	0.683
431.78	0.680
431.99	0.673
432.19	0.675
432.40	0.677
432.60	0.678
432.80	0.680
433.01	0.678
433.21	0.678
433.42	0.680
433.62	0.681
433.83	0.680
434.03	0.682
434.23	0.685
434.44	0.684
434.64	0.682
434.85	0.686
435.05	0.688
435.26	0.687
435.46	0.686
435.66	0.686
435.87	0.685
436.07	0.685
436.28	0.680
436.48	0.677
436.69	0.678
436.89	0.678
437.09	0.671
437.30	0.671
437.50	0.671
437.71	0.683
437.91	0.682
438.11	0.684
438.32	0.688
438.52	0.689
438.73	0.688
438.93	0.685
439.13	0.685
439.34	0.689
439.54	0.686
439.75	0.686
439.95	0.675
440.15	0.679
440.36	0.678
440.56	0.675
440.77	0.675
440.97	0.676
441.17	0.675
441.38	0.677
441.58	0.674
441.79	0.674
441.99	0.672
442.19	0.672
442.40	0.669
442.60	0.669
442.81	0.666
443.01	0.666
443.21	0.667
443.42	0.666
443.62	0.664
443.82	0.664
444.03	0.666
444.23	0.666
444.44	0.665
444.64	0.664
444.84	0.666
445.05	0.666
445.25	0.664
445.45	0.665
445.66	0.667
445.86	0.666
446.06	0.667
446.27	0.667
446.47	0.670
446.68	0.668
446.88	0.667
447.08	0.667
447.29	0.668
447.49	0.668
447.69	0.667
447.90	0.666
448.10	0.670
448.30	0.667
448.51	0.668
448.71	0.666
448.91	0.668
449.12	0.667
449.32	0.668
449.52	0.667
449.73	0.671
449.93	0.670
450.14	0.671
450.34	0.670
450.54	0.672
450.75	0.669
450.95	0.668
451.15	0.668
451.36	0.670
451.56	0.667
451.76	0.666
451.97	0.663
452.17	0.663
452.37	0.662
452.58	0.657
452.78	0.657
452.98	0.660
453.19	0.659
453.39	0.660
453.59	0.658
453.79	0.659
454.00	0.660
454.20	0.659
454.40	0.659
454.61	0.661
454.81	0.662
455.01	0.660
455.22	0.661
455.42	0.663
455.62	0.661
455.83	0.660
456.03	0.663
456.23	0.664
456.44	0.665
456.64	0.664
456.84	0.664
457.04	0.664
457.25	0.664
457.45	0.661
457.65	0.659
457.86	0.660
458.06	0.659
458.26	0.654
458.47	0.653
458.67	0.655
458.87	0.655
459.07	0.653
459.28	0.655
459.48	0.657
459.68	0.657
459.89	0.656
460.09	0.655
460.29	0.657
460.49	0.658
460.70	0.657
460.90	0.656
461.10	0.657
461.31	0.656
461.51	0.653
461.71	0.656
461.91	0.657
462.12	0.657
462.32	0.656
462.52	0.656
462.72	0.659
462.93	0.660
463.13	0.658
463.33	0.659
463.53	0.660
463.74	0.660
463.94	0.655
464.14	0.655
464.35	0.657
464.55	0.657
464.75	0.655
464.95	0.653
465.16	0.654
465.36	0.654
465.56	0.652
465.76	0.653
465.97	0.653
466.17	0.653
466.37	0.651
466.57	0.653
466.78	0.654
466.98	0.654
467.18	0.652
467.38	0.650
467.59	0.652
467.79	0.654
467.99	0.652
468.19	0.654
468.39	0.657
468.60	0.657
468.80	0.655
469.00	0.656
469.20	0.657
469.41	0.658
469.61	0.658
469.81	0.658
470.01	0.657
470.22	0.658
470.42	0.656
470.62	0.654
470.82	0.655
471.02	0.655
471.23	0.652
471.43	0.653
471.63	0.654
471.83	0.654
472.04	0.652
472.24	0.651
472.44	0.656
472.64	0.656
472.84	0.654
473.05	0.654
473.25	0.656
473.45	0.656
473.65	0.654
473.85	0.654
474.06	0.657
474.26	0.656
474.46	0.657
474.66	0.654
474.86	0.654
475.07	0.655
475.27	0.653
475.47	0.651
475.67	0.652
475.87	0.654
476.08	0.650
476.28	0.650
476.48	0.652
476.68	0.651
476.88	0.648
477.09	0.650
477.29	0.652
477.49	0.651
477.69	0.650
477.89	0.651
478.09	0.650
478.30	0.652
478.50	0.649
478.70	0.648
478.90	0.649
479.10	0.651
479.31	0.652
479.51	0.650
479.71	0.651
479.91	0.651
480.11	0.650
480.31	0.650
480.52	0.649
480.72	0.649
480.92	0.648
481.12	0.647
481.32	0.645
481.52	0.643
481.72	0.643
481.93	0.646
482.13	0.647
482.33	0.646
482.53	0.644
482.73	0.645
482.93	0.646
483.14	0.645
483.34	0.645
483.54	0.645
483.74	0.644
483.94	0.643
484.14	0.640
484.34	0.640
484.55	0.640
484.75	0.640
484.95	0.638
485.15	0.638
485.35	0.638
485.55	0.637
485.75	0.635
485.96	0.635
486.16	0.637
486.36	0.636
486.56	0.635
486.76	0.635
486.96	0.635
487.16	0.635
487.36	0.633
487.57	0.633
487.77	0.633
487.97	0.634
488.17	0.632
488.37	0.630
488.57	0.631
488.77	0.631
488.97	0.630
489.18	0.629
489.38	0.632
489.58	0.632
489.78	0.632
489.98	0.631
490.18	0.632
490.38	0.633
490.58	0.631
490.78	0.632
490.98	0.634
491.19	0.634
491.39	0.633
491.59	0.632
491.79	0.635
491.99	0.635
492.19	0.635
492.39	0.638
492.59	0.637
492.79	0.640
492.99	0.640
493.20	0.640
493.40	0.640
493.60	0.641
493.80	0.640
494.00	0.637
494.20	0.638
494.40	0.638
494.60	0.635
494.80	0.639
495.00	0.638
495.20	0.637
495.40	0.636
495.61	0.638
495.81	0.638
496.01	0.641
496.21	0.642
496.41	0.641
496.61	0.642
496.81	0.641
497.01	0.637
497.21	0.636
497.41	0.637
497.61	0.636
497.81	0.634
498.01	0.634
498.21	0.632
498.41	0.630
498.61	0.630
498.82	0.631
499.02	0.633
499.22	0.634
499.42	0.633
499.62	0.634
499.82	0.635
500.02	0.636
500.22	0.635
500.42	0.637
500.62	0.637
500.82	0.638
501.02	0.636
501.22	0.636
501.42	0.636
501.62	0.638
501.82	0.638
502.02	0.638
502.22	0.637
502.42	0.639
502.62	0.637
502.82	0.637
503.02	0.637
503.22	0.637
503.42	0.635
503.63	0.634
503.83	0.632
504.03	0.631
504.23	0.630
504.43	0.631
504.63	0.632
504.83	0.631
505.03	0.631
505.23	0.632
505.43	0.634
505.63	0.635
505.83	0.634
506.03	0.636
506.23	0.638
506.43	0.639
506.63	0.637
506.83	0.636
507.03	0.638
507.23	0.638
507.43	0.636
507.63	0.637
507.83	0.637
508.03	0.637
508.23	0.636
508.43	0.635
508.63	0.637
508.83	0.638
509.03	0.639
509.23	0.637
509.43	0.638
509.63	0.638
509.83	0.637
510.03	0.639
510.23	0.641
510.43	0.642
510.63	0.643
510.83	0.642
511.03	0.644
511.23	0.641
511.43	0.641
511.63	0.643
511.83	0.645
512.03	0.644
512.22	0.641
512.42	0.640
512.62	0.641
512.82	0.640
513.02	0.640
513.22	0.639
513.42	0.641
513.62	0.644
513.82	0.642
514.02	0.642
514.22	0.644
514.42	0.644
514.62	0.644
514.82	0.644
515.02	0.646
515.22	0.650
515.42	0.649
515.62	0.651
515.82	0.649
516.02	0.650
516.22	0.650
516.42	0.651
516.62	0.653
516.82	0.654
517.01	0.652
517.21	0.652
517.41	0.655
517.61	0.655
517.81	0.652
518.01	0.651
518.21	0.651
518.41	0.649
518.61	0.648
518.81	0.649
519.01	0.649
519.21	0.650
519.41	0.649
519.61	0.643
519.81	0.646
520.00	0.646
520.20	0.647
520.40	0.650
520.60	0.651
520.80	0.650
521.00	0.650
521.20	0.651
521.40	0.655
521.60	0.655
521.80	0.654
522.00	0.654
522.20	0.657
522.39	0.656
522.59	0.652
522.79	0.654
522.99	0.656
523.19	0.655
523.39	0.652
523.59	0.650
523.79	0.653
523.99	0.655
524.19	0.655
524.38	0.653
524.58	0.654
524.78	0.655
524.98	0.653
525.18	0.655
525.38	0.656
525.58	0.657
525.78	0.656
525.98	0.654
526.18	0.655
526.37	0.654
526.57	0.656
526.77	0.656
526.97	0.656
527.17	0.656
527.37	0.653
527.57	0.655
527.77	0.657
527.96	0.657
528.16	0.655
528.36	0.656
528.56	0.658
528.76	0.655
528.96	0.654
529.16	0.655
529.36	0.658
529.55	0.658
529.75	0.655
529.95	0.655
530.15	0.656
530.35	0.659
530.55	0.656
530.75	0.657
530.94	0.659
531.14	0.659
531.34	0.658
531.54	0.656
531.74	0.659
531.94	0.662
532.13	0.660
532.33	0.662
532.53	0.661
532.73	0.661
532.93	0.659
533.13	0.660
533.33	0.660
533.52	0.660
533.72	0.663
533.92	0.660
534.12	0.658
534.32	0.659
534.52	0.657
534.71	0.659
534.91	0.661
535.11	0.663
535.31	0.662
535.51	0.664
535.71	0.666
535.90	0.663
536.10	0.665
536.30	0.667
536.50	0.667
536.70	0.667
536.89	0.664
537.09	0.664
537.29	0.666
537.49	0.666
537.69	0.664
537.89	0.665
538.08	0.665
538.28	0.663
538.48	0.663
538.68	0.665
538.88	0.667
539.07	0.667
539.27	0.665
539.47	0.664
539.67	0.664
539.87	0.666
540.06	0.663
540.26	0.664
540.46	0.666
540.66	0.664
540.86	0.661
541.05	0.662
541.25	0.664
541.45	0.664
541.65	0.662
541.84	0.663
542.04	0.664
542.24	0.664
542.44	0.663
542.64	0.664
542.83	0.666
543.03	0.667
543.23	0.664
543.43	0.666
543.62	0.667
543.82	0.667
544.02	0.665
544.22	0.666
544.42	0.669
544.61	0.669
544.81	0.667
545.01	0.666
545.21	0.667
545.40	0.668
545.60	0.666
545.80	0.670
546.00	0.670
546.19	0.670
546.39	0.668
546.59	0.666
546.79	0.668
546.98	0.668
547.18	0.667
547.38	0.668
547.58	0.671
547.77	0.671
547.97	0.667
548.17	0.668
548.37	0.669
548.56	0.670
548.76	0.669
548.96	0.671
549.16	0.674
549.35	0.673
549.55	0.670
549.75	0.670
549.95	0.673
550.14	0.674
550.34	0.672
550.54	0.677
550.73	0.680
550.93	0.681
551.13	0.677
551.33	0.676
551.52	0.677
551.72	0.678
551.92	0.676
552.12	0.677
552.31	0.678
552.51	0.678
552.71	0.673
552.90	0.673
553.10	0.673
553.30	0.674
553.50	0.673
553.69	0.675
553.89	0.675
554.09	0.676
554.28	0.672
554.48	0.674
554.68	0.676
554.87	0.676
555.07	0.672
555.27	0.673
555.47	0.674
555.66	0.674
555.86	0.672
556.06	0.674
556.25	0.676
556.45	0.683
556.65	0.681
556.84	0.685
557.04	0.688
557.24	0.689
557.43	0.689
557.63	0.692
557.83	0.694
558.02	0.695
558.22	0.699
558.42	0.699
558.61	0.692
558.81	0.692
559.01	0.688
559.21	0.687
559.40	0.688
559.60	0.688
559.80	0.685
559.99	0.686
560.19	0.689
560.39	0.683
560.58	0.681
560.78	0.681
560.97	0.684
561.17	0.683
561.37	0.681
561.56	0.682
561.76	0.683
561.96	0.682
562.15	0.680
562.35	0.682
562.55	0.683
562.74	0.682
562.94	0.681
563.14	0.679
563.33	0.680
563.53	0.680
563.73	0.678
563.92	0.679
564.12	0.682
564.31	0.684
564.51	0.682
564.71	0.683
564.90	0.686
565.10	0.687
565.30	0.690
565.49	0.690
565.69	0.693
565.89	0.693
566.08	0.691
566.28	0.692
566.47	0.694
566.67	0.692
566.87	0.690
567.06	0.692
567.26	0.698
567.46	0.695
567.65	0.695
567.85	0.695
568.04	0.698
568.24	0.697
568.44	0.695
568.63	0.693
568.83	0.695
569.02	0.693
569.22	0.688
569.42	0.684
569.61	0.687
569.81	0.685
570.00	0.683
570.20	0.684
570.40	0.685
570.59	0.685
570.79	0.683
570.98	0.681
571.18	0.683
571.38	0.682
571.57	0.680
571.77	0.678
571.96	0.681
572.16	0.679
572.35	0.674
572.55	0.675
572.75	0.673
572.94	0.673
573.14	0.671
573.33	0.671
573.53	0.672
573.73	0.671
573.92	0.669
574.12	0.667
574.31	0.670
574.51	0.671
574.70	0.668
574.90	0.669
575.09	0.672
575.29	0.672
575.49	0.669
575.68	0.669
575.88	0.671
576.07	0.672
576.27	0.670
576.46	0.668
576.66	0.667
576.86	0.667
577.05	0.665
577.25	0.663
577.44	0.665
577.64	0.665
577.83	0.663
578.03	0.665
578.22	0.664
578.42	0.663
578.61	0.662
578.81	0.663
579.00	0.663
579.20	0.662
579.40	0.661
579.59	0.660
579.79	0.660
579.98	0.660
580.18	0.659
580.37	0.659
580.57	0.662
580.76	0.666
580.96	0.664
581.15	0.665
581.35	0.667
581.54	0.667
581.74	0.666
581.93	0.668
582.13	0.669
582.32	0.666
582.52	0.664
582.71	0.663
582.91	0.659
583.10	0.659
583.30	0.658
583.49	0.657
583.69	0.661
583.88	0.662
584.08	0.661
584.27	0.663
584.47	0.666
584.66	0.667
584.86	0.666
585.05	0.668
585.25	0.670
585.44	0.670
585.64	0.668
585.83	0.664
586.03	0.665
586.22	0.663
586.42	0.660
586.61	0.661
586.81	0.664
587.00	0.663
587.20	0.661
587.39	0.662
587.59	0.663
587.78	0.664
587.98	0.665
588.17	0.666
588.37	0.669
588.56	0.670
588.76	0.666
588.95	0.667
589.15	0.671
589.34	0.673
589.54	0.672
589.73	0.673
589.92	0.676
590.12	0.676
590.31	0.674
590.51	0.679
590.70	0.681
590.90	0.681
591.09	0.679
591.29	0.677
591.48	0.677
591.68	0.678
591.87	0.676
592.06	0.676
592.26	0.678
592.45	0.677
592.65	0.671
592.84	0.671
593.04	0.673
593.23	0.675
593.43	0.673
593.62	0.673
593.81	0.673
594.01	0.672
594.20	0.670
594.40	0.668
594.59	0.670
594.79	0.671
594.98	0.670
595.17	0.669
595.37	0.670
595.56	0.673
595.76	0.671
595.95	0.673
596.14	0.676
596.34	0.678
596.53	0.676
596.73	0.678
596.92	0.679
597.12	0.681
597.31	0.681
597.50	0.680
597.70	0.682
597.89	0.682
598.09	0.678
598.28	0.679
598.47	0.681
598.67	0.680
598.86	0.676
599.06	0.678
599.25	0.678
599.44	0.676
599.64	0.673
599.83	0.671
600.03	0.674
600.22	0.675
600.41	0.675
600.61	0.672
600.80	0.675
601.00	0.676
601.19	0.671
601.38	0.669
601.58	0.672
601.77	0.674
601.96	0.676
602.16	0.676
602.35	0.685
602.55	0.682
602.74	0.683
602.93	0.684
603.13	0.689
603.32	0.691
603.51	0.690
603.71	0.693
603.90	0.695
604.09	0.696
604.29	0.693
604.48	0.687
604.68	0.690
604.87	0.688
605.06	0.685
605.26	0.682
605.45	0.682
605.64	0.682
605.84	0.676
606.03	0.675
606.22	0.674
606.42	0.672
606.61	0.668
606.80	0.668
607.00	0.670
607.19	0.670
607.38	0.669
607.58	0.670
607.77	0.673
607.96	0.673
608.16	0.671
608.35	0.676
608.54	0.680
608.74	0.683
608.93	0.688
609.12	0.690
609.32	0.693
609.51	0.696
609.70	0.695
609.90	0.697
610.09	0.702
610.28	0.707
610.48	0.701
610.67	0.703
610.86	0.703
611.06	0.698
611.25	0.696
611.44	0.697
611.64	0.697
611.83	0.699
612.02	0.695
612.21	0.694
612.41	0.693
612.60	0.693
612.79	0.688
612.99	0.688
613.18	0.690
613.37	0.687
613.57	0.685
613.76	0.686
613.95	0.683
614.14	0.683
614.34	0.680
614.53	0.680
614.72	0.683
614.92	0.683
615.11	0.680
615.30	0.678
615.49	0.680
615.69	0.683
615.88	0.679
616.07	0.681
616.26	0.683
616.46	0.684
616.65	0.680
616.84	0.679
617.04	0.680
617.23	0.684
617.42	0.684
617.61	0.688
617.81	0.689
618.00	0.691
618.19	0.690
618.38	0.694
618.58	0.697
618.77	0.699
618.96	0.699
619.15	0.701
619.35	0.702
619.54	0.703
619.73	0.698
619.92	0.699
620.12	0.703
620.31	0.703
620.50	0.698
620.69	0.699
620.89	0.702
621.08	0.702
621.27	0.702
621.46	0.701
621.66	0.704
621.85	0.705
622.04	0.701
622.23	0.702
622.43	0.703
622.62	0.702
622.81	0.701
623.00	0.700
623.19	0.703
623.39	0.702
623.58	0.700
623.77	0.699
623.96	0.701
624.16	0.701
624.35	0.695
624.54	0.698
624.73	0.702
624.92	0.699
625.12	0.698
625.31	0.698
625.50	0.700
625.69	0.700
625.88	0.696
626.08	0.696
626.27	0.699
626.46	0.699
626.65	0.696
626.84	0.696
627.04	0.701
627.23	0.701
627.42	0.696
627.61	0.698
627.80	0.702
628.00	0.703
628.19	0.702
628.38	0.704
628.57	0.707
628.76	0.707
628.96	0.703
629.15	0.704
629.34	0.707
629.53	0.708
629.72	0.702
629.91	0.702
630.11	0.708
630.30	0.708
630.49	0.711
630.68	0.712
630.87	0.715
631.06	0.717
631.26	0.712
631.45	0.714
631.64	0.722
631.83	0.725
632.02	0.722
632.21	0.720
632.41	0.726
632.60	0.720
632.79	0.718
632.98	0.719
633.17	0.721
633.36	0.722
633.55	0.719
633.75	0.714
633.94	0.716
634.13	0.716
634.32	0.713
634.51	0.708
634.70	0.711
634.89	0.710
635.09	0.706
635.28	0.706
635.47	0.707
635.66	0.710
635.85	0.705
636.04	0.707
636.23	0.712
636.43	0.712
636.62	0.710
636.81	0.709
637.00	0.712
637.19	0.714
637.38	0.710
637.57	0.710
637.76	0.712
637.95	0.714
638.15	0.710
638.34	0.706
638.53	0.710
638.72	0.712
638.91	0.710
639.10	0.708
639.29	0.710
639.48	0.711
639.67	0.711
639.87	0.710
640.06	0.716
640.25	0.715
640.44	0.715
640.63	0.715
640.82	0.718
641.01	0.718
641.20	0.718
641.39	0.719
641.58	0.721
641.78	0.720
641.97	0.715
642.16	0.728
642.35	0.730
642.54	0.730
642.73	0.724
642.92	0.722
643.11	0.725
643.30	0.725
643.49	0.719
643.68	0.722
643.87	0.723
644.06	0.724
644.25	0.704
644.45	0.706
644.64	0.708
644.83	0.709
645.02	0.706
645.21	0.704
645.40	0.706
645.59	0.706
645.78	0.700
645.97	0.702
646.16	0.703
646.35	0.702
646.54	0.700
646.73	0.701
646.92	0.702
647.11	0.702
647.30	0.698
647.49	0.699
647.68	0.699
647.88	0.699
648.07	0.692
648.26	0.696
648.45	0.698
648.64	0.695
648.83	0.692
649.02	0.695
649.21	0.706
649.40	0.705
649.59	0.700
649.78	0.701
649.97	0.715
650.16	0.714
650.35	0.707
650.54	0.709
650.73	0.717
650.92	0.714
651.11	0.707
651.30	0.704
651.49	0.709
651.68	0.709
651.87	0.705
652.06	0.695
652.25	0.699
652.44	0.701
652.63	0.699
652.82	0.699
653.01	0.699
653.20	0.697
653.39	0.686
653.58	0.683
653.77	0.683
653.96	0.680
654.15	0.671
654.34	0.669
654.53	0.665
654.72	0.659
654.91	0.650
655.10	0.645
655.29	0.644
655.48	0.641
655.67	0.636
655.86	0.633
656.05	0.632
656.24	0.631
656.43	0.627
656.62	0.626
656.81	0.626
657.00	0.624
657.19	0.621
657.38	0.621
657.57	0.621
657.76	0.624
657.95	0.622
658.14	0.625
658.33	0.628
658.51	0.632
658.70	0.632
658.89	0.634
659.08	0.642
659.27	0.650
659.46	0.650
659.65	0.655
659.84	0.658
660.03	0.661
660.22	0.662
660.41	0.666
660.60	0.666
660.79	0.668
660.98	0.674
661.17	0.672
661.36	0.672
661.55	0.673
661.74	0.671
661.92	0.673
662.11	0.675
662.30	0.674
662.49	0.667
662.68	0.667
662.87	0.671
663.06	0.664
663.25	0.665
663.44	0.666
663.63	0.667
663.82	0.666
664.01	0.660
664.20	0.660
664.38	0.661
664.57	0.661
664.76	0.661
664.95	0.661
665.14	0.666
665.33	0.661
665.52	0.667
665.71	0.672
665.90	0.672
666.09	0.673
666.28	0.670
666.46	0.671
666.65	0.671
666.84	0.669
667.03	0.663
667.22	0.661
667.41	0.663
667.60	0.654
667.79	0.646
667.98	0.647
668.16	0.648
668.35	0.648
668.54	0.642
668.73	0.644
668.92	0.644
669.11	0.643
669.30	0.638
669.49	0.634
669.67	0.636
669.86	0.639
670.05	0.636
670.24	0.634
670.43	0.632
670.62	0.630
670.81	0.625
671.00	0.627
671.18	0.626
671.37	0.626
671.56	0.624
671.75	0.623
671.94	0.620
672.13	0.618
672.32	0.614
672.50	0.613
672.69	0.614
672.88	0.615
673.07	0.610
673.26	0.613
673.45	0.614
673.63	0.614
673.82	0.611
674.01	0.613
674.20	0.612
674.39	0.611
674.58	0.611
674.76	0.610
674.95	0.608
675.14	0.608
675.33	0.603
675.52	0.601
675.71	0.602
675.89	0.601
676.08	0.596
676.27	0.597
676.46	0.598
676.65	0.597
676.84	0.597
677.02	0.599
677.21	0.602
677.40	0.601
677.59	0.599
677.78	0.600
677.96	0.603
678.15	0.602
678.34	0.600
678.53	0.601
678.72	0.601
678.90	0.597
679.09	0.593
679.28	0.590
679.47	0.590
679.66	0.589
679.84	0.585
680.03	0.582
680.22	0.581
680.41	0.582
680.60	0.578
680.78	0.578
680.97	0.580
681.16	0.580
681.35	0.578
681.53	0.577
681.72	0.579
681.91	0.581
682.10	0.579
682.29	0.582
682.47	0.580
682.66	0.580
682.85	0.578
683.04	0.577
683.22	0.577
683.41	0.579
683.60	0.577
683.79	0.578
683.97	0.577
684.16	0.576
684.35	0.571
684.54	0.573
684.72	0.573
684.91	0.574
685.10	0.572
685.29	0.573
685.47	0.570
685.66	0.570
685.85	0.567
686.04	0.566
686.22	0.569
686.41	0.571
686.60	0.568
686.79	0.571
686.97	0.572
687.16	0.573
687.35	0.570
687.54	0.574
687.72	0.578
687.91	0.578
688.10	0.579
688.29	0.579
688.47	0.578
688.66	0.578
688.85	0.573
689.03	0.570
689.22	0.575
689.41	0.575
689.60	0.570
689.78	0.568
689.97	0.569
690.16	0.566
690.34	0.562
690.53	0.562
690.72	0.562
690.91	0.561
691.09	0.558
691.28	0.553
691.47	0.551
691.65	0.551
691.84	0.548
692.03	0.547
692.21	0.544
692.40	0.544
692.59	0.541
692.77	0.540
692.96	0.542
693.15	0.543
693.34	0.541
693.52	0.540
693.71	0.540
693.90	0.542
694.08	0.542
694.27	0.543
694.46	0.552
694.64	0.553
694.83	0.553
695.02	0.552
695.20	0.551
695.39	0.550
695.58	0.550
695.76	0.551
695.95	0.550
696.14	0.549
696.32	0.547
696.51	0.538
696.70	0.538
696.88	0.539
697.07	0.538
697.26	0.539
697.44	0.540
697.63	0.539
697.81	0.537
698.00	0.536
698.19	0.536
698.37	0.536
698.56	0.535
698.75	0.535
698.93	0.535
699.12	0.534
699.31	0.533
699.49	0.533
699.68	0.534
699.87	0.537
700.05	0.537
700.24	0.536
700.42	0.538
700.61	0.538
700.80	0.536
700.98	0.536
701.17	0.537
701.36	0.536
701.54	0.535
701.73	0.536
701.91	0.533
702.10	0.533
702.29	0.531
702.47	0.529
702.66	0.531
702.84	0.532
703.03	0.530
703.22	0.532
703.40	0.531
703.59	0.532
703.77	0.532
703.96	0.532
704.15	0.533
704.33	0.533
704.52	0.532
704.70	0.530
704.89	0.530
705.08	0.529
705.26	0.525
705.45	0.525
705.63	0.524
705.82	0.521
706.00	0.519
706.19	0.519
706.38	0.519
706.56	0.519
706.75	0.517
706.93	0.516
707.12	0.518
707.30	0.518
707.49	0.516
707.68	0.514
707.86	0.514
708.05	0.514
708.23	0.511
708.42	0.512
708.60	0.514
708.79	0.514
708.98	0.513
709.16	0.512
709.35	0.514
709.53	0.518
709.72	0.517
709.90	0.519
710.09	0.520
710.27	0.522
710.46	0.526
710.64	0.524
710.83	0.527
711.02	0.528
711.20	0.527
711.39	0.525
711.57	0.524
711.76	0.524
711.94	0.523
712.13	0.523
712.31	0.523
712.50	0.519
712.68	0.516
712.87	0.517
713.05	0.516
713.24	0.517
713.42	0.517
713.61	0.517
713.79	0.517
713.98	0.517
714.16	0.518
714.35	0.518
714.54	0.519
714.72	0.519
714.91	0.517
715.09	0.523
715.28	0.525
715.46	0.525
715.65	0.522
715.83	0.522
716.02	0.524
716.20	0.521
716.39	0.520
716.57	0.521
716.76	0.523
716.94	0.523
717.12	0.516
717.31	0.517
717.49	0.520
717.68	0.523
717.86	0.522
718.05	0.524
718.23	0.526
718.42	0.528
718.60	0.529
718.79	0.536
718.97	0.538
719.16	0.539
719.34	0.537
719.53	0.536
719.71	0.536
719.90	0.537
720.08	0.534
720.27	0.536
720.45	0.536
720.63	0.534
720.82	0.528
721.00	0.531
721.19	0.534
721.37	0.533
721.56	0.533
721.74	0.536
721.93	0.545
722.11	0.552
722.30	0.551
722.48	0.555
722.66	0.556
722.85	0.556
723.03	0.556
723.22	0.555
723.40	0.558
723.59	0.557
723.77	0.562
723.95	0.555
724.14	0.557
724.32	0.558
724.51	0.558
724.69	0.559
724.88	0.559
725.06	0.557
725.24	0.558
725.43	0.560
725.61	0.562
725.80	0.556
725.98	0.553
726.16	0.549
726.35	0.556
726.53	0.555
726.72	0.553
726.90	0.564
727.09	0.564
727.27	0.569
727.45	0.567
727.64	0.576
727.82	0.584
728.01	0.590
728.19	0.587
728.37	0.591
728.56	0.595
728.74	0.602
728.92	0.590
729.11	0.592
729.29	0.592
729.48	0.593
729.66	0.583
729.84	0.583
730.03	0.585
730.21	0.587
730.40	0.578
730.58	0.578
730.76	0.580
730.95	0.581
731.13	0.580
731.31	0.592
731.50	0.601
731.68	0.605
731.86	0.601
732.05	0.616
732.23	0.619
732.42	0.623
732.60	0.625
732.78	0.629
732.97	0.647
733.15	0.655
733.33	0.643
733.52	0.651
733.70	0.661
733.88	0.668
734.07	0.654
734.25	0.680
734.43	0.689
734.62	0.692
734.80	0.687
734.98	0.677
735.17	0.684
735.35	0.689
735.53	0.677
735.72	0.680
735.90	0.700
736.08	0.717
736.27	0.695
736.45	0.703
736.63	0.716
736.82	0.726
737.00	0.727
737.18	0.738
737.37	0.771
737.55	0.794
737.73	0.784
737.92	0.789
738.10	0.787
738.28	0.806
738.46	0.794
738.65	0.804
738.83	0.825
739.01	0.877
739.20	0.866
739.38	0.847
739.56	0.839
739.75	0.848
739.93	0.815
740.11	0.840
740.29	0.840
740.48	0.845
740.66	0.828
740.84	0.821
741.03	0.787
741.21	0.798
741.39	0.782
741.57	0.795
741.76	0.811
741.94	0.814
742.12	0.777
742.31	0.784
742.49	0.804
742.67	0.821
742.85	0.838
743.04	0.840
743.22	0.850
743.40	0.900
743.58	0.879
743.77	0.898
743.95	0.934
744.13	0.981
744.31	0.960
744.50	0.954
744.68	0.956
744.86	0.927
745.04	0.941
745.23	1.002
745.41	0.989
745.59	0.993
745.77	0.954
745.96	0.950
746.14	0.958
746.32	0.958
746.50	0.948
746.69	0.932
746.87	0.944
747.05	0.928
747.23	0.857
747.42	0.840
747.60	0.869
747.78	0.873
747.96	0.894
748.14	0.851
748.33	0.878
748.51	0.871
748.69	0.861
748.87	0.885
749.06	0.877
749.24	0.871
749.42	0.862
749.60	0.842
749.78	0.849
749.97	0.807
750.15	0.803
750.33	0.799
750.51	0.824
750.69	0.831
750.88	0.834
751.06	0.850
751.24	0.878
751.42	0.864
751.60	0.858
751.79	0.926
751.97	0.974
752.15	0.970
752.33	0.942
752.51	1.001
752.69	1.017
752.88	0.986
753.06	1.021
753.24	0.996
753.42	1.033
753.60	1.182
753.78	1.049
753.97	1.060
754.15	1.081
754.33	1.107
754.51	0.994
754.69	0.982
754.87	1.012
755.06	0.948
755.24	0.952
755.42	0.958
755.60	0.866
755.78	0.877
755.96	0.827
756.15	0.826
756.33	0.833
756.51	0.851
756.69	0.835
756.87	0.803
757.05	0.821
757.23	0.803
757.42	0.773
757.60	0.773
757.78	0.764
757.96	0.763
758.14	0.748
758.32	0.734
758.50	0.749
758.69	0.750
758.87	0.741
759.05	0.746
759.23	0.758
759.41	0.757
759.59	0.751
759.77	0.771
759.95	0.796
760.13	0.845
760.32	0.840
760.50	0.833
760.68	0.854
760.86	0.856
761.04	0.829
761.22	0.832
761.40	0.879
761.58	0.879
761.76	0.854
761.95	0.839
762.13	0.795
762.31	0.798
762.49	0.767
762.67	0.784
762.85	0.796
763.03	0.790
763.21	0.771
763.39	0.751
763.57	0.753
763.75	0.745
763.94	0.731
764.12	0.733
764.30	0.756
764.48	0.761
764.66	0.726
764.84	0.724
765.02	0.762
765.20	0.770
765.38	0.753
765.56	0.760
765.74	0.799
765.92	0.800
766.10	0.808
766.28	0.801
766.46	0.829
766.65	0.831
766.83	0.819
767.01	0.804
767.19	0.810
767.37	0.810
767.55	0.795
767.73	0.775
767.91	0.779
768.09	0.766
768.27	0.752
768.45	0.740
768.63	0.743
768.81	0.745
768.99	0.718
769.17	0.738
769.35	0.749
769.53	0.749
769.71	0.732
769.89	0.739
770.07	0.743
770.25	0.728
770.43	0.710
770.61	0.733
770.79	0.739
770.97	0.749
771.15	0.723
771.33	0.726
771.51	0.727
771.69	0.736
771.87	0.743
772.05	0.750
772.24	0.760
772.42	0.768
772.60	0.744
772.78	0.800
772.96	0.823
773.14	0.819
773.32	0.799
773.49	0.808
773.67	0.805
773.85	0.783
774.03	0.771
774.21	0.799
774.39	0.809
774.57	0.833
774.75	0.764
774.93	0.764
775.11	0.783
775.29	0.788
775.47	0.788
775.65	0.796
775.83	0.813
776.01	0.833
776.19	0.787
776.37	0.789
776.55	0.786
776.73	0.785
776.91	0.778
777.09	0.763
777.27	0.761
777.45	0.752
777.63	0.733
777.81	0.730
777.99	0.717
778.17	0.720
778.35	0.700
778.53	0.692
778.71	0.696
778.89	0.686
779.07	0.676
779.24	0.680
779.42	0.681
779.60	0.699
779.78	0.695
779.96	0.701
780.14	0.708
780.32	0.728
780.50	0.710
780.68	0.712
780.86	0.705
781.04	0.722
781.22	0.729
781.40	0.738
781.58	0.731
781.75	0.723
781.93	0.706
782.11	0.706
782.29	0.695
782.47	0.694
782.65	0.681
782.83	0.707
783.01	0.700
783.19	0.692
783.37	0.678
783.55	0.680
783.72	0.700
783.90	0.711
784.08	0.705
784.26	0.714
784.44	0.735
784.62	0.738
784.80	0.706
784.98	0.713
785.16	0.719
785.33	0.734
785.51	0.721
785.69	0.706
785.87	0.706
786.05	0.716
786.23	0.711
786.41	0.709
786.59	0.714
786.77	0.712
786.94	0.700
787.12	0.702
787.30	0.704
787.48	0.700
787.66	0.691
787.84	0.690
788.02	0.679
788.19	0.678
788.37	0.664
788.55	0.665
788.73	0.667
788.91	0.661
789.09	0.647
789.27	0.635
789.44	0.647
789.62	0.651
789.80	0.659
789.98	0.683
790.16	0.670
790.34	0.667
790.51	0.656
790.69	0.673
790.87	0.679
791.05	0.675
791.23	0.670
791.41	0.671
791.58	0.678
791.76	0.658
791.94	0.630
792.12	0.639
792.30	0.642
792.48	0.639
792.65	0.635
792.83	0.642
793.01	0.651
793.19	0.649
793.37	0.634
793.54	0.631
793.72	0.642
793.90	0.640
794.08	0.629
794.26	0.631
794.43	0.639
794.61	0.623
794.79	0.611
794.97	0.609
795.15	0.615
795.32	0.618
795.50	0.607
795.68	0.602
795.86	0.606
796.04	0.606
796.21	0.599
796.39	0.599
796.57	0.612
796.75	0.620
796.92	0.620
797.10	0.625
797.28	0.629
797.46	0.632
797.64	0.635
797.81	0.642
797.99	0.647
798.17	0.652
798.35	0.645
798.52	0.649
798.70	0.644
798.88	0.654
799.06	0.651
799.23	0.653
799.41	0.661
799.59	0.654
799.77	0.645
799.94	0.655
800.12	0.664
800.30	0.682
800.48	0.679
800.65	0.679
800.83	0.667
801.01	0.661
801.19	0.661
801.36	0.656
801.54	0.659
801.72	0.667
801.90	0.654
802.07	0.648
802.25	0.634
802.43	0.619
802.60	0.616
802.78	0.624
802.96	0.628
803.14	0.622
803.31	0.620
803.49	0.620
803.67	0.616
803.84	0.620
804.02	0.612
804.20	0.616
804.38	0.622
804.55	0.621
804.73	0.607
804.91	0.607
805.08	0.619
805.26	0.615
805.44	0.678
805.61	0.681
805.79	0.680
805.97	0.681
806.15	0.673
806.32	0.667
806.50	0.674
806.68	0.674
806.85	0.668
807.03	0.657
807.21	0.675
807.38	0.608
807.56	0.598
807.74	0.608
807.91	0.613
808.09	0.615
808.27	0.633
808.44	0.656
808.62	0.665
808.80	0.667
808.97	0.662
809.15	0.657
809.33	0.673
809.50	0.679
809.68	0.665
809.86	0.672
810.03	0.703
810.21	0.684
810.39	0.667
810.56	0.674
810.74	0.698
810.91	0.769
811.09	0.755
811.27	0.777
811.44	0.785
811.62	0.788
811.80	0.773
811.97	0.742
812.15	0.744
812.33	0.743
812.50	0.726
812.68	0.714
812.85	0.660
813.03	0.663
813.21	0.632
813.38	0.626
813.56	0.627
813.74	0.636
813.91	0.643
814.09	0.672
814.26	0.664
814.44	0.667
814.62	0.655
814.79	0.659
814.97	0.664
815.14	0.667
815.32	0.668
815.50	0.686
815.67	0.689
815.85	0.681
816.02	0.670
816.20	0.676
816.38	0.692
816.55	0.695
816.73	0.695
816.90	0.703
817.08	0.733
817.26	0.738
817.43	0.716
817.61	0.738
817.78	0.756
817.96	0.734
818.13	0.724
818.31	0.725
818.49	0.741
818.66	0.731
818.84	0.721
819.01	0.699
819.19	0.707
819.36	0.710
819.54	0.682
819.71	0.722
819.89	0.736
820.07	0.748
820.24	0.741
820.42	0.741
820.59	0.757
820.77	0.777
820.94	0.770
821.12	0.788
821.29	0.801
821.47	0.804
821.64	0.744
821.82	0.757
822.00	0.753
822.17	0.753
822.35	0.742
822.52	0.748
822.70	0.737
822.87	0.747
823.05	0.725
823.22	0.737
823.40	0.759
823.57	0.779
823.75	0.758
823.92	0.783
824.10	0.801
824.27	0.842
824.45	0.828
824.62	0.888
824.80	0.899
824.97	0.908
825.15	0.898
825.32	0.912
825.50	0.914
825.67	0.929
825.85	0.905
826.02	0.918
826.20	0.937
826.37	1.057
826.55	0.984
826.72	1.179
826.90	1.260
827.07	1.312
827.25	1.246
827.42	1.424
827.60	1.565
827.77	1.779
827.95	1.776
828.12	1.964
828.30	1.479
828.47	1.590
828.65	1.205
828.82	1.265
829.00	1.343
829.17	1.474
829.34	1.472
829.52	1.522
829.69	-0.000
829.87	-0.000
830.04	-0.000
830.22	-0.000
830.39	-0.000
830.57	-0.000
830.74	-0.000
830.92	-0.000
831.09	-0.000
831.26	-0.000
831.44	-0.000
831.61	-0.000
831.79	-0.000
831.96	-0.000
832.14	-0.000
832.31	-0.000
832.49	-0.000
832.66	-0.000
832.83	-0.000
833.01	-0.000
833.18	-0.000
833.36	-0.000
833.53	-0.000
833.70	-0.000
833.88	-0.000
834.05	-0.000
834.23	-0.000
834.40	-0.000
834.58	-0.000
834.75	-0.000
834.92	-0.000
835.10	-0.000
835.27	-0.000
835.45	-0.000
835.62	-0.000
835.79	-0.000
835.97	-0.000
836.14	-0.000
836.32	-0.000
836.49	-0.000
836.66	-0.000
836.84	-0.000
837.01	-0.000
837.18	-0.000
837.36	-0.000
837.53	-0.000
837.71	-0.000
837.88	-0.000
838.05	-0.000
838.23	-0.000
838.40	-0.000
838.58	-0.000
838.75	-0.000
838.92	-0.000
839.10	-0.000
839.27	-0.000
839.44	-0.000
839.62	-0.000
839.79	-0.000
839.96	-0.000
840.14	-0.000
840.31	-0.000
840.48	-0.000
840.66	-0.000
840.83	-0.000
841.01	-0.000
841.18	-0.000
841.35	-0.000
841.53	-0.000
841.70	-0.000
841.87	-0.000
842.05	-0.000
842.22	-0.000
842.39	-0.000
842.57	-0.000
842.74	-0.000
842.91	-0.000
843.09	-0.000
843.26	-0.000
843.43	-0.000
843.60	-0.000
843.78	-0.000
843.95	-0.000
844.12	-0.000
844.30	-0.000
844.47	-0.000
844.64	-0.000
844.82	-0.000
844.99	-0.000
845.16	-0.000
845.34	-0.000
845.51	-0.000
845.68	-0.000
845.85	-0.000
846.03	-0.000
846.20	-0.000
846.37	-0.000
846.55	-0.000
846.72	-0.000
846.89	-0.000
847.06	-0.000
847.24	-0.000
847.41	-0.000
847.58	-0.000
847.76	-0.000
847.93	-0.000
848.10	-0.000
848.27	-0.000
848.45	-0.000
848.62	-0.000
848.79	-0.000
848.97	-0.000
849.14	-0.000
849.31	-0.000
849.48	-0.000
849.66	-0.000
849.83	-0.000
850.00	-0.000
850.17	-0.000
850.35	-0.000
850.52	-0.000
850.69	-0.000
850.86	-0.000
851.04	-0.000
851.21	-0.000
851.38	-0.000
851.55	-0.000
851.72	-0.000
851.90	-0.000
852.07	-0.000
852.24	-0.000
852.41	-0.000
852.59	-0.000
852.76	-0.000
852.93	-0.000
853.10	-0.000
853.28	-0.000
853.45	-0.000
853.62	-0.000
853.79	-0.000
853.96	-0.000
854.14	-0.000
854.31	-0.000
854.48	-0.000
854.65	-0.000
854.82	-0.000
855.00	-0.000
855.17	-0.000
855.34	-0.000
855.51	-0.000
855.68	-0.000
855.86	-0.000
856.03	-0.000
856.20	-0.000
856.37	-0.000
856.54	-0.000
856.72	-0.000
856.89	-0.000
857.06	-0.000
857.23	-0.000
857.40	-0.000
857.57	-0.000
857.75	-0.000
857.92	-0.000
858.09	-0.000
858.26	-0.000
858.43	-0.000
858.60	-0.000
858.78	-0.000
858.95	-0.000
859.12	-0.000
859.29	-0.000
859.46	-0.000
859.63	-0.000
859.81	-0.000
859.98	-0.000
860.15	-0.000
860.32	-0.000
860.49	-0.000
860.66	-0.000
860.83	-0.000
861.01	-0.000
861.18	-0.000
861.35	-0.000
861.52	-0.000
861.69	-0.000
861.86	-0.000
862.03	-0.000
862.21	-0.000
862.38	-0.000
862.55	-0.000
862.72	-0.000
862.89	-0.000
863.06	-0.000
863.23	-0.000
863.40	-0.000
863.58	-0.000
863.75	-0.000
863.92	-0.000
864.09	-0.000
864.26	-0.000
864.43	-0.000
864.60	-0.000
864.77	-0.000
864.94	-0.000
865.11	-0.000
865.29	-0.000
865.46	-0.000
865.63	-0.000
865.80	-0.000
865.97	-0.000
866.14	-0.000
866.31	-0.000
866.48	-0.000
866.65	-0.000
866.82	-0.000
866.99	-0.000
867.16	-0.000
867.34	-0.000
867.51	-0.000
867.68	-0.000
867.85	-0.000
868.02	-0.000
868.19	-0.000
868.36	-0.000
868.53	-0.000
868.70	-0.000
868.87	-0.000
869.04	-0.000
869.21	-0.000
869.38	-0.000
869.55	-0.000
869.72	-0.000
869.89	-0.000
870.06	-0.000
870.24	-0.000
870.41	-0.000
870.58	-0.000
870.75	-0.000
870.92	-0.000
871.09	-0.000
871.26	-0.000
871.43	-0.000
871.60	-0.000
871.77	-0.000
871.94	-0.000
872.11	-0.000
872.28	-0.000
872.45	-0.000
872.62	-0.000
872.79	-0.000
872.96	-0.000
873.13	-0.000
873.30	-0.000
873.47	-0.000
873.64	-0.000
873.81	-0.000
873.98	-0.000
874.15	-0.000
874.32	-0.000
874.49	-0.000
874.66	-0.000
874.83	-0.000
875.00	-0.000
875.17	-0.000
875.34	-0.000
875.51	-0.000
875.68	-0.000
875.85	-0.000
876.02	-0.000
876.19	-0.000
876.36	-0.000
876.53	-0.000
876.70	-0.000
876.87	-0.000
877.04	-0.000
877.21	-0.000
877.38	-0.000
877.55	-0.000
877.72	-0.000
877.89	-0.000
878.06	-0.000
878.23	-0.000
878.39	-0.000
878.56	-0.000
878.73	-0.000
878.90	-0.000
879.07	-0.000
879.24	-0.000
879.41	-0.000
879.58	-0.000
879.75	-0.000
879.92	-0.000
880.09	-0.000
880.26	-0.000
880.43	-0.000
880.60	-0.000
880.77	-0.000
880.94	-0.000
881.11	-0.000
881.27	-0.000
881.44	-0.000
881.61	-0.000
881.78	-0.000
881.95	-0.000
882.12	-0.000
882.29	-0.000
882.46	-0.000
882.63	-0.000
882.80	-0.000
882.97	-0.000
883.14	-0.000
883.30	-0.000
883.47	-0.000
883.64	-0.000
883.81	-0.000
883.98	-0.000
884.15	-0.000
884.32	-0.000
884.49	-0.000
884.66	-0.000
884.82	-0.000
884.99	-0.000
885.16	-0.000
885.33	-0.000
885.50	-0.000
885.67	-0.000
885.84	-0.000
886.01	-0.000
886.17	-0.000
886.34	-0.000
886.51	-0.000
886.68	-0.000
886.85	-0.000
887.02	-0.000
887.19	-0.000
887.36	-0.000
887.52	-0.000
887.69	-0.000
887.86	-0.000
888.03	-0.000
888.20	-0.000
888.37	-0.000
888.54	-0.000
888.70	-0.000
888.87	-0.000
889.04	-0.000
889.21	-0.000
889.38	-0.000
889.55	-0.000
889.71	-0.000
889.88	-0.000
890.05	-0.000
890.22	-0.000
890.39	-0.000
>>>>>End Processed Spectral Data<<<<<
