SpectraSuite Data File
++++++++++++++++++++++++++++++++++++
Date: Fri Jun 19 13:18:44 CEST 2015
User: introlabs
Dark Spectrum Present: Yes
Reference Spectrum Present: Yes
Number of Sampled Component Spectra: 1
Spectrometers: USB4H08886
Integration Time (usec): 745692 (USB4H08886)
Spectra Averaged: 5 (USB4H08886)
Boxcar Smoothing: 5 (USB4H08886)
Correct for Electrical Dark: Yes (USB4H08886)
Strobe/Lamp Enabled: No (USB4H08886)
Correct for Detector Non-linearity: Yes (USB4H08886)
Correct for Stray Light: Yes (USB4H08886)
Number of Pixels in Processed Spectrum: 3648
>>>>>Begin Processed Spectral Data<<<<<
178.14	-0.000
178.36	-0.000
178.57	-0.000
178.79	-0.000
179.01	-0.000
179.22	-0.000
179.44	-0.000
179.65	-0.000
179.87	-0.000
180.08	-0.000
180.30	-0.000
180.52	-0.000
180.73	-0.000
180.95	-0.000
181.16	-0.000
181.38	-0.000
181.59	-0.000
181.81	-0.000
182.03	-0.000
182.24	-0.000
182.46	-0.000
182.67	-0.000
182.89	-0.000
183.10	-0.000
183.32	-0.000
183.54	-0.000
183.75	-0.000
183.97	-0.000
184.18	-0.000
184.40	-0.000
184.61	-0.000
184.83	-0.000
185.04	-0.000
185.26	-0.000
185.48	-0.000
185.69	-0.000
185.91	-0.000
186.12	-0.000
186.34	-0.000
186.55	-0.000
186.77	-0.000
186.98	-0.000
187.20	-0.000
187.42	-0.000
187.63	-0.000
187.85	-0.000
188.06	-0.000
188.28	-0.000
188.49	-0.000
188.71	-0.000
188.92	-0.000
189.14	-0.000
189.36	-0.000
189.57	-0.000
189.79	-0.000
190.00	-0.000
190.22	-0.000
190.43	-0.000
190.65	-0.000
190.86	-0.000
191.08	-0.000
191.29	-0.000
191.51	-0.000
191.72	-0.000
191.94	-0.000
192.16	-0.000
192.37	-0.000
192.59	-0.000
192.80	-0.000
193.02	-0.000
193.23	-0.000
193.45	-0.000
193.66	-0.000
193.88	-0.000
194.09	-0.000
194.31	-0.000
194.52	-0.000
194.74	-0.000
194.95	-0.000
195.17	-0.000
195.38	-0.000
195.60	-0.000
195.81	-0.000
196.03	-0.000
196.25	-0.000
196.46	-0.000
196.68	-0.000
196.89	-0.000
197.11	-0.000
197.32	-0.000
197.54	-0.000
197.75	-0.000
197.97	-0.000
198.18	-0.000
198.40	-0.000
198.61	-0.000
198.83	-0.000
199.04	-0.000
199.26	-0.000
199.47	-0.000
199.69	-0.000
199.90	-0.000
200.12	-0.000
200.33	-0.000
200.55	-0.000
200.76	-0.000
200.98	-0.000
201.19	-0.000
201.41	-0.000
201.62	-0.000
201.84	-0.000
202.05	-0.000
202.27	-0.000
202.48	-0.000
202.70	-0.000
202.91	-0.000
203.13	-0.000
203.34	-0.000
203.56	-0.000
203.77	-0.000
203.99	-0.000
204.20	-0.000
204.42	-0.000
204.63	-0.000
204.85	-0.000
205.06	-0.000
205.28	-0.000
205.49	-0.000
205.71	-0.000
205.92	-0.000
206.14	-0.000
206.35	-0.000
206.56	-0.000
206.78	-0.000
206.99	-0.000
207.21	-0.000
207.42	-0.000
207.64	-0.000
207.85	-0.000
208.07	-0.000
208.28	-0.000
208.50	-0.000
208.71	-0.000
208.93	-0.000
209.14	-0.000
209.36	-0.000
209.57	-0.000
209.79	-0.000
210.00	-0.000
210.22	-0.000
210.43	-0.000
210.64	-0.000
210.86	-0.000
211.07	-0.000
211.29	-0.000
211.50	-0.000
211.72	-0.000
211.93	-0.000
212.15	-0.000
212.36	-0.000
212.58	-0.000
212.79	-0.000
213.01	-0.000
213.22	-0.000
213.43	-0.000
213.65	-0.000
213.86	-0.000
214.08	-0.000
214.29	-0.000
214.51	-0.000
214.72	-0.000
214.94	-0.000
215.15	-0.000
215.36	-0.000
215.58	-0.000
215.79	-0.000
216.01	-0.000
216.22	-0.000
216.44	-0.000
216.65	-0.000
216.87	-0.000
217.08	-0.000
217.29	-0.000
217.51	-0.000
217.72	-0.000
217.94	-0.000
218.15	-0.000
218.37	-0.000
218.58	-0.000
218.80	-0.000
219.01	-0.000
219.22	-0.000
219.44	-0.000
219.65	-0.000
219.87	-0.000
220.08	-0.000
220.30	-0.000
220.51	-0.000
220.72	-0.000
220.94	-0.000
221.15	-0.000
221.37	-0.000
221.58	-0.000
221.79	-0.000
222.01	-0.000
222.22	-0.000
222.44	-0.000
222.65	-0.000
222.87	-0.000
223.08	-0.000
223.29	-0.000
223.51	-0.000
223.72	-0.000
223.94	-0.000
224.15	-0.000
224.36	-0.000
224.58	-0.000
224.79	-0.000
225.01	-0.000
225.22	-0.000
225.44	-0.000
225.65	-0.000
225.86	-0.000
226.08	-0.000
226.29	-0.000
226.51	-0.000
226.72	-0.000
226.93	-0.000
227.15	-0.000
227.36	-0.000
227.58	-0.000
227.79	-0.000
228.00	-0.000
228.22	-0.000
228.43	-0.000
228.65	-0.000
228.86	-0.000
229.07	-0.000
229.29	-0.000
229.50	-0.000
229.72	-0.000
229.93	-0.000
230.14	-0.000
230.36	-0.000
230.57	-0.000
230.78	-0.000
231.00	-0.000
231.21	-0.000
231.43	-0.000
231.64	-0.000
231.85	-0.000
232.07	-0.000
232.28	-0.000
232.50	-0.000
232.71	-0.000
232.92	-0.000
233.14	-0.000
233.35	-0.000
233.56	-0.000
233.78	-0.000
233.99	-0.000
234.21	-0.000
234.42	-0.000
234.63	-0.000
234.85	-0.000
235.06	-0.000
235.27	-0.000
235.49	-0.000
235.70	-0.000
235.91	-0.000
236.13	-0.000
236.34	-0.000
236.56	-0.000
236.77	-0.000
236.98	-0.000
237.20	-0.000
237.41	-0.000
237.62	-0.000
237.84	-0.000
238.05	-0.000
238.26	-0.000
238.48	-0.000
238.69	-0.000
238.91	-0.000
239.12	-0.000
239.33	-0.000
239.55	-0.000
239.76	-0.000
239.97	-0.000
240.19	-0.000
240.40	-0.000
240.61	-0.000
240.83	-0.000
241.04	-0.000
241.25	-0.000
241.47	-0.000
241.68	-0.000
241.89	-0.000
242.11	-0.000
242.32	-0.000
242.53	-0.000
242.75	-0.000
242.96	-0.000
243.17	-0.000
243.39	-0.000
243.60	-0.000
243.81	-0.000
244.03	-0.000
244.24	-0.000
244.45	-0.000
244.67	-0.000
244.88	-0.000
245.09	-0.000
245.31	-0.000
245.52	-0.000
245.73	-0.000
245.95	-0.000
246.16	-0.000
246.37	-0.000
246.59	-0.000
246.80	-0.000
247.01	-0.000
247.23	-0.000
247.44	-0.000
247.65	-0.000
247.87	-0.000
248.08	-0.000
248.29	-0.000
248.51	-0.000
248.72	-0.000
248.93	-0.000
249.15	-0.000
249.36	-0.000
249.57	-0.000
249.78	-0.000
250.00	-0.000
250.21	-0.000
250.42	-0.000
250.64	-0.000
250.85	-0.000
251.06	-0.000
251.28	-0.000
251.49	-0.000
251.70	-0.000
251.92	-0.000
252.13	-0.000
252.34	-0.000
252.55	-0.000
252.77	-0.000
252.98	-0.000
253.19	-0.000
253.41	-0.000
253.62	-0.000
253.83	-0.000
254.05	-0.000
254.26	-0.000
254.47	-0.000
254.68	-0.000
254.90	-0.000
255.11	-0.000
255.32	-0.000
255.54	-0.000
255.75	-0.000
255.96	-0.000
256.17	-0.000
256.39	-0.000
256.60	-0.000
256.81	-0.000
257.03	-0.000
257.24	-0.000
257.45	-0.000
257.66	-0.000
257.88	-0.000
258.09	-0.000
258.30	-0.000
258.51	-0.000
258.73	-0.000
258.94	-0.000
259.15	-0.000
259.37	-0.000
259.58	-0.000
259.79	-0.000
260.00	-0.000
260.22	-0.000
260.43	-0.000
260.64	-0.000
260.85	-0.000
261.07	-0.000
261.28	-0.000
261.49	-0.000
261.71	-0.000
261.92	-0.000
262.13	-0.000
262.34	-0.000
262.56	-0.000
262.77	-0.000
262.98	-0.000
263.19	-0.000
263.41	-0.000
263.62	-0.000
263.83	-0.000
264.04	-0.000
264.26	-0.000
264.47	-0.000
264.68	-0.000
264.89	-0.000
265.11	-0.000
265.32	-0.000
265.53	-0.000
265.74	-0.000
265.96	-0.000
266.17	-0.000
266.38	-0.000
266.59	-0.000
266.81	-0.000
267.02	-0.000
267.23	-0.000
267.44	-0.000
267.65	-0.000
267.87	-0.000
268.08	-0.000
268.29	-0.000
268.50	-0.000
268.72	-0.000
268.93	-0.000
269.14	-0.000
269.35	-0.000
269.57	-0.000
269.78	-0.000
269.99	-0.000
270.20	-0.000
270.41	-0.000
270.63	-0.000
270.84	-0.000
271.05	-0.000
271.26	-0.000
271.48	-0.000
271.69	-0.000
271.90	-0.000
272.11	-0.000
272.32	-0.000
272.54	-0.000
272.75	-0.000
272.96	-0.000
273.17	-0.000
273.39	-0.000
273.60	-0.000
273.81	-0.000
274.02	-0.000
274.23	-0.000
274.45	-0.000
274.66	-0.000
274.87	-0.000
275.08	-0.000
275.29	-0.000
275.51	-0.000
275.72	-0.000
275.93	-0.000
276.14	-0.000
276.35	-0.000
276.57	-0.000
276.78	-0.000
276.99	-0.000
277.20	-0.000
277.41	-0.000
277.63	-0.000
277.84	-0.000
278.05	-0.000
278.26	-0.000
278.47	-0.000
278.69	-0.000
278.90	-0.000
279.11	-0.000
279.32	-0.000
279.53	-0.000
279.74	-0.000
279.96	-0.000
280.17	-0.000
280.38	-0.000
280.59	-0.000
280.80	-0.000
281.02	-0.000
281.23	-0.000
281.44	-0.000
281.65	-0.000
281.86	-0.000
282.07	-0.000
282.29	-0.000
282.50	-0.000
282.71	-0.000
282.92	-0.000
283.13	-0.000
283.35	-0.000
283.56	-0.000
283.77	-0.000
283.98	-0.000
284.19	-0.000
284.40	-0.000
284.62	-0.000
284.83	-0.000
285.04	-0.000
285.25	-0.000
285.46	-0.000
285.67	-0.000
285.88	-0.000
286.10	-0.000
286.31	-0.000
286.52	-0.000
286.73	-0.000
286.94	-0.000
287.15	-0.000
287.37	-0.000
287.58	-0.000
287.79	-0.000
288.00	-0.000
288.21	-0.000
288.42	-0.000
288.63	-0.000
288.85	-0.000
289.06	-0.000
289.27	-0.000
289.48	-0.000
289.69	-0.000
289.90	-0.000
290.11	-0.000
290.33	-0.000
290.54	-0.000
290.75	-0.000
290.96	-0.000
291.17	-0.000
291.38	-0.000
291.59	-0.000
291.81	-0.000
292.02	-0.000
292.23	-0.000
292.44	-0.000
292.65	-0.000
292.86	-0.000
293.07	-0.000
293.28	-0.000
293.50	-0.000
293.71	-0.000
293.92	-0.000
294.13	-0.000
294.34	-0.000
294.55	-0.000
294.76	-0.000
294.97	-0.000
295.19	-0.000
295.40	-0.000
295.61	-0.000
295.82	-0.000
296.03	-0.000
296.24	-0.000
296.45	-0.000
296.66	-0.000
296.87	-0.000
297.09	-0.000
297.30	-0.000
297.51	3.547
297.72	2.609
297.93	-0.000
298.14	3.176
298.35	2.532
298.56	2.373
298.77	-0.000
298.99	3.047
299.20	2.658
299.41	2.407
299.62	2.247
299.83	2.243
300.04	2.007
300.25	1.968
300.46	2.090
300.67	2.005
300.88	1.857
301.10	1.876
301.31	2.049
301.52	1.887
301.73	1.761
301.94	1.754
302.15	1.782
302.36	1.704
302.57	1.601
302.78	1.612
302.99	1.679
303.20	1.716
303.41	1.566
303.63	1.543
303.84	1.564
304.05	1.558
304.26	1.473
304.47	1.486
304.68	1.493
304.89	1.474
305.10	1.413
305.31	1.398
305.52	1.454
305.73	1.444
305.94	1.390
306.15	1.379
306.37	1.410
306.58	1.417
306.79	1.369
307.00	1.397
307.21	1.456
307.42	1.445
307.63	1.394
307.84	1.354
308.05	1.404
308.26	1.398
308.47	1.367
308.68	1.364
308.89	1.366
309.10	1.362
309.31	1.309
309.52	1.295
309.73	1.315
309.95	1.307
310.16	1.267
310.37	1.254
310.58	1.280
310.79	1.274
311.00	1.268
311.21	1.270
311.42	1.274
311.63	1.267
311.84	1.242
312.05	1.240
312.26	1.268
312.47	1.284
312.68	1.250
312.89	1.228
313.10	1.235
313.31	1.202
313.52	1.202
313.73	1.202
313.94	1.205
314.15	1.186
314.36	1.159
314.57	1.152
314.78	1.139
314.99	1.132
315.21	1.117
315.42	1.121
315.63	1.137
315.84	1.112
316.05	1.095
316.26	1.103
316.47	1.124
316.68	1.119
316.89	1.095
317.10	1.115
317.31	1.123
317.52	1.126
317.73	1.104
317.94	1.102
318.15	1.161
318.36	1.159
318.57	1.138
318.78	1.125
318.99	1.166
319.20	1.162
319.41	1.124
319.62	1.126
319.83	1.141
320.04	1.133
320.25	1.116
320.46	1.069
320.67	1.073
320.88	1.068
321.09	1.053
321.30	1.038
321.51	1.054
321.72	1.051
321.93	1.032
322.14	1.022
322.35	1.050
322.56	1.051
322.77	1.037
322.98	1.050
323.19	1.061
323.40	1.067
323.61	1.043
323.82	1.036
324.03	1.044
324.24	1.040
324.45	1.025
324.66	1.006
324.87	1.003
325.08	1.002
325.29	0.979
325.50	0.969
325.71	0.974
325.92	0.982
326.13	0.967
326.34	0.968
326.55	0.978
326.76	0.978
326.97	0.967
327.18	0.962
327.39	0.990
327.60	0.992
327.80	0.993
328.01	0.990
328.22	0.990
328.43	0.994
328.64	0.980
328.85	0.984
329.06	0.985
329.27	0.984
329.48	0.978
329.69	0.958
329.90	0.968
330.11	0.961
330.32	0.955
330.53	0.947
330.74	0.947
330.95	0.946
331.16	0.928
331.37	0.936
331.58	0.936
331.79	0.935
332.00	0.925
332.21	0.918
332.42	0.922
332.63	0.912
332.83	0.907
333.04	0.909
333.25	0.920
333.46	0.920
333.67	0.905
333.88	0.908
334.09	0.919
334.30	0.917
334.51	0.907
334.72	0.903
334.93	0.906
335.14	0.906
335.35	0.899
335.56	0.896
335.77	0.905
335.98	0.905
336.18	0.899
336.39	0.892
336.60	0.896
336.81	0.895
337.02	0.893
337.23	0.898
337.44	0.902
337.65	0.902
337.86	0.890
338.07	0.884
338.28	0.890
338.49	0.886
338.70	0.876
338.91	0.884
339.11	0.892
339.32	0.889
339.53	0.875
339.74	0.872
339.95	0.869
340.16	0.867
340.37	0.860
340.58	0.858
340.79	0.863
341.00	0.863
341.21	0.852
341.41	0.852
341.62	0.854
341.83	0.855
342.04	0.849
342.25	0.862
342.46	0.866
342.67	0.864
342.88	0.856
343.09	0.854
343.30	0.862
343.50	0.865
343.71	0.855
343.92	0.853
344.13	0.858
344.34	0.858
344.55	0.840
344.76	0.839
344.97	0.843
345.18	0.843
345.38	0.840
345.59	0.833
345.80	0.833
346.01	0.831
346.22	0.825
346.43	0.818
346.64	0.827
346.85	0.827
347.06	0.819
347.26	0.819
347.47	0.823
347.68	0.819
347.89	0.815
348.10	0.810
348.31	0.817
348.52	0.817
348.73	0.815
348.93	0.812
349.14	0.815
349.35	0.814
349.56	0.808
349.77	0.802
349.98	0.808
350.19	0.807
350.39	0.800
350.60	0.797
350.81	0.814
351.02	0.812
351.23	0.807
351.44	0.810
351.65	0.813
351.86	0.811
352.06	0.810
352.27	0.811
352.48	0.812
352.69	0.813
352.90	0.807
353.11	0.793
353.31	0.800
353.52	0.796
353.73	0.787
353.94	0.789
354.15	0.795
354.36	0.795
354.57	0.786
354.77	0.789
354.98	0.788
355.19	0.788
355.40	0.786
355.61	0.793
355.82	0.797
356.02	0.797
356.23	0.789
356.44	0.790
356.65	0.794
356.86	0.795
357.07	0.787
357.27	0.790
357.48	0.793
357.69	0.788
357.90	0.772
358.11	0.770
358.32	0.773
358.52	0.777
358.73	0.767
358.94	0.769
359.15	0.773
359.36	0.775
359.56	0.770
359.77	0.766
359.98	0.773
360.19	0.772
360.40	0.769
360.61	0.770
360.81	0.769
361.02	0.769
361.23	0.760
361.44	0.759
361.65	0.758
361.85	0.758
362.06	0.756
362.27	0.758
362.48	0.758
362.69	0.760
362.89	0.754
363.10	0.755
363.31	0.761
363.52	0.764
363.73	0.758
363.93	0.760
364.14	0.763
364.35	0.765
364.56	0.755
364.77	0.757
364.97	0.759
365.18	0.758
365.39	0.753
365.60	0.750
365.81	0.751
366.01	0.751
366.22	0.747
366.43	0.746
366.64	0.748
366.84	0.754
367.05	0.750
367.26	0.750
367.47	0.752
367.68	0.752
367.88	0.748
368.09	0.746
368.30	0.748
368.51	0.747
368.71	0.746
368.92	0.750
369.13	0.748
369.34	0.748
369.55	0.746
369.75	0.746
369.96	0.754
370.17	0.753
370.38	0.750
370.58	0.750
370.79	0.756
371.00	0.755
371.21	0.745
371.41	0.750
371.62	0.753
371.83	0.749
372.04	0.747
372.24	0.740
372.45	0.742
372.66	0.742
372.87	0.739
373.07	0.736
373.28	0.737
373.49	0.741
373.70	0.732
373.90	0.731
374.11	0.741
374.32	0.740
374.53	0.739
374.73	0.739
374.94	0.742
375.15	0.741
375.36	0.738
375.56	0.747
375.77	0.747
375.98	0.747
376.19	0.743
376.39	0.736
376.60	0.740
376.81	0.740
377.02	0.737
377.22	0.736
377.43	0.736
377.64	0.736
377.84	0.727
378.05	0.732
378.26	0.738
378.47	0.738
378.67	0.734
378.88	0.732
379.09	0.733
379.30	0.733
379.50	0.730
379.71	0.732
379.92	0.735
380.12	0.735
380.33	0.725
380.54	0.722
380.75	0.729
380.95	0.729
381.16	0.726
381.37	0.726
381.57	0.729
381.78	0.729
381.99	0.729
382.20	0.728
382.40	0.731
382.61	0.732
382.82	0.728
383.02	0.721
383.23	0.724
383.44	0.725
383.64	0.723
383.85	0.724
384.06	0.728
384.27	0.725
384.47	0.722
384.68	0.722
384.89	0.728
385.09	0.727
385.30	0.726
385.51	0.725
385.71	0.728
385.92	0.728
386.13	0.726
386.33	0.728
386.54	0.729
386.75	0.728
386.95	0.724
387.16	0.720
387.37	0.723
387.58	0.723
387.78	0.721
387.99	0.718
388.20	0.721
388.40	0.718
388.61	0.714
388.82	0.717
389.02	0.719
389.23	0.719
389.44	0.717
389.64	0.717
389.85	0.727
390.06	0.727
390.26	0.727
390.47	0.726
390.68	0.729
390.88	0.727
391.09	0.722
391.30	0.721
391.50	0.721
391.71	0.721
391.92	0.718
392.12	0.711
392.33	0.711
392.53	0.710
392.74	0.710
392.95	0.709
393.15	0.712
393.36	0.714
393.57	0.711
393.77	0.714
393.98	0.716
394.19	0.716
394.39	0.715
394.60	0.717
394.81	0.719
395.01	0.717
395.22	0.715
395.43	0.716
395.63	0.721
395.84	0.722
396.04	0.717
396.25	0.719
396.46	0.721
396.66	0.718
396.87	0.716
397.08	0.713
397.28	0.715
397.49	0.716
397.69	0.712
397.90	0.707
398.11	0.708
398.31	0.708
398.52	0.704
398.73	0.705
398.93	0.705
399.14	0.703
399.34	0.702
399.55	0.703
399.76	0.704
399.96	0.704
400.17	0.703
400.37	0.702
400.58	0.708
400.79	0.709
400.99	0.707
401.20	0.712
401.41	0.715
401.61	0.715
401.82	0.720
402.02	0.719
402.23	0.721
402.44	0.721
402.64	0.721
402.85	0.715
403.05	0.715
403.26	0.713
403.47	0.707
403.67	0.705
403.88	0.706
404.08	0.700
404.29	0.698
404.50	0.698
404.70	0.698
404.91	0.697
405.11	0.694
405.32	0.694
405.52	0.695
405.73	0.694
405.94	0.692
406.14	0.695
406.35	0.697
406.55	0.696
406.76	0.693
406.97	0.694
407.17	0.697
407.38	0.696
407.58	0.694
407.79	0.697
407.99	0.699
408.20	0.700
408.41	0.695
408.61	0.694
408.82	0.695
409.02	0.695
409.23	0.693
409.43	0.692
409.64	0.692
409.84	0.692
410.05	0.689
410.26	0.688
410.46	0.688
410.67	0.688
410.87	0.689
411.08	0.690
411.28	0.692
411.49	0.693
411.69	0.691
411.90	0.693
412.11	0.695
412.31	0.696
412.52	0.693
412.72	0.693
412.93	0.694
413.13	0.692
413.34	0.688
413.54	0.690
413.75	0.692
413.95	0.691
414.16	0.687
414.37	0.689
414.57	0.689
414.78	0.692
414.98	0.691
415.19	0.693
415.39	0.691
415.60	0.694
415.80	0.692
416.01	0.691
416.21	0.694
416.42	0.694
416.62	0.689
416.83	0.688
417.03	0.688
417.24	0.688
417.44	0.685
417.65	0.684
417.86	0.684
418.06	0.683
418.27	0.680
418.47	0.681
418.68	0.682
418.88	0.683
419.09	0.682
419.29	0.682
419.50	0.683
419.70	0.683
419.91	0.681
420.11	0.679
420.32	0.682
420.52	0.682
420.73	0.681
420.93	0.682
421.14	0.683
421.34	0.682
421.55	0.678
421.75	0.678
421.96	0.679
422.16	0.680
422.37	0.678
422.57	0.675
422.78	0.678
422.98	0.674
423.19	0.672
423.39	0.671
423.60	0.675
423.80	0.676
424.01	0.675
424.21	0.677
424.42	0.679
424.62	0.678
424.83	0.678
425.03	0.677
425.23	0.679
425.44	0.679
425.64	0.679
425.85	0.677
426.05	0.679
426.26	0.679
426.46	0.675
426.67	0.674
426.87	0.680
427.08	0.680
427.28	0.678
427.49	0.680
427.69	0.681
427.90	0.680
428.10	0.677
428.31	0.677
428.51	0.678
428.71	0.677
428.92	0.678
429.12	0.675
429.33	0.676
429.53	0.680
429.74	0.683
429.94	0.683
430.15	0.683
430.35	0.684
430.56	0.680
430.76	0.679
430.96	0.681
431.17	0.679
431.37	0.676
431.58	0.674
431.78	0.672
431.99	0.665
432.19	0.666
432.40	0.668
432.60	0.669
432.80	0.671
433.01	0.669
433.21	0.669
433.42	0.671
433.62	0.671
433.83	0.671
434.03	0.673
434.23	0.677
434.44	0.676
434.64	0.674
434.85	0.679
435.05	0.680
435.26	0.681
435.46	0.680
435.66	0.679
435.87	0.679
436.07	0.679
436.28	0.674
436.48	0.672
436.69	0.672
436.89	0.672
437.09	0.666
437.30	0.665
437.50	0.665
437.71	0.677
437.91	0.677
438.11	0.678
438.32	0.682
438.52	0.683
438.73	0.682
438.93	0.680
439.13	0.679
439.34	0.683
439.54	0.680
439.75	0.680
439.95	0.670
440.15	0.674
440.36	0.673
440.56	0.671
440.77	0.671
440.97	0.671
441.17	0.670
441.38	0.671
441.58	0.669
441.79	0.669
441.99	0.667
442.19	0.665
442.40	0.664
442.60	0.664
442.81	0.661
443.01	0.662
443.21	0.663
443.42	0.663
443.62	0.661
443.82	0.661
444.03	0.663
444.23	0.663
444.44	0.664
444.64	0.663
444.84	0.665
445.05	0.665
445.25	0.662
445.45	0.663
445.66	0.665
445.86	0.664
446.06	0.665
446.27	0.664
446.47	0.668
446.68	0.665
446.88	0.664
447.08	0.663
447.29	0.665
447.49	0.665
447.69	0.664
447.90	0.663
448.10	0.667
448.30	0.665
448.51	0.666
448.71	0.663
448.91	0.666
449.12	0.665
449.32	0.667
449.52	0.666
449.73	0.669
449.93	0.668
450.14	0.669
450.34	0.668
450.54	0.671
450.75	0.668
450.95	0.667
451.15	0.667
451.36	0.669
451.56	0.666
451.76	0.665
451.97	0.662
452.17	0.663
452.37	0.661
452.58	0.657
452.78	0.657
452.98	0.659
453.19	0.659
453.39	0.659
453.59	0.658
453.79	0.660
454.00	0.661
454.20	0.660
454.40	0.661
454.61	0.663
454.81	0.665
455.01	0.663
455.22	0.663
455.42	0.665
455.62	0.663
455.83	0.662
456.03	0.665
456.23	0.666
456.44	0.667
456.64	0.665
456.84	0.665
457.04	0.666
457.25	0.665
457.45	0.661
457.65	0.660
457.86	0.661
458.06	0.660
458.26	0.655
458.47	0.654
458.67	0.656
458.87	0.656
459.07	0.653
459.28	0.655
459.48	0.658
459.68	0.658
459.89	0.657
460.09	0.656
460.29	0.657
460.49	0.659
460.70	0.658
460.90	0.658
461.10	0.659
461.31	0.658
461.51	0.655
461.71	0.657
461.91	0.658
462.12	0.659
462.32	0.658
462.52	0.659
462.72	0.662
462.93	0.662
463.13	0.661
463.33	0.662
463.53	0.665
463.74	0.664
463.94	0.659
464.14	0.660
464.35	0.662
464.55	0.661
464.75	0.659
464.95	0.657
465.16	0.659
465.36	0.658
465.56	0.656
465.76	0.656
465.97	0.657
466.17	0.658
466.37	0.656
466.57	0.656
466.78	0.658
466.98	0.658
467.18	0.656
467.38	0.654
467.59	0.656
467.79	0.657
467.99	0.655
468.19	0.656
468.39	0.659
468.60	0.659
468.80	0.657
469.00	0.658
469.20	0.659
469.41	0.659
469.61	0.659
469.81	0.658
470.01	0.658
470.22	0.659
470.42	0.657
470.62	0.654
470.82	0.656
471.02	0.656
471.23	0.654
471.43	0.655
471.63	0.657
471.83	0.656
472.04	0.655
472.24	0.653
472.44	0.659
472.64	0.659
472.84	0.657
473.05	0.657
473.25	0.660
473.45	0.659
473.65	0.657
473.85	0.658
474.06	0.659
474.26	0.659
474.46	0.660
474.66	0.657
474.86	0.657
475.07	0.658
475.27	0.656
475.47	0.653
475.67	0.653
475.87	0.655
476.08	0.652
476.28	0.653
476.48	0.654
476.68	0.653
476.88	0.650
477.09	0.652
477.29	0.653
477.49	0.653
477.69	0.652
477.89	0.653
478.09	0.652
478.30	0.655
478.50	0.652
478.70	0.652
478.90	0.652
479.10	0.655
479.31	0.656
479.51	0.654
479.71	0.655
479.91	0.655
480.11	0.653
480.31	0.654
480.52	0.652
480.72	0.652
480.92	0.650
481.12	0.649
481.32	0.647
481.52	0.645
481.72	0.645
481.93	0.649
482.13	0.650
482.33	0.649
482.53	0.647
482.73	0.648
482.93	0.649
483.14	0.649
483.34	0.647
483.54	0.648
483.74	0.648
483.94	0.647
484.14	0.643
484.34	0.642
484.55	0.643
484.75	0.643
484.95	0.641
485.15	0.640
485.35	0.640
485.55	0.640
485.75	0.638
485.96	0.638
486.16	0.640
486.36	0.639
486.56	0.638
486.76	0.638
486.96	0.638
487.16	0.638
487.36	0.636
487.57	0.637
487.77	0.638
487.97	0.638
488.17	0.637
488.37	0.635
488.57	0.635
488.77	0.636
488.97	0.635
489.18	0.634
489.38	0.637
489.58	0.637
489.78	0.636
489.98	0.636
490.18	0.636
490.38	0.636
490.58	0.635
490.78	0.636
490.98	0.638
491.19	0.638
491.39	0.637
491.59	0.636
491.79	0.639
491.99	0.639
492.19	0.638
492.39	0.642
492.59	0.641
492.79	0.644
492.99	0.644
493.20	0.644
493.40	0.644
493.60	0.646
493.80	0.644
494.00	0.642
494.20	0.643
494.40	0.643
494.60	0.640
494.80	0.645
495.00	0.644
495.20	0.643
495.40	0.642
495.61	0.643
495.81	0.643
496.01	0.646
496.21	0.647
496.41	0.646
496.61	0.648
496.81	0.646
497.01	0.641
497.21	0.640
497.41	0.640
497.61	0.640
497.81	0.637
498.01	0.637
498.21	0.635
498.41	0.632
498.61	0.632
498.82	0.633
499.02	0.635
499.22	0.636
499.42	0.636
499.62	0.638
499.82	0.639
500.02	0.640
500.22	0.638
500.42	0.640
500.62	0.642
500.82	0.642
501.02	0.640
501.22	0.640
501.42	0.640
501.62	0.642
501.82	0.642
502.02	0.641
502.22	0.641
502.42	0.643
502.62	0.640
502.82	0.641
503.02	0.641
503.22	0.641
503.42	0.639
503.63	0.639
503.83	0.637
504.03	0.635
504.23	0.634
504.43	0.634
504.63	0.636
504.83	0.636
505.03	0.635
505.23	0.636
505.43	0.638
505.63	0.638
505.83	0.638
506.03	0.640
506.23	0.642
506.43	0.642
506.63	0.641
506.83	0.639
507.03	0.641
507.23	0.641
507.43	0.639
507.63	0.640
507.83	0.641
508.03	0.641
508.23	0.640
508.43	0.638
508.63	0.640
508.83	0.641
509.03	0.642
509.23	0.641
509.43	0.643
509.63	0.643
509.83	0.641
510.03	0.643
510.23	0.645
510.43	0.646
510.63	0.647
510.83	0.646
511.03	0.648
511.23	0.646
511.43	0.645
511.63	0.646
511.83	0.649
512.03	0.649
512.22	0.646
512.42	0.645
512.62	0.646
512.82	0.645
513.02	0.644
513.22	0.643
513.42	0.645
513.62	0.647
513.82	0.646
514.02	0.645
514.22	0.646
514.42	0.646
514.62	0.646
514.82	0.646
515.02	0.649
515.22	0.653
515.42	0.651
515.62	0.654
515.82	0.653
516.02	0.654
516.22	0.654
516.42	0.656
516.62	0.658
516.82	0.659
517.01	0.657
517.21	0.656
517.41	0.659
517.61	0.660
517.81	0.655
518.01	0.654
518.21	0.654
518.41	0.653
518.61	0.651
518.81	0.652
519.01	0.652
519.21	0.653
519.41	0.652
519.61	0.647
519.81	0.649
520.00	0.650
520.20	0.651
520.40	0.654
520.60	0.655
520.80	0.654
521.00	0.654
521.20	0.655
521.40	0.661
521.60	0.661
521.80	0.660
522.00	0.660
522.20	0.663
522.39	0.662
522.59	0.659
522.79	0.661
522.99	0.663
523.19	0.662
523.39	0.660
523.59	0.657
523.79	0.661
523.99	0.663
524.19	0.662
524.38	0.661
524.58	0.663
524.78	0.663
524.98	0.660
525.18	0.662
525.38	0.663
525.58	0.664
525.78	0.661
525.98	0.659
526.18	0.659
526.37	0.659
526.57	0.660
526.77	0.660
526.97	0.661
527.17	0.661
527.37	0.657
527.57	0.659
527.77	0.661
527.96	0.661
528.16	0.660
528.36	0.661
528.56	0.663
528.76	0.661
528.96	0.660
529.16	0.661
529.36	0.665
529.55	0.666
529.75	0.662
529.95	0.662
530.15	0.663
530.35	0.666
530.55	0.663
530.75	0.664
530.94	0.665
531.14	0.665
531.34	0.663
531.54	0.661
531.74	0.663
531.94	0.667
532.13	0.665
532.33	0.667
532.53	0.665
532.73	0.665
532.93	0.664
533.13	0.665
533.33	0.666
533.52	0.667
533.72	0.670
533.92	0.668
534.12	0.666
534.32	0.666
534.52	0.664
534.71	0.666
534.91	0.669
535.11	0.671
535.31	0.669
535.51	0.671
535.71	0.673
535.90	0.670
536.10	0.671
536.30	0.673
536.50	0.674
536.70	0.674
536.89	0.672
537.09	0.672
537.29	0.673
537.49	0.674
537.69	0.672
537.89	0.673
538.08	0.673
538.28	0.671
538.48	0.671
538.68	0.673
538.88	0.675
539.07	0.675
539.27	0.673
539.47	0.672
539.67	0.672
539.87	0.674
540.06	0.670
540.26	0.671
540.46	0.674
540.66	0.671
540.86	0.668
541.05	0.668
541.25	0.670
541.45	0.670
541.65	0.668
541.84	0.669
542.04	0.670
542.24	0.671
542.44	0.670
542.64	0.671
542.83	0.674
543.03	0.674
543.23	0.672
543.43	0.673
543.62	0.674
543.82	0.675
544.02	0.674
544.22	0.673
544.42	0.677
544.61	0.677
544.81	0.674
545.01	0.672
545.21	0.675
545.40	0.676
545.60	0.673
545.80	0.677
546.00	0.677
546.19	0.676
546.39	0.674
546.59	0.672
546.79	0.673
546.98	0.674
547.18	0.674
547.38	0.674
547.58	0.677
547.77	0.677
547.97	0.673
548.17	0.675
548.37	0.675
548.56	0.677
548.76	0.675
548.96	0.678
549.16	0.680
549.35	0.680
549.55	0.677
549.75	0.678
549.95	0.682
550.14	0.682
550.34	0.679
550.54	0.685
550.73	0.688
550.93	0.690
551.13	0.686
551.33	0.683
551.52	0.684
551.72	0.685
551.92	0.683
552.12	0.683
552.31	0.684
552.51	0.683
552.71	0.678
552.90	0.678
553.10	0.679
553.30	0.679
553.50	0.680
553.69	0.681
553.89	0.682
554.09	0.682
554.28	0.679
554.48	0.681
554.68	0.683
554.87	0.683
555.07	0.680
555.27	0.680
555.47	0.683
555.66	0.682
555.86	0.681
556.06	0.683
556.25	0.684
556.45	0.692
556.65	0.689
556.84	0.692
557.04	0.696
557.24	0.698
557.43	0.697
557.63	0.700
557.83	0.702
558.02	0.703
558.22	0.707
558.42	0.708
558.61	0.700
558.81	0.701
559.01	0.697
559.21	0.696
559.40	0.697
559.60	0.697
559.80	0.693
559.99	0.694
560.19	0.696
560.39	0.690
560.58	0.687
560.78	0.688
560.97	0.692
561.17	0.691
561.37	0.689
561.56	0.690
561.76	0.692
561.96	0.691
562.15	0.688
562.35	0.691
562.55	0.692
562.74	0.692
562.94	0.690
563.14	0.688
563.33	0.688
563.53	0.688
563.73	0.685
563.92	0.687
564.12	0.690
564.31	0.692
564.51	0.690
564.71	0.691
564.90	0.695
565.10	0.695
565.30	0.698
565.49	0.699
565.69	0.701
565.89	0.702
566.08	0.699
566.28	0.699
566.47	0.702
566.67	0.699
566.87	0.696
567.06	0.698
567.26	0.704
567.46	0.699
567.65	0.699
567.85	0.700
568.04	0.703
568.24	0.702
568.44	0.699
568.63	0.698
568.83	0.700
569.02	0.699
569.22	0.694
569.42	0.690
569.61	0.693
569.81	0.691
570.00	0.689
570.20	0.690
570.40	0.691
570.59	0.691
570.79	0.688
570.98	0.686
571.18	0.688
571.38	0.687
571.57	0.684
571.77	0.682
571.96	0.686
572.16	0.684
572.35	0.678
572.55	0.679
572.75	0.677
572.94	0.677
573.14	0.675
573.33	0.675
573.53	0.676
573.73	0.676
573.92	0.674
574.12	0.671
574.31	0.674
574.51	0.674
574.70	0.672
574.90	0.673
575.09	0.676
575.29	0.676
575.49	0.673
575.68	0.674
575.88	0.675
576.07	0.676
576.27	0.675
576.46	0.673
576.66	0.673
576.86	0.672
577.05	0.670
577.25	0.668
577.44	0.670
577.64	0.670
577.83	0.668
578.03	0.669
578.22	0.669
578.42	0.668
578.61	0.665
578.81	0.666
579.00	0.667
579.20	0.666
579.40	0.665
579.59	0.663
579.79	0.664
579.98	0.663
580.18	0.662
580.37	0.663
580.57	0.665
580.76	0.670
580.96	0.668
581.15	0.669
581.35	0.672
581.54	0.671
581.74	0.670
581.93	0.672
582.13	0.673
582.32	0.670
582.52	0.668
582.71	0.667
582.91	0.663
583.10	0.663
583.30	0.661
583.49	0.661
583.69	0.665
583.88	0.666
584.08	0.665
584.27	0.667
584.47	0.671
584.66	0.672
584.86	0.671
585.05	0.673
585.25	0.676
585.44	0.676
585.64	0.674
585.83	0.671
586.03	0.671
586.22	0.670
586.42	0.666
586.61	0.668
586.81	0.670
587.00	0.670
587.20	0.667
587.39	0.667
587.59	0.669
587.78	0.670
587.98	0.671
588.17	0.671
588.37	0.674
588.56	0.676
588.76	0.672
588.95	0.672
589.15	0.677
589.34	0.679
589.54	0.678
589.73	0.679
589.92	0.682
590.12	0.682
590.31	0.679
590.51	0.684
590.70	0.686
590.90	0.686
591.09	0.684
591.29	0.682
591.48	0.682
591.68	0.683
591.87	0.681
592.06	0.681
592.26	0.684
592.45	0.684
592.65	0.677
592.84	0.677
593.04	0.680
593.23	0.683
593.43	0.679
593.62	0.679
593.81	0.680
594.01	0.679
594.20	0.677
594.40	0.675
594.59	0.677
594.79	0.679
594.98	0.677
595.17	0.676
595.37	0.677
595.56	0.679
595.76	0.678
595.95	0.679
596.14	0.683
596.34	0.684
596.53	0.682
596.73	0.684
596.92	0.685
597.12	0.687
597.31	0.686
597.50	0.686
597.70	0.688
597.89	0.688
598.09	0.683
598.28	0.685
598.47	0.687
598.67	0.686
598.86	0.681
599.06	0.683
599.25	0.683
599.44	0.682
599.64	0.679
599.83	0.677
600.03	0.680
600.22	0.681
600.41	0.680
600.61	0.679
600.80	0.682
601.00	0.682
601.19	0.678
601.38	0.677
601.58	0.680
601.77	0.682
601.96	0.683
602.16	0.684
602.35	0.692
602.55	0.689
602.74	0.690
602.93	0.691
603.13	0.697
603.32	0.698
603.51	0.697
603.71	0.700
603.90	0.703
604.09	0.703
604.29	0.699
604.48	0.693
604.68	0.696
604.87	0.694
605.06	0.690
605.26	0.687
605.45	0.688
605.64	0.687
605.84	0.682
606.03	0.681
606.22	0.680
606.42	0.680
606.61	0.677
606.80	0.676
607.00	0.678
607.19	0.679
607.38	0.678
607.58	0.679
607.77	0.682
607.96	0.682
608.16	0.680
608.35	0.685
608.54	0.688
608.74	0.691
608.93	0.696
609.12	0.699
609.32	0.702
609.51	0.705
609.70	0.704
609.90	0.706
610.09	0.711
610.28	0.716
610.48	0.709
610.67	0.710
610.86	0.712
611.06	0.706
611.25	0.703
611.44	0.704
611.64	0.704
611.83	0.706
612.02	0.703
612.21	0.701
612.41	0.700
612.60	0.699
612.79	0.695
612.99	0.695
613.18	0.697
613.37	0.695
613.57	0.693
613.76	0.695
613.95	0.692
614.14	0.692
614.34	0.689
614.53	0.691
614.72	0.694
614.92	0.694
615.11	0.691
615.30	0.688
615.49	0.689
615.69	0.691
615.88	0.687
616.07	0.689
616.26	0.690
616.46	0.691
616.65	0.689
616.84	0.687
617.04	0.689
617.23	0.693
617.42	0.693
617.61	0.696
617.81	0.698
618.00	0.700
618.19	0.698
618.38	0.702
618.58	0.706
618.77	0.707
618.96	0.705
619.15	0.707
619.35	0.709
619.54	0.709
619.73	0.705
619.92	0.707
620.12	0.712
620.31	0.712
620.50	0.706
620.69	0.707
620.89	0.710
621.08	0.711
621.27	0.710
621.46	0.709
621.66	0.713
621.85	0.714
622.04	0.710
622.23	0.711
622.43	0.711
622.62	0.711
622.81	0.710
623.00	0.709
623.19	0.713
623.39	0.712
623.58	0.710
623.77	0.708
623.96	0.711
624.16	0.711
624.35	0.705
624.54	0.708
624.73	0.713
624.92	0.711
625.12	0.709
625.31	0.710
625.50	0.714
625.69	0.714
625.88	0.709
626.08	0.709
626.27	0.711
626.46	0.711
626.65	0.708
626.84	0.707
627.04	0.713
627.23	0.713
627.42	0.709
627.61	0.710
627.80	0.714
628.00	0.715
628.19	0.713
628.38	0.716
628.57	0.720
628.76	0.720
628.96	0.716
629.15	0.717
629.34	0.719
629.53	0.719
629.72	0.713
629.91	0.714
630.11	0.718
630.30	0.719
630.49	0.720
630.68	0.721
630.87	0.725
631.06	0.727
631.26	0.722
631.45	0.725
631.64	0.733
631.83	0.735
632.02	0.732
632.21	0.731
632.41	0.739
632.60	0.734
632.79	0.732
632.98	0.733
633.17	0.735
633.36	0.737
633.55	0.733
633.75	0.730
633.94	0.732
634.13	0.732
634.32	0.728
634.51	0.722
634.70	0.725
634.89	0.723
635.09	0.717
635.28	0.718
635.47	0.719
635.66	0.721
635.85	0.715
636.04	0.717
636.23	0.722
636.43	0.724
636.62	0.723
636.81	0.722
637.00	0.726
637.19	0.729
637.38	0.724
637.57	0.724
637.76	0.727
637.95	0.728
638.15	0.724
638.34	0.721
638.53	0.724
638.72	0.726
638.91	0.723
639.10	0.720
639.29	0.721
639.48	0.723
639.67	0.723
639.87	0.720
640.06	0.726
640.25	0.726
640.44	0.726
640.63	0.727
640.82	0.729
641.01	0.728
641.20	0.727
641.39	0.729
641.58	0.731
641.78	0.730
641.97	0.726
642.16	0.741
642.35	0.741
642.54	0.741
642.73	0.734
642.92	0.732
643.11	0.737
643.30	0.738
643.49	0.732
643.68	0.735
643.87	0.737
644.06	0.737
644.25	0.716
644.45	0.719
644.64	0.721
644.83	0.722
645.02	0.718
645.21	0.718
645.40	0.719
645.59	0.720
645.78	0.713
645.97	0.715
646.16	0.717
646.35	0.717
646.54	0.714
646.73	0.715
646.92	0.717
647.11	0.718
647.30	0.714
647.49	0.716
647.68	0.715
647.88	0.713
648.07	0.705
648.26	0.709
648.45	0.710
648.64	0.706
648.83	0.703
649.02	0.705
649.21	0.715
649.40	0.714
649.59	0.708
649.78	0.709
649.97	0.724
650.16	0.724
650.35	0.717
650.54	0.720
650.73	0.729
650.92	0.726
651.11	0.718
651.30	0.716
651.49	0.721
651.68	0.721
651.87	0.718
652.06	0.707
652.25	0.712
652.44	0.714
652.63	0.711
652.82	0.711
653.01	0.710
653.20	0.708
653.39	0.696
653.58	0.692
653.77	0.692
653.96	0.687
654.15	0.679
654.34	0.677
654.53	0.673
654.72	0.667
654.91	0.658
655.10	0.654
655.29	0.652
655.48	0.650
655.67	0.645
655.86	0.642
656.05	0.641
656.24	0.640
656.43	0.635
656.62	0.634
656.81	0.634
657.00	0.632
657.19	0.630
657.38	0.630
657.57	0.629
657.76	0.632
657.95	0.630
658.14	0.634
658.33	0.636
658.51	0.642
658.70	0.642
658.89	0.643
659.08	0.653
659.27	0.660
659.46	0.660
659.65	0.667
659.84	0.670
660.03	0.673
660.22	0.674
660.41	0.679
660.60	0.679
660.79	0.680
660.98	0.685
661.17	0.685
661.36	0.685
661.55	0.685
661.74	0.682
661.92	0.685
662.11	0.687
662.30	0.686
662.49	0.679
662.68	0.679
662.87	0.684
663.06	0.677
663.25	0.678
663.44	0.678
663.63	0.679
663.82	0.678
664.01	0.673
664.20	0.671
664.38	0.673
664.57	0.673
664.76	0.672
664.95	0.673
665.14	0.678
665.33	0.673
665.52	0.680
665.71	0.685
665.90	0.685
666.09	0.685
666.28	0.683
666.46	0.681
666.65	0.682
666.84	0.680
667.03	0.674
667.22	0.671
667.41	0.674
667.60	0.664
667.79	0.657
667.98	0.658
668.16	0.660
668.35	0.660
668.54	0.656
668.73	0.657
668.92	0.659
669.11	0.659
669.30	0.652
669.49	0.648
669.67	0.650
669.86	0.653
670.05	0.650
670.24	0.647
670.43	0.645
670.62	0.643
670.81	0.637
671.00	0.638
671.18	0.638
671.37	0.638
671.56	0.636
671.75	0.635
671.94	0.632
672.13	0.630
672.32	0.625
672.50	0.625
672.69	0.626
672.88	0.627
673.07	0.622
673.26	0.623
673.45	0.625
673.63	0.624
673.82	0.621
674.01	0.622
674.20	0.622
674.39	0.622
674.58	0.620
674.76	0.621
674.95	0.620
675.14	0.619
675.33	0.615
675.52	0.613
675.71	0.613
675.89	0.612
676.08	0.608
676.27	0.607
676.46	0.609
676.65	0.608
676.84	0.607
677.02	0.609
677.21	0.612
677.40	0.610
677.59	0.608
677.78	0.609
677.96	0.612
678.15	0.610
678.34	0.608
678.53	0.608
678.72	0.609
678.90	0.605
679.09	0.600
679.28	0.596
679.47	0.597
679.66	0.596
679.84	0.592
680.03	0.590
680.22	0.589
680.41	0.591
680.60	0.587
680.78	0.587
680.97	0.590
681.16	0.589
681.35	0.588
681.53	0.587
681.72	0.588
681.91	0.590
682.10	0.588
682.29	0.591
682.47	0.589
682.66	0.589
682.85	0.588
683.04	0.586
683.22	0.586
683.41	0.589
683.60	0.587
683.79	0.588
683.97	0.588
684.16	0.587
684.35	0.583
684.54	0.584
684.72	0.584
684.91	0.584
685.10	0.583
685.29	0.584
685.47	0.581
685.66	0.580
685.85	0.576
686.04	0.575
686.22	0.578
686.41	0.581
686.60	0.577
686.79	0.581
686.97	0.582
687.16	0.584
687.35	0.581
687.54	0.584
687.72	0.589
687.91	0.588
688.10	0.590
688.29	0.589
688.47	0.587
688.66	0.587
688.85	0.582
689.03	0.580
689.22	0.585
689.41	0.585
689.60	0.580
689.78	0.577
689.97	0.578
690.16	0.575
690.34	0.572
690.53	0.571
690.72	0.572
690.91	0.570
691.09	0.568
691.28	0.561
691.47	0.560
691.65	0.558
691.84	0.555
692.03	0.554
692.21	0.552
692.40	0.552
692.59	0.549
692.77	0.548
692.96	0.549
693.15	0.550
693.34	0.548
693.52	0.548
693.71	0.550
693.90	0.551
694.08	0.552
694.27	0.553
694.46	0.563
694.64	0.564
694.83	0.563
695.02	0.561
695.20	0.562
695.39	0.562
695.58	0.561
695.76	0.562
695.95	0.561
696.14	0.560
696.32	0.558
696.51	0.548
696.70	0.548
696.88	0.549
697.07	0.548
697.26	0.549
697.44	0.550
697.63	0.549
697.81	0.546
698.00	0.546
698.19	0.546
698.37	0.546
698.56	0.545
698.75	0.545
698.93	0.545
699.12	0.545
699.31	0.544
699.49	0.543
699.68	0.544
699.87	0.547
700.05	0.547
700.24	0.546
700.42	0.548
700.61	0.547
700.80	0.545
700.98	0.545
701.17	0.546
701.36	0.545
701.54	0.544
701.73	0.545
701.91	0.543
702.10	0.542
702.29	0.541
702.47	0.540
702.66	0.542
702.84	0.543
703.03	0.542
703.22	0.543
703.40	0.543
703.59	0.543
703.77	0.542
703.96	0.543
704.15	0.544
704.33	0.543
704.52	0.542
704.70	0.541
704.89	0.541
705.08	0.540
705.26	0.536
705.45	0.536
705.63	0.537
705.82	0.534
706.00	0.532
706.19	0.531
706.38	0.531
706.56	0.530
706.75	0.528
706.93	0.526
707.12	0.528
707.30	0.528
707.49	0.526
707.68	0.523
707.86	0.523
708.05	0.523
708.23	0.520
708.42	0.521
708.60	0.524
708.79	0.524
708.98	0.523
709.16	0.522
709.35	0.525
709.53	0.529
709.72	0.528
709.90	0.529
710.09	0.531
710.27	0.533
710.46	0.537
710.64	0.535
710.83	0.537
711.02	0.538
711.20	0.536
711.39	0.534
711.57	0.533
711.76	0.534
711.94	0.531
712.13	0.532
712.31	0.532
712.50	0.528
712.68	0.525
712.87	0.527
713.05	0.527
713.24	0.528
713.42	0.527
713.61	0.528
713.79	0.529
713.98	0.529
714.16	0.530
714.35	0.529
714.54	0.531
714.72	0.530
714.91	0.527
715.09	0.534
715.28	0.537
715.46	0.536
715.65	0.533
715.83	0.533
716.02	0.536
716.20	0.532
716.39	0.532
716.57	0.532
716.76	0.535
716.94	0.535
717.12	0.527
717.31	0.528
717.49	0.532
717.68	0.534
717.86	0.533
718.05	0.535
718.23	0.538
718.42	0.541
718.60	0.542
718.79	0.551
718.97	0.554
719.16	0.554
719.34	0.552
719.53	0.552
719.71	0.552
719.90	0.554
720.08	0.552
720.27	0.551
720.45	0.552
720.63	0.550
720.82	0.543
721.00	0.546
721.19	0.549
721.37	0.549
721.56	0.549
721.74	0.552
721.93	0.560
722.11	0.567
722.30	0.567
722.48	0.571
722.66	0.573
722.85	0.572
723.03	0.572
723.22	0.571
723.40	0.574
723.59	0.573
723.77	0.576
723.95	0.570
724.14	0.571
724.32	0.572
724.51	0.571
724.69	0.573
724.88	0.574
725.06	0.572
725.24	0.573
725.43	0.575
725.61	0.580
725.80	0.574
725.98	0.572
726.16	0.569
726.35	0.575
726.53	0.573
726.72	0.572
726.90	0.583
727.09	0.584
727.27	0.589
727.45	0.585
727.64	0.594
727.82	0.603
728.01	0.607
728.19	0.604
728.37	0.609
728.56	0.614
728.74	0.620
728.92	0.607
729.11	0.609
729.29	0.609
729.48	0.612
729.66	0.600
729.84	0.599
730.03	0.603
730.21	0.605
730.40	0.595
730.58	0.597
730.76	0.599
730.95	0.600
731.13	0.601
731.31	0.615
731.50	0.624
731.68	0.629
731.86	0.626
732.05	0.640
732.23	0.644
732.42	0.647
732.60	0.650
732.78	0.654
732.97	0.675
733.15	0.682
733.33	0.668
733.52	0.676
733.70	0.688
733.88	0.698
734.07	0.682
734.25	0.711
734.43	0.722
734.62	0.723
734.80	0.719
734.98	0.709
735.17	0.717
735.35	0.724
735.53	0.713
735.72	0.718
735.90	0.741
736.08	0.763
736.27	0.739
736.45	0.748
736.63	0.764
736.82	0.776
737.00	0.773
737.18	0.789
737.37	0.825
737.55	0.851
737.73	0.842
737.92	0.841
738.10	0.840
738.28	0.863
738.46	0.851
738.65	0.865
738.83	0.892
739.01	0.952
739.20	0.936
739.38	0.914
739.56	0.906
739.75	0.914
739.93	0.876
740.11	0.900
740.29	0.902
740.48	0.912
740.66	0.889
740.84	0.881
741.03	0.847
741.21	0.861
741.39	0.842
741.57	0.856
741.76	0.876
741.94	0.886
742.12	0.847
742.31	0.854
742.49	0.880
742.67	0.906
742.85	0.920
743.04	0.921
743.22	0.933
743.40	0.998
743.58	0.973
743.77	0.996
743.95	1.046
744.13	1.103
744.31	1.079
744.50	1.060
744.68	1.063
744.86	1.033
745.04	1.048
745.23	1.128
745.41	1.108
745.59	1.113
745.77	1.063
745.96	1.046
746.14	1.066
746.32	1.061
746.50	1.049
746.69	1.029
746.87	1.048
747.05	1.028
747.23	0.940
747.42	0.919
747.60	0.956
747.78	0.963
747.96	0.994
748.14	0.943
748.33	0.980
748.51	0.971
748.69	0.959
748.87	0.984
749.06	0.984
749.24	0.981
749.42	0.967
749.60	0.945
749.78	0.956
749.97	0.902
750.15	0.895
750.33	0.895
750.51	0.929
750.69	0.934
750.88	0.938
751.06	0.951
751.24	0.985
751.42	0.976
751.60	0.970
751.79	1.054
751.97	1.124
752.15	1.122
752.33	1.075
752.51	1.164
752.69	1.192
752.88	1.148
753.06	1.209
753.24	1.169
753.42	1.218
753.60	1.463
753.78	1.241
753.97	1.257
754.15	1.286
754.33	1.327
754.51	1.147
754.69	1.124
754.87	1.168
755.06	1.076
755.24	1.079
755.42	1.090
755.60	0.977
755.78	0.987
755.96	0.923
756.15	0.923
756.33	0.934
756.51	0.952
756.69	0.936
756.87	0.897
757.05	0.920
757.23	0.898
757.42	0.857
757.60	0.851
757.78	0.839
757.96	0.837
758.14	0.818
758.32	0.798
758.50	0.814
758.69	0.813
758.87	0.800
759.05	0.802
759.23	0.813
759.41	0.814
759.59	0.804
759.77	0.832
759.95	0.862
760.13	0.917
760.32	0.913
760.50	0.908
760.68	0.936
760.86	0.940
761.04	0.909
761.22	0.921
761.40	0.976
761.58	0.981
761.76	0.939
761.95	0.917
762.13	0.867
762.31	0.869
762.49	0.833
762.67	0.852
762.85	0.865
763.03	0.857
763.21	0.833
763.39	0.811
763.57	0.813
763.75	0.809
763.94	0.794
764.12	0.795
764.30	0.821
764.48	0.824
764.66	0.782
764.84	0.783
765.02	0.827
765.20	0.836
765.38	0.816
765.56	0.824
765.74	0.871
765.92	0.871
766.10	0.877
766.28	0.869
766.46	0.905
766.65	0.908
766.83	0.892
767.01	0.873
767.19	0.879
767.37	0.879
767.55	0.861
767.73	0.836
767.91	0.842
768.09	0.829
768.27	0.817
768.45	0.806
768.63	0.808
768.81	0.810
768.99	0.781
769.17	0.809
769.35	0.826
769.53	0.825
769.71	0.806
769.89	0.815
770.07	0.822
770.25	0.803
770.43	0.781
770.61	0.813
770.79	0.821
770.97	0.831
771.15	0.797
771.33	0.800
771.51	0.804
771.69	0.814
771.87	0.818
772.05	0.824
772.24	0.835
772.42	0.841
772.60	0.815
772.78	0.883
772.96	0.920
773.14	0.909
773.32	0.882
773.49	0.892
773.67	0.890
773.85	0.866
774.03	0.853
774.21	0.889
774.39	0.905
774.57	0.931
774.75	0.844
774.93	0.837
775.11	0.866
775.29	0.874
775.47	0.872
775.65	0.888
775.83	0.913
776.01	0.938
776.19	0.883
776.37	0.882
776.55	0.883
776.73	0.879
776.91	0.871
777.09	0.853
777.27	0.850
777.45	0.839
777.63	0.810
777.81	0.807
777.99	0.793
778.17	0.789
778.35	0.765
778.53	0.755
778.71	0.764
778.89	0.752
779.07	0.738
779.24	0.745
779.42	0.745
779.60	0.765
779.78	0.759
779.96	0.764
780.14	0.775
780.32	0.799
780.50	0.777
780.68	0.775
780.86	0.767
781.04	0.785
781.22	0.786
781.40	0.800
781.58	0.788
781.75	0.779
781.93	0.760
782.11	0.761
782.29	0.744
782.47	0.745
782.65	0.734
782.83	0.766
783.01	0.759
783.19	0.754
783.37	0.736
783.55	0.741
783.72	0.765
783.90	0.778
784.08	0.767
784.26	0.783
784.44	0.802
784.62	0.803
784.80	0.765
784.98	0.769
785.16	0.777
785.33	0.795
785.51	0.777
785.69	0.759
785.87	0.761
786.05	0.773
786.23	0.768
786.41	0.767
786.59	0.776
786.77	0.774
786.94	0.761
787.12	0.764
787.30	0.765
787.48	0.761
787.66	0.748
787.84	0.746
788.02	0.737
788.19	0.733
788.37	0.716
788.55	0.716
788.73	0.717
788.91	0.711
789.09	0.692
789.27	0.679
789.44	0.696
789.62	0.702
789.80	0.710
789.98	0.737
790.16	0.724
790.34	0.721
790.51	0.708
790.69	0.730
790.87	0.738
791.05	0.736
791.23	0.728
791.41	0.727
791.58	0.736
791.76	0.714
791.94	0.680
792.12	0.690
792.30	0.692
792.48	0.690
792.65	0.681
792.83	0.687
793.01	0.695
793.19	0.694
793.37	0.677
793.54	0.674
793.72	0.688
793.90	0.686
794.08	0.673
794.26	0.676
794.43	0.687
794.61	0.671
794.79	0.658
794.97	0.658
795.15	0.665
795.32	0.669
795.50	0.655
795.68	0.649
795.86	0.653
796.04	0.657
796.21	0.649
796.39	0.645
796.57	0.660
796.75	0.669
796.92	0.668
797.10	0.675
797.28	0.677
797.46	0.681
797.64	0.681
797.81	0.689
797.99	0.693
798.17	0.698
798.35	0.690
798.52	0.693
798.70	0.689
798.88	0.696
799.06	0.694
799.23	0.697
799.41	0.707
799.59	0.700
799.77	0.686
799.94	0.693
800.12	0.705
800.30	0.727
800.48	0.725
800.65	0.723
800.83	0.712
801.01	0.703
801.19	0.704
801.36	0.699
801.54	0.701
801.72	0.713
801.90	0.699
802.07	0.694
802.25	0.679
802.43	0.662
802.60	0.660
802.78	0.668
802.96	0.674
803.14	0.667
803.31	0.664
803.49	0.665
803.67	0.661
803.84	0.667
804.02	0.658
804.20	0.662
804.38	0.669
804.55	0.668
804.73	0.653
804.91	0.653
805.08	0.666
805.26	0.663
805.44	0.734
805.61	0.739
805.79	0.739
805.97	0.738
806.15	0.727
806.32	0.722
806.50	0.728
806.68	0.729
806.85	0.719
807.03	0.710
807.21	0.728
807.38	0.654
807.56	0.643
807.74	0.652
807.91	0.660
808.09	0.662
808.27	0.681
808.44	0.708
808.62	0.717
808.80	0.720
808.97	0.713
809.15	0.707
809.33	0.726
809.50	0.733
809.68	0.718
809.86	0.726
810.03	0.762
810.21	0.738
810.39	0.719
810.56	0.724
810.74	0.750
810.91	0.828
811.09	0.817
811.27	0.840
811.44	0.847
811.62	0.850
811.80	0.829
811.97	0.797
812.15	0.798
812.33	0.792
812.50	0.778
812.68	0.767
812.85	0.707
813.03	0.710
813.21	0.676
813.38	0.669
813.56	0.672
813.74	0.684
813.91	0.688
814.09	0.722
814.26	0.716
814.44	0.719
814.62	0.708
814.79	0.712
814.97	0.717
815.14	0.722
815.32	0.725
815.50	0.742
815.67	0.749
815.85	0.742
816.02	0.728
816.20	0.737
816.38	0.754
816.55	0.759
816.73	0.755
816.90	0.767
817.08	0.801
817.26	0.809
817.43	0.787
817.61	0.810
817.78	0.832
817.96	0.811
818.13	0.798
818.31	0.799
818.49	0.814
818.66	0.804
818.84	0.788
819.01	0.766
819.19	0.774
819.36	0.776
819.54	0.743
819.71	0.787
819.89	0.805
820.07	0.819
820.24	0.813
820.42	0.813
820.59	0.839
820.77	0.869
820.94	0.859
821.12	0.877
821.29	0.897
821.47	0.902
821.64	0.828
821.82	0.841
822.00	0.838
822.17	0.833
822.35	0.829
822.52	0.831
822.70	0.814
822.87	0.822
823.05	0.799
823.22	0.813
823.40	0.844
823.57	0.873
823.75	0.852
823.92	0.884
824.10	0.908
824.27	0.957
824.45	0.944
824.62	1.022
824.80	1.052
824.97	1.070
825.15	1.054
825.32	1.077
825.50	1.081
825.67	1.094
825.85	1.070
826.02	1.109
826.20	1.145
826.37	1.354
826.55	1.225
826.72	1.605
826.90	1.899
827.07	2.322
827.25	1.960
827.42	-0.000
827.60	-0.000
827.77	-0.000
827.95	-0.000
828.12	-0.000
828.30	-0.000
828.47	-0.000
828.65	2.150
828.82	-0.000
829.00	-0.000
829.17	-0.000
829.34	-0.000
829.52	-0.000
829.69	-0.000
829.87	-0.000
830.04	-0.000
830.22	-0.000
830.39	-0.000
830.57	-0.000
830.74	-0.000
830.92	-0.000
831.09	-0.000
831.26	-0.000
831.44	-0.000
831.61	-0.000
831.79	-0.000
831.96	-0.000
832.14	-0.000
832.31	-0.000
832.49	-0.000
832.66	-0.000
832.83	-0.000
833.01	-0.000
833.18	-0.000
833.36	-0.000
833.53	-0.000
833.70	-0.000
833.88	-0.000
834.05	-0.000
834.23	-0.000
834.40	-0.000
834.58	-0.000
834.75	-0.000
834.92	-0.000
835.10	-0.000
835.27	-0.000
835.45	-0.000
835.62	-0.000
835.79	-0.000
835.97	-0.000
836.14	-0.000
836.32	-0.000
836.49	-0.000
836.66	-0.000
836.84	-0.000
837.01	-0.000
837.18	-0.000
837.36	-0.000
837.53	-0.000
837.71	-0.000
837.88	-0.000
838.05	-0.000
838.23	-0.000
838.40	-0.000
838.58	-0.000
838.75	-0.000
838.92	-0.000
839.10	-0.000
839.27	-0.000
839.44	-0.000
839.62	-0.000
839.79	-0.000
839.96	-0.000
840.14	-0.000
840.31	-0.000
840.48	-0.000
840.66	-0.000
840.83	-0.000
841.01	-0.000
841.18	-0.000
841.35	-0.000
841.53	-0.000
841.70	-0.000
841.87	-0.000
842.05	-0.000
842.22	-0.000
842.39	-0.000
842.57	-0.000
842.74	-0.000
842.91	-0.000
843.09	-0.000
843.26	-0.000
843.43	-0.000
843.60	-0.000
843.78	-0.000
843.95	-0.000
844.12	-0.000
844.30	-0.000
844.47	-0.000
844.64	-0.000
844.82	-0.000
844.99	-0.000
845.16	-0.000
845.34	-0.000
845.51	-0.000
845.68	-0.000
845.85	-0.000
846.03	-0.000
846.20	-0.000
846.37	-0.000
846.55	-0.000
846.72	-0.000
846.89	-0.000
847.06	-0.000
847.24	-0.000
847.41	-0.000
847.58	-0.000
847.76	-0.000
847.93	-0.000
848.10	-0.000
848.27	-0.000
848.45	-0.000
848.62	-0.000
848.79	-0.000
848.97	-0.000
849.14	-0.000
849.31	-0.000
849.48	-0.000
849.66	-0.000
849.83	-0.000
850.00	-0.000
850.17	-0.000
850.35	-0.000
850.52	-0.000
850.69	-0.000
850.86	-0.000
851.04	-0.000
851.21	-0.000
851.38	-0.000
851.55	-0.000
851.72	-0.000
851.90	-0.000
852.07	-0.000
852.24	-0.000
852.41	-0.000
852.59	-0.000
852.76	-0.000
852.93	-0.000
853.10	-0.000
853.28	-0.000
853.45	-0.000
853.62	-0.000
853.79	-0.000
853.96	-0.000
854.14	-0.000
854.31	-0.000
854.48	-0.000
854.65	-0.000
854.82	-0.000
855.00	-0.000
855.17	-0.000
855.34	-0.000
855.51	-0.000
855.68	-0.000
855.86	-0.000
856.03	-0.000
856.20	-0.000
856.37	-0.000
856.54	-0.000
856.72	-0.000
856.89	-0.000
857.06	-0.000
857.23	-0.000
857.40	-0.000
857.57	-0.000
857.75	-0.000
857.92	-0.000
858.09	-0.000
858.26	-0.000
858.43	-0.000
858.60	-0.000
858.78	-0.000
858.95	-0.000
859.12	-0.000
859.29	-0.000
859.46	-0.000
859.63	-0.000
859.81	-0.000
859.98	-0.000
860.15	-0.000
860.32	-0.000
860.49	-0.000
860.66	-0.000
860.83	-0.000
861.01	-0.000
861.18	-0.000
861.35	-0.000
861.52	-0.000
861.69	-0.000
861.86	-0.000
862.03	-0.000
862.21	-0.000
862.38	-0.000
862.55	-0.000
862.72	-0.000
862.89	-0.000
863.06	-0.000
863.23	-0.000
863.40	-0.000
863.58	-0.000
863.75	-0.000
863.92	-0.000
864.09	-0.000
864.26	-0.000
864.43	-0.000
864.60	-0.000
864.77	-0.000
864.94	-0.000
865.11	-0.000
865.29	-0.000
865.46	-0.000
865.63	-0.000
865.80	-0.000
865.97	-0.000
866.14	-0.000
866.31	-0.000
866.48	-0.000
866.65	-0.000
866.82	-0.000
866.99	-0.000
867.16	-0.000
867.34	-0.000
867.51	-0.000
867.68	-0.000
867.85	-0.000
868.02	-0.000
868.19	-0.000
868.36	-0.000
868.53	-0.000
868.70	-0.000
868.87	-0.000
869.04	-0.000
869.21	-0.000
869.38	-0.000
869.55	-0.000
869.72	-0.000
869.89	-0.000
870.06	-0.000
870.24	-0.000
870.41	-0.000
870.58	-0.000
870.75	-0.000
870.92	-0.000
871.09	-0.000
871.26	-0.000
871.43	-0.000
871.60	-0.000
871.77	-0.000
871.94	-0.000
872.11	-0.000
872.28	-0.000
872.45	-0.000
872.62	-0.000
872.79	-0.000
872.96	-0.000
873.13	-0.000
873.30	-0.000
873.47	-0.000
873.64	-0.000
873.81	-0.000
873.98	-0.000
874.15	-0.000
874.32	-0.000
874.49	-0.000
874.66	-0.000
874.83	-0.000
875.00	-0.000
875.17	-0.000
875.34	-0.000
875.51	-0.000
875.68	-0.000
875.85	-0.000
876.02	-0.000
876.19	-0.000
876.36	-0.000
876.53	-0.000
876.70	-0.000
876.87	-0.000
877.04	-0.000
877.21	-0.000
877.38	-0.000
877.55	-0.000
877.72	-0.000
877.89	-0.000
878.06	-0.000
878.23	-0.000
878.39	-0.000
878.56	-0.000
878.73	-0.000
878.90	-0.000
879.07	-0.000
879.24	-0.000
879.41	-0.000
879.58	-0.000
879.75	-0.000
879.92	-0.000
880.09	-0.000
880.26	-0.000
880.43	-0.000
880.60	-0.000
880.77	-0.000
880.94	-0.000
881.11	-0.000
881.27	-0.000
881.44	-0.000
881.61	-0.000
881.78	-0.000
881.95	-0.000
882.12	-0.000
882.29	-0.000
882.46	-0.000
882.63	-0.000
882.80	-0.000
882.97	-0.000
883.14	-0.000
883.30	-0.000
883.47	-0.000
883.64	-0.000
883.81	-0.000
883.98	-0.000
884.15	-0.000
884.32	-0.000
884.49	-0.000
884.66	-0.000
884.82	-0.000
884.99	-0.000
885.16	-0.000
885.33	-0.000
885.50	-0.000
885.67	-0.000
885.84	-0.000
886.01	-0.000
886.17	-0.000
886.34	-0.000
886.51	-0.000
886.68	-0.000
886.85	-0.000
887.02	-0.000
887.19	-0.000
887.36	-0.000
887.52	-0.000
887.69	-0.000
887.86	-0.000
888.03	-0.000
888.20	-0.000
888.37	-0.000
888.54	-0.000
888.70	-0.000
888.87	-0.000
889.04	-0.000
889.21	-0.000
889.38	-0.000
889.55	-0.000
889.71	-0.000
889.88	-0.000
890.05	-0.000
890.22	-0.000
890.39	-0.000
>>>>>End Processed Spectral Data<<<<<
