SpectraSuite Data File
++++++++++++++++++++++++++++++++++++
Date: Fri Jun 19 14:28:33 CEST 2015
User: introlabs
Dark Spectrum Present: Yes
Reference Spectrum Present: Yes
Number of Sampled Component Spectra: 1
Spectrometers: USB4H08886
Integration Time (usec): 745692 (USB4H08886)
Spectra Averaged: 5 (USB4H08886)
Boxcar Smoothing: 5 (USB4H08886)
Correct for Electrical Dark: Yes (USB4H08886)
Strobe/Lamp Enabled: No (USB4H08886)
Correct for Detector Non-linearity: Yes (USB4H08886)
Correct for Stray Light: Yes (USB4H08886)
Number of Pixels in Processed Spectrum: 3648
>>>>>Begin Processed Spectral Data<<<<<
178.14	-0.000
178.36	-0.000
178.57	-0.000
178.79	-0.000
179.01	-0.000
179.22	-0.000
179.44	-0.000
179.65	-0.000
179.87	-0.000
180.08	-0.000
180.30	-0.000
180.52	-0.000
180.73	-0.000
180.95	-0.000
181.16	-0.000
181.38	-0.000
181.59	-0.000
181.81	-0.000
182.03	-0.000
182.24	-0.000
182.46	-0.000
182.67	-0.000
182.89	-0.000
183.10	-0.000
183.32	-0.000
183.54	-0.000
183.75	-0.000
183.97	-0.000
184.18	-0.000
184.40	-0.000
184.61	-0.000
184.83	-0.000
185.04	-0.000
185.26	-0.000
185.48	-0.000
185.69	-0.000
185.91	-0.000
186.12	-0.000
186.34	-0.000
186.55	-0.000
186.77	-0.000
186.98	-0.000
187.20	-0.000
187.42	-0.000
187.63	-0.000
187.85	-0.000
188.06	-0.000
188.28	-0.000
188.49	-0.000
188.71	-0.000
188.92	-0.000
189.14	-0.000
189.36	-0.000
189.57	-0.000
189.79	-0.000
190.00	-0.000
190.22	-0.000
190.43	-0.000
190.65	-0.000
190.86	-0.000
191.08	-0.000
191.29	-0.000
191.51	-0.000
191.72	-0.000
191.94	-0.000
192.16	-0.000
192.37	-0.000
192.59	-0.000
192.80	-0.000
193.02	-0.000
193.23	-0.000
193.45	-0.000
193.66	-0.000
193.88	-0.000
194.09	-0.000
194.31	-0.000
194.52	-0.000
194.74	-0.000
194.95	-0.000
195.17	-0.000
195.38	-0.000
195.60	-0.000
195.81	-0.000
196.03	-0.000
196.25	-0.000
196.46	-0.000
196.68	-0.000
196.89	-0.000
197.11	-0.000
197.32	-0.000
197.54	-0.000
197.75	-0.000
197.97	-0.000
198.18	-0.000
198.40	-0.000
198.61	-0.000
198.83	-0.000
199.04	-0.000
199.26	-0.000
199.47	-0.000
199.69	-0.000
199.90	-0.000
200.12	-0.000
200.33	-0.000
200.55	-0.000
200.76	-0.000
200.98	-0.000
201.19	-0.000
201.41	-0.000
201.62	-0.000
201.84	-0.000
202.05	-0.000
202.27	-0.000
202.48	-0.000
202.70	-0.000
202.91	-0.000
203.13	-0.000
203.34	-0.000
203.56	-0.000
203.77	-0.000
203.99	-0.000
204.20	-0.000
204.42	-0.000
204.63	-0.000
204.85	-0.000
205.06	-0.000
205.28	-0.000
205.49	-0.000
205.71	-0.000
205.92	-0.000
206.14	-0.000
206.35	-0.000
206.56	-0.000
206.78	-0.000
206.99	-0.000
207.21	-0.000
207.42	-0.000
207.64	-0.000
207.85	-0.000
208.07	-0.000
208.28	-0.000
208.50	-0.000
208.71	-0.000
208.93	-0.000
209.14	-0.000
209.36	-0.000
209.57	-0.000
209.79	-0.000
210.00	-0.000
210.22	-0.000
210.43	-0.000
210.64	-0.000
210.86	-0.000
211.07	-0.000
211.29	-0.000
211.50	-0.000
211.72	-0.000
211.93	-0.000
212.15	-0.000
212.36	-0.000
212.58	-0.000
212.79	-0.000
213.01	-0.000
213.22	-0.000
213.43	-0.000
213.65	-0.000
213.86	-0.000
214.08	-0.000
214.29	-0.000
214.51	-0.000
214.72	-0.000
214.94	-0.000
215.15	-0.000
215.36	-0.000
215.58	-0.000
215.79	-0.000
216.01	-0.000
216.22	-0.000
216.44	-0.000
216.65	-0.000
216.87	-0.000
217.08	-0.000
217.29	-0.000
217.51	-0.000
217.72	-0.000
217.94	-0.000
218.15	-0.000
218.37	-0.000
218.58	-0.000
218.80	-0.000
219.01	-0.000
219.22	-0.000
219.44	-0.000
219.65	-0.000
219.87	-0.000
220.08	-0.000
220.30	-0.000
220.51	-0.000
220.72	-0.000
220.94	-0.000
221.15	-0.000
221.37	-0.000
221.58	-0.000
221.79	-0.000
222.01	-0.000
222.22	-0.000
222.44	-0.000
222.65	-0.000
222.87	-0.000
223.08	-0.000
223.29	-0.000
223.51	-0.000
223.72	-0.000
223.94	-0.000
224.15	-0.000
224.36	-0.000
224.58	-0.000
224.79	-0.000
225.01	-0.000
225.22	-0.000
225.44	-0.000
225.65	-0.000
225.86	-0.000
226.08	-0.000
226.29	-0.000
226.51	-0.000
226.72	-0.000
226.93	-0.000
227.15	-0.000
227.36	-0.000
227.58	-0.000
227.79	-0.000
228.00	-0.000
228.22	-0.000
228.43	-0.000
228.65	-0.000
228.86	-0.000
229.07	-0.000
229.29	-0.000
229.50	-0.000
229.72	-0.000
229.93	-0.000
230.14	-0.000
230.36	-0.000
230.57	-0.000
230.78	-0.000
231.00	-0.000
231.21	-0.000
231.43	-0.000
231.64	-0.000
231.85	-0.000
232.07	-0.000
232.28	-0.000
232.50	-0.000
232.71	-0.000
232.92	-0.000
233.14	-0.000
233.35	-0.000
233.56	-0.000
233.78	-0.000
233.99	-0.000
234.21	-0.000
234.42	-0.000
234.63	-0.000
234.85	-0.000
235.06	-0.000
235.27	-0.000
235.49	-0.000
235.70	-0.000
235.91	-0.000
236.13	-0.000
236.34	-0.000
236.56	-0.000
236.77	-0.000
236.98	-0.000
237.20	-0.000
237.41	-0.000
237.62	-0.000
237.84	-0.000
238.05	-0.000
238.26	-0.000
238.48	-0.000
238.69	-0.000
238.91	-0.000
239.12	-0.000
239.33	-0.000
239.55	-0.000
239.76	-0.000
239.97	-0.000
240.19	-0.000
240.40	-0.000
240.61	-0.000
240.83	-0.000
241.04	-0.000
241.25	-0.000
241.47	-0.000
241.68	-0.000
241.89	-0.000
242.11	-0.000
242.32	-0.000
242.53	-0.000
242.75	-0.000
242.96	-0.000
243.17	-0.000
243.39	-0.000
243.60	-0.000
243.81	-0.000
244.03	-0.000
244.24	-0.000
244.45	-0.000
244.67	-0.000
244.88	-0.000
245.09	-0.000
245.31	-0.000
245.52	-0.000
245.73	-0.000
245.95	-0.000
246.16	-0.000
246.37	-0.000
246.59	-0.000
246.80	-0.000
247.01	-0.000
247.23	-0.000
247.44	-0.000
247.65	-0.000
247.87	-0.000
248.08	-0.000
248.29	-0.000
248.51	-0.000
248.72	-0.000
248.93	-0.000
249.15	-0.000
249.36	-0.000
249.57	-0.000
249.78	-0.000
250.00	-0.000
250.21	-0.000
250.42	-0.000
250.64	-0.000
250.85	-0.000
251.06	-0.000
251.28	-0.000
251.49	-0.000
251.70	-0.000
251.92	-0.000
252.13	-0.000
252.34	-0.000
252.55	-0.000
252.77	-0.000
252.98	-0.000
253.19	-0.000
253.41	-0.000
253.62	-0.000
253.83	-0.000
254.05	-0.000
254.26	-0.000
254.47	-0.000
254.68	-0.000
254.90	-0.000
255.11	-0.000
255.32	-0.000
255.54	-0.000
255.75	-0.000
255.96	-0.000
256.17	-0.000
256.39	-0.000
256.60	-0.000
256.81	-0.000
257.03	-0.000
257.24	-0.000
257.45	-0.000
257.66	-0.000
257.88	-0.000
258.09	-0.000
258.30	-0.000
258.51	-0.000
258.73	-0.000
258.94	-0.000
259.15	-0.000
259.37	-0.000
259.58	-0.000
259.79	-0.000
260.00	-0.000
260.22	-0.000
260.43	-0.000
260.64	-0.000
260.85	-0.000
261.07	-0.000
261.28	-0.000
261.49	-0.000
261.71	-0.000
261.92	-0.000
262.13	-0.000
262.34	-0.000
262.56	-0.000
262.77	-0.000
262.98	-0.000
263.19	-0.000
263.41	-0.000
263.62	-0.000
263.83	-0.000
264.04	-0.000
264.26	-0.000
264.47	-0.000
264.68	-0.000
264.89	-0.000
265.11	-0.000
265.32	-0.000
265.53	-0.000
265.74	-0.000
265.96	-0.000
266.17	-0.000
266.38	-0.000
266.59	-0.000
266.81	-0.000
267.02	-0.000
267.23	-0.000
267.44	-0.000
267.65	-0.000
267.87	-0.000
268.08	-0.000
268.29	-0.000
268.50	-0.000
268.72	-0.000
268.93	-0.000
269.14	-0.000
269.35	-0.000
269.57	-0.000
269.78	-0.000
269.99	-0.000
270.20	-0.000
270.41	-0.000
270.63	-0.000
270.84	-0.000
271.05	-0.000
271.26	-0.000
271.48	-0.000
271.69	-0.000
271.90	-0.000
272.11	-0.000
272.32	-0.000
272.54	-0.000
272.75	-0.000
272.96	-0.000
273.17	-0.000
273.39	-0.000
273.60	-0.000
273.81	-0.000
274.02	-0.000
274.23	-0.000
274.45	-0.000
274.66	-0.000
274.87	-0.000
275.08	-0.000
275.29	-0.000
275.51	-0.000
275.72	-0.000
275.93	-0.000
276.14	-0.000
276.35	-0.000
276.57	-0.000
276.78	-0.000
276.99	-0.000
277.20	-0.000
277.41	-0.000
277.63	-0.000
277.84	-0.000
278.05	-0.000
278.26	-0.000
278.47	-0.000
278.69	-0.000
278.90	-0.000
279.11	-0.000
279.32	-0.000
279.53	-0.000
279.74	-0.000
279.96	-0.000
280.17	-0.000
280.38	-0.000
280.59	-0.000
280.80	-0.000
281.02	-0.000
281.23	-0.000
281.44	-0.000
281.65	-0.000
281.86	-0.000
282.07	-0.000
282.29	-0.000
282.50	-0.000
282.71	-0.000
282.92	-0.000
283.13	-0.000
283.35	-0.000
283.56	-0.000
283.77	-0.000
283.98	-0.000
284.19	-0.000
284.40	-0.000
284.62	-0.000
284.83	-0.000
285.04	-0.000
285.25	-0.000
285.46	-0.000
285.67	-0.000
285.88	-0.000
286.10	-0.000
286.31	-0.000
286.52	-0.000
286.73	-0.000
286.94	-0.000
287.15	-0.000
287.37	-0.000
287.58	-0.000
287.79	-0.000
288.00	-0.000
288.21	-0.000
288.42	-0.000
288.63	-0.000
288.85	-0.000
289.06	-0.000
289.27	-0.000
289.48	-0.000
289.69	-0.000
289.90	-0.000
290.11	-0.000
290.33	-0.000
290.54	-0.000
290.75	-0.000
290.96	-0.000
291.17	-0.000
291.38	-0.000
291.59	-0.000
291.81	-0.000
292.02	-0.000
292.23	-0.000
292.44	-0.000
292.65	-0.000
292.86	-0.000
293.07	-0.000
293.28	-0.000
293.50	-0.000
293.71	-0.000
293.92	-0.000
294.13	-0.000
294.34	-0.000
294.55	-0.000
294.76	-0.000
294.97	-0.000
295.19	-0.000
295.40	-0.000
295.61	-0.000
295.82	-0.000
296.03	-0.000
296.24	-0.000
296.45	2.424
296.66	1.878
296.87	1.907
297.09	2.013
297.30	2.347
297.51	1.795
297.72	1.752
297.93	1.875
298.14	1.827
298.35	1.781
298.56	1.751
298.77	1.919
298.99	1.878
299.20	1.843
299.41	1.801
299.62	1.731
299.83	1.724
300.04	1.647
300.25	1.633
300.46	1.678
300.67	1.645
300.88	1.584
301.10	1.589
301.31	1.678
301.52	1.597
301.73	1.540
301.94	1.556
302.15	1.578
302.36	1.532
302.57	1.461
302.78	1.470
302.99	1.519
303.20	1.538
303.41	1.433
303.63	1.412
303.84	1.421
304.05	1.418
304.26	1.352
304.47	1.356
304.68	1.357
304.89	1.348
305.10	1.305
305.31	1.290
305.52	1.335
305.73	1.330
305.94	1.287
306.15	1.282
306.37	1.305
306.58	1.313
306.79	1.276
307.00	1.300
307.21	1.342
307.42	1.336
307.63	1.298
307.84	1.266
308.05	1.307
308.26	1.309
308.47	1.284
308.68	1.278
308.89	1.276
309.10	1.276
309.31	1.233
309.52	1.225
309.73	1.239
309.95	1.233
310.16	1.202
310.37	1.187
310.58	1.204
310.79	1.202
311.00	1.202
311.21	1.207
311.42	1.210
311.63	1.202
311.84	1.181
312.05	1.178
312.26	1.200
312.47	1.215
312.68	1.194
312.89	1.177
313.10	1.185
313.31	1.154
313.52	1.154
313.73	1.155
313.94	1.161
314.15	1.143
314.36	1.125
314.57	1.120
314.78	1.107
314.99	1.099
315.21	1.085
315.42	1.090
315.63	1.104
315.84	1.081
316.05	1.065
316.26	1.073
316.47	1.093
316.68	1.086
316.89	1.064
317.10	1.085
317.31	1.092
317.52	1.095
317.73	1.074
317.94	1.073
318.15	1.117
318.36	1.117
318.57	1.098
318.78	1.086
318.99	1.123
319.20	1.121
319.41	1.085
319.62	1.086
319.83	1.099
320.04	1.094
320.25	1.078
320.46	1.045
320.67	1.048
320.88	1.045
321.09	1.028
321.30	1.012
321.51	1.028
321.72	1.025
321.93	1.009
322.14	1.000
322.35	1.026
322.56	1.028
322.77	1.014
322.98	1.025
323.19	1.031
323.40	1.040
323.61	1.019
323.82	1.013
324.03	1.020
324.24	1.017
324.45	1.005
324.66	0.987
324.87	0.985
325.08	0.985
325.29	0.965
325.50	0.958
325.71	0.963
325.92	0.971
326.13	0.958
326.34	0.958
326.55	0.967
326.76	0.967
326.97	0.953
327.18	0.947
327.39	0.973
327.60	0.975
327.80	0.976
328.01	0.975
328.22	0.974
328.43	0.976
328.64	0.964
328.85	0.969
329.06	0.970
329.27	0.971
329.48	0.966
329.69	0.947
329.90	0.958
330.11	0.951
330.32	0.942
330.53	0.936
330.74	0.937
330.95	0.936
331.16	0.920
331.37	0.929
331.58	0.929
331.79	0.930
332.00	0.920
332.21	0.914
332.42	0.919
332.63	0.911
332.83	0.905
333.04	0.905
333.25	0.918
333.46	0.917
333.67	0.902
333.88	0.904
334.09	0.915
334.30	0.912
334.51	0.903
334.72	0.898
334.93	0.902
335.14	0.902
335.35	0.896
335.56	0.891
335.77	0.899
335.98	0.897
336.18	0.890
336.39	0.882
336.60	0.886
336.81	0.884
337.02	0.884
337.23	0.888
337.44	0.891
337.65	0.893
337.86	0.883
338.07	0.878
338.28	0.883
338.49	0.882
338.70	0.874
338.91	0.881
339.11	0.889
339.32	0.886
339.53	0.873
339.74	0.870
339.95	0.866
340.16	0.865
340.37	0.856
340.58	0.854
340.79	0.858
341.00	0.858
341.21	0.846
341.41	0.846
341.62	0.846
341.83	0.848
342.04	0.843
342.25	0.854
342.46	0.858
342.67	0.858
342.88	0.851
343.09	0.850
343.30	0.857
343.50	0.860
343.71	0.850
343.92	0.848
344.13	0.853
344.34	0.852
344.55	0.837
344.76	0.835
344.97	0.840
345.18	0.838
345.38	0.834
345.59	0.829
345.80	0.828
346.01	0.827
346.22	0.823
346.43	0.816
346.64	0.826
346.85	0.825
347.06	0.818
347.26	0.817
347.47	0.822
347.68	0.818
347.89	0.814
348.10	0.808
348.31	0.815
348.52	0.813
348.73	0.811
348.93	0.807
349.14	0.810
349.35	0.810
349.56	0.805
349.77	0.800
349.98	0.806
350.19	0.802
350.39	0.798
350.60	0.794
350.81	0.810
351.02	0.808
351.23	0.803
351.44	0.805
351.65	0.808
351.86	0.804
352.06	0.803
352.27	0.802
352.48	0.804
352.69	0.804
352.90	0.799
353.11	0.785
353.31	0.793
353.52	0.788
353.73	0.781
353.94	0.782
354.15	0.788
354.36	0.788
354.57	0.779
354.77	0.782
354.98	0.781
355.19	0.780
355.40	0.781
355.61	0.787
355.82	0.792
356.02	0.792
356.23	0.785
356.44	0.786
356.65	0.790
356.86	0.790
357.07	0.784
357.27	0.787
357.48	0.790
357.69	0.784
357.90	0.769
358.11	0.765
358.32	0.769
358.52	0.771
358.73	0.761
358.94	0.763
359.15	0.768
359.36	0.768
359.56	0.763
359.77	0.759
359.98	0.767
360.19	0.767
360.40	0.764
360.61	0.765
360.81	0.764
361.02	0.765
361.23	0.755
361.44	0.754
361.65	0.754
361.85	0.754
362.06	0.752
362.27	0.753
362.48	0.753
362.69	0.755
362.89	0.748
363.10	0.749
363.31	0.754
363.52	0.758
363.73	0.753
363.93	0.754
364.14	0.755
364.35	0.756
364.56	0.747
364.77	0.749
364.97	0.752
365.18	0.752
365.39	0.747
365.60	0.743
365.81	0.745
366.01	0.744
366.22	0.741
366.43	0.740
366.64	0.743
366.84	0.748
367.05	0.745
367.26	0.744
367.47	0.746
367.68	0.746
367.88	0.744
368.09	0.741
368.30	0.744
368.51	0.743
368.71	0.743
368.92	0.747
369.13	0.745
369.34	0.744
369.55	0.742
369.75	0.742
369.96	0.749
370.17	0.749
370.38	0.745
370.58	0.745
370.79	0.750
371.00	0.748
371.21	0.738
371.41	0.743
371.62	0.748
371.83	0.744
372.04	0.741
372.24	0.734
372.45	0.736
372.66	0.736
372.87	0.733
373.07	0.730
373.28	0.732
373.49	0.736
373.70	0.727
373.90	0.726
374.11	0.735
374.32	0.735
374.53	0.734
374.73	0.735
374.94	0.738
375.15	0.738
375.36	0.736
375.56	0.744
375.77	0.744
375.98	0.744
376.19	0.741
376.39	0.735
376.60	0.738
376.81	0.738
377.02	0.735
377.22	0.734
377.43	0.733
377.64	0.732
377.84	0.723
378.05	0.728
378.26	0.734
378.47	0.733
378.67	0.729
378.88	0.727
379.09	0.728
379.30	0.728
379.50	0.725
379.71	0.728
379.92	0.731
380.12	0.731
380.33	0.723
380.54	0.719
380.75	0.726
380.95	0.727
381.16	0.724
381.37	0.724
381.57	0.726
381.78	0.726
381.99	0.726
382.20	0.725
382.40	0.728
382.61	0.728
382.82	0.724
383.02	0.717
383.23	0.720
383.44	0.721
383.64	0.719
383.85	0.722
384.06	0.725
384.27	0.722
384.47	0.720
384.68	0.721
384.89	0.727
385.09	0.726
385.30	0.725
385.51	0.724
385.71	0.728
385.92	0.728
386.13	0.727
386.33	0.729
386.54	0.730
386.75	0.729
386.95	0.725
387.16	0.721
387.37	0.724
387.58	0.724
387.78	0.722
387.99	0.719
388.20	0.721
388.40	0.717
388.61	0.713
388.82	0.716
389.02	0.718
389.23	0.718
389.44	0.716
389.64	0.716
389.85	0.727
390.06	0.727
390.26	0.728
390.47	0.727
390.68	0.730
390.88	0.728
391.09	0.724
391.30	0.724
391.50	0.725
391.71	0.725
391.92	0.722
392.12	0.715
392.33	0.715
392.53	0.714
392.74	0.714
392.95	0.713
393.15	0.715
393.36	0.717
393.57	0.714
393.77	0.716
393.98	0.719
394.19	0.718
394.39	0.717
394.60	0.720
394.81	0.722
395.01	0.720
395.22	0.719
395.43	0.719
395.63	0.724
395.84	0.725
396.04	0.721
396.25	0.723
396.46	0.725
396.66	0.724
396.87	0.720
397.08	0.718
397.28	0.721
397.49	0.722
397.69	0.719
397.90	0.714
398.11	0.716
398.31	0.716
398.52	0.712
398.73	0.714
398.93	0.713
399.14	0.712
399.34	0.710
399.55	0.711
399.76	0.711
399.96	0.712
400.17	0.710
400.37	0.708
400.58	0.715
400.79	0.716
400.99	0.714
401.20	0.719
401.41	0.722
401.61	0.723
401.82	0.728
402.02	0.728
402.23	0.730
402.44	0.730
402.64	0.730
402.85	0.725
403.05	0.723
403.26	0.722
403.47	0.716
403.67	0.715
403.88	0.716
404.08	0.710
404.29	0.708
404.50	0.707
404.70	0.708
404.91	0.707
405.11	0.704
405.32	0.705
405.52	0.705
405.73	0.704
405.94	0.702
406.14	0.705
406.35	0.707
406.55	0.706
406.76	0.704
406.97	0.705
407.17	0.707
407.38	0.707
407.58	0.705
407.79	0.708
407.99	0.711
408.20	0.712
408.41	0.707
408.61	0.706
408.82	0.707
409.02	0.707
409.23	0.704
409.43	0.704
409.64	0.704
409.84	0.704
410.05	0.701
410.26	0.699
410.46	0.698
410.67	0.698
410.87	0.699
411.08	0.701
411.28	0.702
411.49	0.703
411.69	0.701
411.90	0.703
412.11	0.705
412.31	0.706
412.52	0.704
412.72	0.705
412.93	0.706
413.13	0.705
413.34	0.701
413.54	0.703
413.75	0.705
413.95	0.704
414.16	0.701
414.37	0.704
414.57	0.704
414.78	0.706
414.98	0.704
415.19	0.705
415.39	0.703
415.60	0.705
415.80	0.704
416.01	0.701
416.21	0.704
416.42	0.704
416.62	0.698
416.83	0.698
417.03	0.697
417.24	0.698
417.44	0.695
417.65	0.694
417.86	0.694
418.06	0.692
418.27	0.691
418.47	0.693
418.68	0.694
418.88	0.695
419.09	0.693
419.29	0.694
419.50	0.694
419.70	0.694
419.91	0.693
420.11	0.691
420.32	0.694
420.52	0.694
420.73	0.693
420.93	0.693
421.14	0.695
421.34	0.694
421.55	0.691
421.75	0.691
421.96	0.692
422.16	0.692
422.37	0.691
422.57	0.687
422.78	0.689
422.98	0.686
423.19	0.683
423.39	0.681
423.60	0.685
423.80	0.685
424.01	0.684
424.21	0.686
424.42	0.688
424.62	0.688
424.83	0.687
425.03	0.687
425.23	0.689
425.44	0.690
425.64	0.690
425.85	0.689
426.05	0.691
426.26	0.691
426.46	0.687
426.67	0.686
426.87	0.691
427.08	0.692
427.28	0.690
427.49	0.691
427.69	0.691
427.90	0.690
428.10	0.687
428.31	0.686
428.51	0.688
428.71	0.687
428.92	0.688
429.12	0.685
429.33	0.686
429.53	0.690
429.74	0.693
429.94	0.693
430.15	0.692
430.35	0.692
430.56	0.689
430.76	0.688
430.96	0.689
431.17	0.686
431.37	0.684
431.58	0.682
431.78	0.679
431.99	0.672
432.19	0.675
432.40	0.677
432.60	0.677
432.80	0.680
433.01	0.679
433.21	0.678
433.42	0.681
433.62	0.681
433.83	0.680
434.03	0.682
434.23	0.685
434.44	0.684
434.64	0.681
434.85	0.686
435.05	0.687
435.26	0.687
435.46	0.686
435.66	0.686
435.87	0.686
436.07	0.686
436.28	0.682
436.48	0.679
436.69	0.679
436.89	0.679
437.09	0.673
437.30	0.671
437.50	0.672
437.71	0.683
437.91	0.682
438.11	0.683
438.32	0.688
438.52	0.688
438.73	0.687
438.93	0.685
439.13	0.686
439.34	0.689
439.54	0.687
439.75	0.686
439.95	0.677
440.15	0.681
440.36	0.679
440.56	0.676
440.77	0.678
440.97	0.678
441.17	0.677
441.38	0.677
441.58	0.674
441.79	0.675
441.99	0.673
442.19	0.672
442.40	0.669
442.60	0.669
442.81	0.667
443.01	0.667
443.21	0.667
443.42	0.667
443.62	0.666
443.82	0.665
444.03	0.667
444.23	0.666
444.44	0.666
444.64	0.665
444.84	0.666
445.05	0.666
445.25	0.664
445.45	0.664
445.66	0.667
445.86	0.666
446.06	0.667
446.27	0.666
446.47	0.669
446.68	0.667
446.88	0.666
447.08	0.665
447.29	0.667
447.49	0.667
447.69	0.666
447.90	0.665
448.10	0.669
448.30	0.667
448.51	0.668
448.71	0.666
448.91	0.668
449.12	0.667
449.32	0.668
449.52	0.667
449.73	0.671
449.93	0.671
450.14	0.670
450.34	0.669
450.54	0.672
450.75	0.669
450.95	0.668
451.15	0.668
451.36	0.670
451.56	0.667
451.76	0.666
451.97	0.663
452.17	0.664
452.37	0.663
452.58	0.659
452.78	0.658
452.98	0.661
453.19	0.661
453.39	0.661
453.59	0.660
453.79	0.661
454.00	0.661
454.20	0.660
454.40	0.661
454.61	0.662
454.81	0.663
455.01	0.661
455.22	0.662
455.42	0.664
455.62	0.662
455.83	0.662
456.03	0.665
456.23	0.666
456.44	0.667
456.64	0.665
456.84	0.665
457.04	0.666
457.25	0.665
457.45	0.662
457.65	0.660
457.86	0.662
458.06	0.660
458.26	0.655
458.47	0.654
458.67	0.656
458.87	0.656
459.07	0.654
459.28	0.656
459.48	0.658
459.68	0.658
459.89	0.657
460.09	0.655
460.29	0.657
460.49	0.658
460.70	0.657
460.90	0.656
461.10	0.657
461.31	0.656
461.51	0.653
461.71	0.655
461.91	0.657
462.12	0.657
462.32	0.657
462.52	0.657
462.72	0.660
462.93	0.661
463.13	0.659
463.33	0.660
463.53	0.662
463.74	0.661
463.94	0.656
464.14	0.656
464.35	0.658
464.55	0.659
464.75	0.657
464.95	0.655
465.16	0.657
465.36	0.655
465.56	0.654
465.76	0.653
465.97	0.654
466.17	0.655
466.37	0.652
466.57	0.653
466.78	0.654
466.98	0.654
467.18	0.652
467.38	0.650
467.59	0.652
467.79	0.653
467.99	0.653
468.19	0.654
468.39	0.657
468.60	0.658
468.80	0.655
469.00	0.657
469.20	0.658
469.41	0.658
469.61	0.658
469.81	0.658
470.01	0.658
470.22	0.658
470.42	0.656
470.62	0.654
470.82	0.655
471.02	0.655
471.23	0.653
471.43	0.653
471.63	0.655
471.83	0.654
472.04	0.653
472.24	0.652
472.44	0.657
472.64	0.657
472.84	0.655
473.05	0.654
473.25	0.657
473.45	0.656
473.65	0.654
473.85	0.655
474.06	0.657
474.26	0.657
474.46	0.658
474.66	0.654
474.86	0.655
475.07	0.655
475.27	0.653
475.47	0.650
475.67	0.651
475.87	0.653
476.08	0.650
476.28	0.650
476.48	0.652
476.68	0.650
476.88	0.647
477.09	0.649
477.29	0.650
477.49	0.651
477.69	0.650
477.89	0.650
478.09	0.650
478.30	0.651
478.50	0.649
478.70	0.648
478.90	0.648
479.10	0.652
479.31	0.652
479.51	0.650
479.71	0.651
479.91	0.651
480.11	0.651
480.31	0.651
480.52	0.650
480.72	0.650
480.92	0.649
481.12	0.648
481.32	0.645
481.52	0.643
481.72	0.643
481.93	0.646
482.13	0.647
482.33	0.647
482.53	0.645
482.73	0.645
482.93	0.647
483.14	0.646
483.34	0.646
483.54	0.647
483.74	0.645
483.94	0.645
484.14	0.640
484.34	0.640
484.55	0.641
484.75	0.640
484.95	0.638
485.15	0.638
485.35	0.638
485.55	0.637
485.75	0.635
485.96	0.636
486.16	0.637
486.36	0.637
486.56	0.636
486.76	0.636
486.96	0.637
487.16	0.636
487.36	0.635
487.57	0.634
487.77	0.635
487.97	0.635
488.17	0.634
488.37	0.633
488.57	0.633
488.77	0.633
488.97	0.631
489.18	0.630
489.38	0.633
489.58	0.634
489.78	0.633
489.98	0.633
490.18	0.633
490.38	0.634
490.58	0.633
490.78	0.634
490.98	0.636
491.19	0.636
491.39	0.636
491.59	0.635
491.79	0.638
491.99	0.638
492.19	0.638
492.39	0.641
492.59	0.640
492.79	0.642
492.99	0.642
493.20	0.642
493.40	0.643
493.60	0.644
493.80	0.642
494.00	0.639
494.20	0.640
494.40	0.640
494.60	0.637
494.80	0.641
495.00	0.641
495.20	0.639
495.40	0.638
495.61	0.639
495.81	0.639
496.01	0.643
496.21	0.644
496.41	0.642
496.61	0.643
496.81	0.642
497.01	0.638
497.21	0.637
497.41	0.638
497.61	0.637
497.81	0.635
498.01	0.635
498.21	0.633
498.41	0.631
498.61	0.631
498.82	0.632
499.02	0.634
499.22	0.634
499.42	0.633
499.62	0.634
499.82	0.636
500.02	0.636
500.22	0.635
500.42	0.637
500.62	0.638
500.82	0.639
501.02	0.637
501.22	0.636
501.42	0.636
501.62	0.639
501.82	0.638
502.02	0.638
502.22	0.637
502.42	0.640
502.62	0.637
502.82	0.637
503.02	0.637
503.22	0.637
503.42	0.635
503.63	0.635
503.83	0.633
504.03	0.632
504.23	0.630
504.43	0.631
504.63	0.632
504.83	0.631
505.03	0.631
505.23	0.632
505.43	0.634
505.63	0.634
505.83	0.634
506.03	0.635
506.23	0.638
506.43	0.639
506.63	0.638
506.83	0.636
507.03	0.638
507.23	0.638
507.43	0.636
507.63	0.636
507.83	0.636
508.03	0.637
508.23	0.636
508.43	0.634
508.63	0.636
508.83	0.637
509.03	0.638
509.23	0.637
509.43	0.639
509.63	0.639
509.83	0.638
510.03	0.640
510.23	0.642
510.43	0.643
510.63	0.643
510.83	0.643
511.03	0.644
511.23	0.642
511.43	0.641
511.63	0.642
511.83	0.645
512.03	0.645
512.22	0.642
512.42	0.641
512.62	0.642
512.82	0.642
513.02	0.641
513.22	0.640
513.42	0.642
513.62	0.645
513.82	0.642
514.02	0.642
514.22	0.643
514.42	0.643
514.62	0.643
514.82	0.643
515.02	0.645
515.22	0.649
515.42	0.648
515.62	0.651
515.82	0.649
516.02	0.650
516.22	0.650
516.42	0.651
516.62	0.653
516.82	0.655
517.01	0.653
517.21	0.652
517.41	0.655
517.61	0.656
517.81	0.652
518.01	0.651
518.21	0.651
518.41	0.650
518.61	0.649
518.81	0.650
519.01	0.650
519.21	0.651
519.41	0.650
519.61	0.645
519.81	0.647
520.00	0.647
520.20	0.648
520.40	0.651
520.60	0.651
520.80	0.651
521.00	0.651
521.20	0.651
521.40	0.656
521.60	0.656
521.80	0.655
522.00	0.655
522.20	0.658
522.39	0.657
522.59	0.654
522.79	0.655
522.99	0.658
523.19	0.656
523.39	0.654
523.59	0.652
523.79	0.655
523.99	0.657
524.19	0.657
524.38	0.655
524.58	0.657
524.78	0.657
524.98	0.655
525.18	0.658
525.38	0.659
525.58	0.659
525.78	0.657
525.98	0.656
526.18	0.657
526.37	0.656
526.57	0.657
526.77	0.657
526.97	0.658
527.17	0.659
527.37	0.654
527.57	0.657
527.77	0.658
527.96	0.658
528.16	0.657
528.36	0.657
528.56	0.659
528.76	0.656
528.96	0.655
529.16	0.656
529.36	0.659
529.55	0.659
529.75	0.655
529.95	0.655
530.15	0.657
530.35	0.660
530.55	0.658
530.75	0.658
530.94	0.661
531.14	0.661
531.34	0.659
531.54	0.657
531.74	0.661
531.94	0.664
532.13	0.662
532.33	0.663
532.53	0.662
532.73	0.661
532.93	0.659
533.13	0.660
533.33	0.660
533.52	0.661
533.72	0.664
533.92	0.661
534.12	0.659
534.32	0.660
534.52	0.658
534.71	0.660
534.91	0.663
535.11	0.664
535.31	0.662
535.51	0.665
535.71	0.666
535.90	0.663
536.10	0.665
536.30	0.667
536.50	0.668
536.70	0.668
536.89	0.665
537.09	0.664
537.29	0.666
537.49	0.667
537.69	0.665
537.89	0.665
538.08	0.666
538.28	0.664
538.48	0.665
538.68	0.667
538.88	0.669
539.07	0.670
539.27	0.668
539.47	0.667
539.67	0.667
539.87	0.668
540.06	0.666
540.26	0.666
540.46	0.668
540.66	0.665
540.86	0.662
541.05	0.662
541.25	0.664
541.45	0.664
541.65	0.663
541.84	0.664
542.04	0.665
542.24	0.666
542.44	0.665
542.64	0.666
542.83	0.669
543.03	0.669
543.23	0.667
543.43	0.667
543.62	0.668
543.82	0.669
544.02	0.668
544.22	0.668
544.42	0.672
544.61	0.672
544.81	0.669
545.01	0.668
545.21	0.670
545.40	0.671
545.60	0.668
545.80	0.671
546.00	0.671
546.19	0.670
546.39	0.669
546.59	0.666
546.79	0.668
546.98	0.668
547.18	0.668
547.38	0.668
547.58	0.671
547.77	0.672
547.97	0.668
548.17	0.671
548.37	0.671
548.56	0.671
548.76	0.670
548.96	0.672
549.16	0.674
549.35	0.674
549.55	0.671
549.75	0.671
549.95	0.675
550.14	0.675
550.34	0.673
550.54	0.678
550.73	0.682
550.93	0.683
551.13	0.679
551.33	0.678
551.52	0.678
551.72	0.679
551.92	0.676
552.12	0.677
552.31	0.678
552.51	0.678
552.71	0.673
552.90	0.673
553.10	0.674
553.30	0.674
553.50	0.674
553.69	0.676
553.89	0.677
554.09	0.677
554.28	0.673
554.48	0.674
554.68	0.676
554.87	0.676
555.07	0.672
555.27	0.673
555.47	0.675
555.66	0.676
555.86	0.674
556.06	0.676
556.25	0.678
556.45	0.686
556.65	0.684
556.84	0.688
557.04	0.691
557.24	0.693
557.43	0.692
557.63	0.694
557.83	0.696
558.02	0.696
558.22	0.699
558.42	0.700
558.61	0.693
558.81	0.694
559.01	0.690
559.21	0.690
559.40	0.691
559.60	0.691
559.80	0.688
559.99	0.689
560.19	0.691
560.39	0.685
560.58	0.683
560.78	0.683
560.97	0.686
561.17	0.685
561.37	0.683
561.56	0.683
561.76	0.684
561.96	0.683
562.15	0.681
562.35	0.683
562.55	0.685
562.74	0.685
562.94	0.683
563.14	0.681
563.33	0.681
563.53	0.681
563.73	0.679
563.92	0.680
564.12	0.682
564.31	0.685
564.51	0.683
564.71	0.684
564.90	0.687
565.10	0.688
565.30	0.691
565.49	0.692
565.69	0.695
565.89	0.695
566.08	0.693
566.28	0.695
566.47	0.696
566.67	0.694
566.87	0.691
567.06	0.692
567.26	0.698
567.46	0.694
567.65	0.693
567.85	0.694
568.04	0.697
568.24	0.697
568.44	0.693
568.63	0.692
568.83	0.694
569.02	0.692
569.22	0.687
569.42	0.684
569.61	0.687
569.81	0.685
570.00	0.683
570.20	0.685
570.40	0.686
570.59	0.686
570.79	0.684
570.98	0.682
571.18	0.684
571.38	0.684
571.57	0.681
571.77	0.678
571.96	0.682
572.16	0.680
572.35	0.675
572.55	0.675
572.75	0.674
572.94	0.674
573.14	0.672
573.33	0.672
573.53	0.673
573.73	0.672
573.92	0.670
574.12	0.668
574.31	0.671
574.51	0.672
574.70	0.668
574.90	0.670
575.09	0.672
575.29	0.672
575.49	0.670
575.68	0.671
575.88	0.672
576.07	0.674
576.27	0.671
576.46	0.670
576.66	0.669
576.86	0.669
577.05	0.666
577.25	0.664
577.44	0.665
577.64	0.665
577.83	0.663
578.03	0.664
578.22	0.663
578.42	0.663
578.61	0.661
578.81	0.662
579.00	0.662
579.20	0.662
579.40	0.661
579.59	0.660
579.79	0.661
579.98	0.660
580.18	0.660
580.37	0.660
580.57	0.662
580.76	0.666
580.96	0.665
581.15	0.666
581.35	0.667
581.54	0.667
581.74	0.666
581.93	0.667
582.13	0.669
582.32	0.666
582.52	0.664
582.71	0.664
582.91	0.660
583.10	0.659
583.30	0.658
583.49	0.658
583.69	0.662
583.88	0.663
584.08	0.662
584.27	0.664
584.47	0.667
584.66	0.668
584.86	0.667
585.05	0.669
585.25	0.671
585.44	0.671
585.64	0.669
585.83	0.666
586.03	0.667
586.22	0.665
586.42	0.661
586.61	0.663
586.81	0.665
587.00	0.664
587.20	0.662
587.39	0.663
587.59	0.664
587.78	0.666
587.98	0.666
588.17	0.667
588.37	0.669
588.56	0.671
588.76	0.667
588.95	0.667
589.15	0.671
589.34	0.674
589.54	0.672
589.73	0.673
589.92	0.676
590.12	0.676
590.31	0.674
590.51	0.679
590.70	0.680
590.90	0.681
591.09	0.679
591.29	0.677
591.48	0.677
591.68	0.678
591.87	0.677
592.06	0.676
592.26	0.679
592.45	0.678
592.65	0.672
592.84	0.672
593.04	0.675
593.23	0.677
593.43	0.674
593.62	0.674
593.81	0.674
594.01	0.673
594.20	0.671
594.40	0.670
594.59	0.672
594.79	0.672
594.98	0.670
595.17	0.670
595.37	0.671
595.56	0.673
595.76	0.672
595.95	0.674
596.14	0.678
596.34	0.679
596.53	0.677
596.73	0.679
596.92	0.680
597.12	0.683
597.31	0.682
597.50	0.681
597.70	0.684
597.89	0.683
598.09	0.679
598.28	0.680
598.47	0.682
598.67	0.680
598.86	0.676
599.06	0.678
599.25	0.679
599.44	0.677
599.64	0.674
599.83	0.672
600.03	0.675
600.22	0.676
600.41	0.675
600.61	0.673
600.80	0.676
601.00	0.677
601.19	0.672
601.38	0.671
601.58	0.673
601.77	0.675
601.96	0.676
602.16	0.676
602.35	0.685
602.55	0.682
602.74	0.683
602.93	0.685
603.13	0.690
603.32	0.691
603.51	0.691
603.71	0.694
603.90	0.696
604.09	0.696
604.29	0.693
604.48	0.687
604.68	0.689
604.87	0.688
605.06	0.684
605.26	0.681
605.45	0.682
605.64	0.681
605.84	0.676
606.03	0.675
606.22	0.675
606.42	0.675
606.61	0.671
606.80	0.671
607.00	0.672
607.19	0.673
607.38	0.671
607.58	0.673
607.77	0.676
607.96	0.675
608.16	0.674
608.35	0.678
608.54	0.681
608.74	0.684
608.93	0.689
609.12	0.693
609.32	0.695
609.51	0.699
609.70	0.697
609.90	0.699
610.09	0.704
610.28	0.709
610.48	0.703
610.67	0.704
610.86	0.705
611.06	0.699
611.25	0.697
611.44	0.697
611.64	0.696
611.83	0.698
612.02	0.695
612.21	0.693
612.41	0.692
612.60	0.691
612.79	0.688
612.99	0.688
613.18	0.690
613.37	0.687
613.57	0.685
613.76	0.687
613.95	0.685
614.14	0.684
614.34	0.681
614.53	0.682
614.72	0.684
614.92	0.685
615.11	0.682
615.30	0.679
615.49	0.681
615.69	0.684
615.88	0.680
616.07	0.681
616.26	0.684
616.46	0.686
616.65	0.683
616.84	0.682
617.04	0.683
617.23	0.686
617.42	0.686
617.61	0.690
617.81	0.691
618.00	0.693
618.19	0.691
618.38	0.695
618.58	0.698
618.77	0.699
618.96	0.699
619.15	0.701
619.35	0.703
619.54	0.704
619.73	0.700
619.92	0.701
620.12	0.705
620.31	0.706
620.50	0.700
620.69	0.700
620.89	0.703
621.08	0.703
621.27	0.703
621.46	0.701
621.66	0.705
621.85	0.704
622.04	0.701
622.23	0.701
622.43	0.702
622.62	0.702
622.81	0.700
623.00	0.700
623.19	0.703
623.39	0.702
623.58	0.699
623.77	0.699
623.96	0.701
624.16	0.701
624.35	0.697
624.54	0.699
624.73	0.704
624.92	0.702
625.12	0.700
625.31	0.701
625.50	0.705
625.69	0.705
625.88	0.701
626.08	0.700
626.27	0.702
626.46	0.701
626.65	0.698
626.84	0.697
627.04	0.702
627.23	0.702
627.42	0.697
627.61	0.698
627.80	0.701
628.00	0.702
628.19	0.700
628.38	0.704
628.57	0.706
628.76	0.706
628.96	0.702
629.15	0.703
629.34	0.706
629.53	0.707
629.72	0.701
629.91	0.701
630.11	0.707
630.30	0.707
630.49	0.710
630.68	0.712
630.87	0.715
631.06	0.717
631.26	0.712
631.45	0.713
631.64	0.721
631.83	0.723
632.02	0.720
632.21	0.718
632.41	0.725
632.60	0.719
632.79	0.716
632.98	0.717
633.17	0.718
633.36	0.720
633.55	0.717
633.75	0.713
633.94	0.715
634.13	0.715
634.32	0.712
634.51	0.706
634.70	0.709
634.89	0.709
635.09	0.705
635.28	0.706
635.47	0.708
635.66	0.710
635.85	0.706
636.04	0.707
636.23	0.713
636.43	0.714
636.62	0.713
636.81	0.711
637.00	0.714
637.19	0.717
637.38	0.712
637.57	0.711
637.76	0.712
637.95	0.713
638.15	0.709
638.34	0.706
638.53	0.710
638.72	0.711
638.91	0.708
639.10	0.706
639.29	0.707
639.48	0.708
639.67	0.709
639.87	0.708
640.06	0.714
640.25	0.714
640.44	0.714
640.63	0.715
640.82	0.717
641.01	0.718
641.20	0.717
641.39	0.719
641.58	0.720
641.78	0.719
641.97	0.715
642.16	0.730
642.35	0.731
642.54	0.729
642.73	0.723
642.92	0.722
643.11	0.727
643.30	0.726
643.49	0.721
643.68	0.725
643.87	0.726
644.06	0.726
644.25	0.705
644.45	0.707
644.64	0.710
644.83	0.710
645.02	0.706
645.21	0.705
645.40	0.707
645.59	0.706
645.78	0.700
645.97	0.702
646.16	0.704
646.35	0.704
646.54	0.701
646.73	0.702
646.92	0.702
647.11	0.702
647.30	0.698
647.49	0.700
647.68	0.700
647.88	0.699
648.07	0.691
648.26	0.694
648.45	0.697
648.64	0.693
648.83	0.691
649.02	0.694
649.21	0.704
649.40	0.703
649.59	0.698
649.78	0.699
649.97	0.713
650.16	0.713
650.35	0.707
650.54	0.709
650.73	0.717
650.92	0.714
651.11	0.707
651.30	0.705
651.49	0.710
651.68	0.711
651.87	0.708
652.06	0.697
652.25	0.701
652.44	0.703
652.63	0.701
652.82	0.701
653.01	0.702
653.20	0.700
653.39	0.688
653.58	0.685
653.77	0.684
653.96	0.680
654.15	0.672
654.34	0.670
654.53	0.665
654.72	0.660
654.91	0.651
655.10	0.646
655.29	0.644
655.48	0.643
655.67	0.638
655.86	0.635
656.05	0.633
656.24	0.633
656.43	0.628
656.62	0.627
656.81	0.626
657.00	0.624
657.19	0.621
657.38	0.621
657.57	0.620
657.76	0.622
657.95	0.620
658.14	0.624
658.33	0.626
658.51	0.631
658.70	0.631
658.89	0.634
659.08	0.643
659.27	0.651
659.46	0.652
659.65	0.658
659.84	0.662
660.03	0.666
660.22	0.666
660.41	0.671
660.60	0.670
660.79	0.671
660.98	0.676
661.17	0.674
661.36	0.674
661.55	0.674
661.74	0.672
661.92	0.675
662.11	0.677
662.30	0.675
662.49	0.669
662.68	0.668
662.87	0.672
663.06	0.665
663.25	0.666
663.44	0.665
663.63	0.667
663.82	0.666
664.01	0.660
664.20	0.658
664.38	0.660
664.57	0.661
664.76	0.661
664.95	0.662
665.14	0.667
665.33	0.662
665.52	0.670
665.71	0.673
665.90	0.672
666.09	0.673
666.28	0.671
666.46	0.670
666.65	0.670
666.84	0.669
667.03	0.662
667.22	0.660
667.41	0.664
667.60	0.653
667.79	0.646
667.98	0.647
668.16	0.648
668.35	0.648
668.54	0.644
668.73	0.644
668.92	0.645
669.11	0.644
669.30	0.639
669.49	0.635
669.67	0.638
669.86	0.641
670.05	0.639
670.24	0.637
670.43	0.635
670.62	0.635
670.81	0.630
671.00	0.630
671.18	0.630
671.37	0.630
671.56	0.627
671.75	0.626
671.94	0.623
672.13	0.620
672.32	0.616
672.50	0.616
672.69	0.616
672.88	0.617
673.07	0.612
673.26	0.615
673.45	0.616
673.63	0.617
673.82	0.613
674.01	0.615
674.20	0.614
674.39	0.613
674.58	0.613
674.76	0.613
674.95	0.611
675.14	0.610
675.33	0.605
675.52	0.604
675.71	0.603
675.89	0.602
676.08	0.598
676.27	0.598
676.46	0.599
676.65	0.597
676.84	0.597
677.02	0.598
677.21	0.600
677.40	0.599
677.59	0.597
677.78	0.598
677.96	0.601
678.15	0.601
678.34	0.598
678.53	0.599
678.72	0.599
678.90	0.596
679.09	0.592
679.28	0.589
679.47	0.589
679.66	0.588
679.84	0.585
680.03	0.581
680.22	0.580
680.41	0.582
680.60	0.578
680.78	0.578
680.97	0.581
681.16	0.581
681.35	0.580
681.53	0.579
681.72	0.581
681.91	0.582
682.10	0.581
682.29	0.584
682.47	0.581
682.66	0.581
682.85	0.579
683.04	0.576
683.22	0.576
683.41	0.578
683.60	0.576
683.79	0.577
683.97	0.577
684.16	0.576
684.35	0.572
684.54	0.574
684.72	0.574
684.91	0.574
685.10	0.572
685.29	0.574
685.47	0.572
685.66	0.570
685.85	0.567
686.04	0.566
686.22	0.569
686.41	0.571
686.60	0.568
686.79	0.571
686.97	0.572
687.16	0.574
687.35	0.571
687.54	0.575
687.72	0.578
687.91	0.578
688.10	0.579
688.29	0.578
688.47	0.576
688.66	0.577
688.85	0.573
689.03	0.570
689.22	0.575
689.41	0.575
689.60	0.570
689.78	0.568
689.97	0.569
690.16	0.566
690.34	0.563
690.53	0.562
690.72	0.563
690.91	0.561
691.09	0.559
691.28	0.552
691.47	0.550
691.65	0.549
691.84	0.546
692.03	0.545
692.21	0.542
692.40	0.542
692.59	0.540
692.77	0.538
692.96	0.540
693.15	0.541
693.34	0.539
693.52	0.539
693.71	0.540
693.90	0.541
694.08	0.542
694.27	0.543
694.46	0.552
694.64	0.553
694.83	0.552
695.02	0.551
695.20	0.551
695.39	0.550
695.58	0.550
695.76	0.551
695.95	0.550
696.14	0.549
696.32	0.547
696.51	0.537
696.70	0.537
696.88	0.538
697.07	0.537
697.26	0.538
697.44	0.540
697.63	0.538
697.81	0.536
698.00	0.536
698.19	0.536
698.37	0.536
698.56	0.536
698.75	0.536
698.93	0.535
699.12	0.535
699.31	0.535
699.49	0.534
699.68	0.535
699.87	0.537
700.05	0.537
700.24	0.536
700.42	0.538
700.61	0.536
700.80	0.534
700.98	0.535
701.17	0.536
701.36	0.534
701.54	0.534
701.73	0.535
701.91	0.533
702.10	0.532
702.29	0.531
702.47	0.530
702.66	0.532
702.84	0.533
703.03	0.531
703.22	0.533
703.40	0.533
703.59	0.533
703.77	0.532
703.96	0.532
704.15	0.533
704.33	0.533
704.52	0.533
704.70	0.532
704.89	0.532
705.08	0.531
705.26	0.527
705.45	0.527
705.63	0.527
705.82	0.524
706.00	0.523
706.19	0.522
706.38	0.521
706.56	0.521
706.75	0.518
706.93	0.517
707.12	0.519
707.30	0.519
707.49	0.517
707.68	0.515
707.86	0.514
708.05	0.514
708.23	0.511
708.42	0.512
708.60	0.514
708.79	0.514
708.98	0.513
709.16	0.512
709.35	0.514
709.53	0.518
709.72	0.517
709.90	0.519
710.09	0.521
710.27	0.522
710.46	0.525
710.64	0.524
710.83	0.526
711.02	0.528
711.20	0.526
711.39	0.524
711.57	0.522
711.76	0.523
711.94	0.520
712.13	0.521
712.31	0.521
712.50	0.517
712.68	0.514
712.87	0.515
713.05	0.515
713.24	0.516
713.42	0.515
713.61	0.516
713.79	0.517
713.98	0.517
714.16	0.518
714.35	0.518
714.54	0.519
714.72	0.519
714.91	0.517
715.09	0.522
715.28	0.526
715.46	0.526
715.65	0.523
715.83	0.523
716.02	0.525
716.20	0.521
716.39	0.520
716.57	0.522
716.76	0.524
716.94	0.524
717.12	0.517
717.31	0.518
717.49	0.520
717.68	0.523
717.86	0.522
718.05	0.524
718.23	0.526
718.42	0.529
718.60	0.529
718.79	0.537
718.97	0.540
719.16	0.541
719.34	0.538
719.53	0.539
719.71	0.538
719.90	0.540
720.08	0.537
720.27	0.537
720.45	0.537
720.63	0.535
720.82	0.529
721.00	0.532
721.19	0.535
721.37	0.535
721.56	0.534
721.74	0.537
721.93	0.545
722.11	0.552
722.30	0.550
722.48	0.555
722.66	0.557
722.85	0.556
723.03	0.556
723.22	0.555
723.40	0.557
723.59	0.557
723.77	0.561
723.95	0.555
724.14	0.557
724.32	0.559
724.51	0.558
724.69	0.560
724.88	0.560
725.06	0.559
725.24	0.559
725.43	0.562
725.61	0.564
725.80	0.558
725.98	0.556
726.16	0.553
726.35	0.558
726.53	0.557
726.72	0.555
726.90	0.565
727.09	0.566
727.27	0.572
727.45	0.568
727.64	0.578
727.82	0.586
728.01	0.590
728.19	0.586
728.37	0.592
728.56	0.596
728.74	0.603
728.92	0.592
729.11	0.593
729.29	0.592
729.48	0.595
729.66	0.584
729.84	0.584
730.03	0.588
730.21	0.590
730.40	0.581
730.58	0.581
730.76	0.582
730.95	0.584
731.13	0.584
731.31	0.597
731.50	0.606
731.68	0.609
731.86	0.605
732.05	0.617
732.23	0.621
732.42	0.624
732.60	0.628
732.78	0.631
732.97	0.648
733.15	0.655
733.33	0.643
733.52	0.651
733.70	0.661
733.88	0.669
734.07	0.656
734.25	0.681
734.43	0.689
734.62	0.693
734.80	0.688
734.98	0.678
735.17	0.683
735.35	0.690
735.53	0.678
735.72	0.683
735.90	0.704
736.08	0.724
736.27	0.700
736.45	0.711
736.63	0.723
736.82	0.730
737.00	0.729
737.18	0.742
737.37	0.769
737.55	0.791
737.73	0.783
737.92	0.784
738.10	0.780
738.28	0.797
738.46	0.783
738.65	0.792
738.83	0.815
739.01	0.868
739.20	0.856
739.38	0.843
739.56	0.835
739.75	0.837
739.93	0.805
740.11	0.832
740.29	0.832
740.48	0.837
740.66	0.817
740.84	0.814
741.03	0.780
741.21	0.791
741.39	0.771
741.57	0.783
741.76	0.803
741.94	0.808
742.12	0.771
742.31	0.778
742.49	0.797
742.67	0.822
742.85	0.835
743.04	0.837
743.22	0.843
743.40	0.893
743.58	0.875
743.77	0.886
743.95	0.920
744.13	0.969
744.31	0.954
744.50	0.947
744.68	0.943
744.86	0.914
745.04	0.926
745.23	0.989
745.41	0.973
745.59	0.981
745.77	0.949
745.96	0.939
746.14	0.943
746.32	0.942
746.50	0.936
746.69	0.919
746.87	0.933
747.05	0.919
747.23	0.847
747.42	0.835
747.60	0.861
747.78	0.865
747.96	0.891
748.14	0.850
748.33	0.872
748.51	0.868
748.69	0.861
748.87	0.883
749.06	0.882
749.24	0.881
749.42	0.868
749.60	0.849
749.78	0.856
749.97	0.811
750.15	0.805
750.33	0.808
750.51	0.835
750.69	0.842
750.88	0.846
751.06	0.852
751.24	0.876
751.42	0.865
751.60	0.857
751.79	0.929
751.97	0.977
752.15	0.976
752.33	0.947
752.51	0.999
752.69	1.012
752.88	0.983
753.06	1.031
753.24	1.010
753.42	1.048
753.60	1.211
753.78	1.059
753.97	1.081
754.15	1.097
754.33	1.127
754.51	1.008
754.69	0.995
754.87	1.025
755.06	0.956
755.24	0.957
755.42	0.965
755.60	0.871
755.78	0.882
755.96	0.824
756.15	0.824
756.33	0.824
756.51	0.841
756.69	0.830
756.87	0.798
757.05	0.815
757.23	0.801
757.42	0.770
757.60	0.768
757.78	0.760
757.96	0.761
758.14	0.747
758.32	0.734
758.50	0.747
758.69	0.744
758.87	0.736
759.05	0.739
759.23	0.747
759.41	0.746
759.59	0.739
759.77	0.758
759.95	0.783
760.13	0.827
760.32	0.824
760.50	0.820
760.68	0.842
760.86	0.842
761.04	0.816
761.22	0.821
761.40	0.865
761.58	0.865
761.76	0.837
761.95	0.822
762.13	0.783
762.31	0.786
762.49	0.756
762.67	0.772
762.85	0.785
763.03	0.781
763.21	0.762
763.39	0.745
763.57	0.749
763.75	0.747
763.94	0.734
764.12	0.734
764.30	0.756
764.48	0.759
764.66	0.728
764.84	0.726
765.02	0.765
765.20	0.772
765.38	0.755
765.56	0.758
765.74	0.795
765.92	0.797
766.10	0.804
766.28	0.799
766.46	0.826
766.65	0.823
766.83	0.809
767.01	0.789
767.19	0.796
767.37	0.793
767.55	0.781
767.73	0.762
767.91	0.764
768.09	0.753
768.27	0.743
768.45	0.736
768.63	0.744
768.81	0.750
768.99	0.727
769.17	0.751
769.35	0.766
769.53	0.766
769.71	0.750
769.89	0.758
770.07	0.763
770.25	0.745
770.43	0.721
770.61	0.741
770.79	0.746
770.97	0.755
771.15	0.724
771.33	0.729
771.51	0.728
771.69	0.737
771.87	0.745
772.05	0.750
772.24	0.759
772.42	0.769
772.60	0.750
772.78	0.805
772.96	0.829
773.14	0.828
773.32	0.804
773.49	0.813
773.67	0.809
773.85	0.787
774.03	0.777
774.21	0.810
774.39	0.818
774.57	0.840
774.75	0.773
774.93	0.769
775.11	0.790
775.29	0.796
775.47	0.795
775.65	0.806
775.83	0.825
776.01	0.846
776.19	0.798
776.37	0.801
776.55	0.803
776.73	0.798
776.91	0.796
777.09	0.780
777.27	0.777
777.45	0.768
777.63	0.747
777.81	0.741
777.99	0.729
778.17	0.728
778.35	0.707
778.53	0.692
778.71	0.699
778.89	0.685
779.07	0.675
779.24	0.681
779.42	0.682
779.60	0.699
779.78	0.697
779.96	0.701
780.14	0.710
780.32	0.731
780.50	0.718
780.68	0.717
780.86	0.710
781.04	0.725
781.22	0.730
781.40	0.741
781.58	0.732
781.75	0.726
781.93	0.709
782.11	0.709
782.29	0.694
782.47	0.690
782.65	0.679
782.83	0.705
783.01	0.698
783.19	0.691
783.37	0.675
783.55	0.677
783.72	0.693
783.90	0.703
784.08	0.695
784.26	0.707
784.44	0.729
784.62	0.730
784.80	0.700
784.98	0.707
785.16	0.713
785.33	0.727
785.51	0.715
785.69	0.703
785.87	0.703
786.05	0.713
786.23	0.708
786.41	0.704
786.59	0.711
786.77	0.710
786.94	0.698
787.12	0.702
787.30	0.706
787.48	0.702
787.66	0.690
787.84	0.690
788.02	0.682
788.19	0.681
788.37	0.668
788.55	0.670
788.73	0.671
788.91	0.665
789.09	0.647
789.27	0.636
789.44	0.646
789.62	0.651
789.80	0.659
789.98	0.683
790.16	0.669
790.34	0.664
790.51	0.652
790.69	0.671
790.87	0.678
791.05	0.677
791.23	0.671
791.41	0.674
791.58	0.682
791.76	0.663
791.94	0.631
792.12	0.642
792.30	0.646
792.48	0.645
792.65	0.637
792.83	0.643
793.01	0.649
793.19	0.648
793.37	0.633
793.54	0.629
793.72	0.640
793.90	0.641
794.08	0.629
794.26	0.631
794.43	0.638
794.61	0.622
794.79	0.610
794.97	0.609
795.15	0.616
795.32	0.620
795.50	0.609
795.68	0.604
795.86	0.607
796.04	0.609
796.21	0.603
796.39	0.602
796.57	0.619
796.75	0.628
796.92	0.629
797.10	0.632
797.28	0.635
797.46	0.638
797.64	0.638
797.81	0.647
797.99	0.650
798.17	0.653
798.35	0.647
798.52	0.649
798.70	0.643
798.88	0.650
799.06	0.649
799.23	0.652
799.41	0.660
799.59	0.655
799.77	0.642
799.94	0.651
800.12	0.661
800.30	0.678
800.48	0.676
800.65	0.677
800.83	0.669
801.01	0.660
801.19	0.658
801.36	0.656
801.54	0.659
801.72	0.671
801.90	0.656
802.07	0.652
802.25	0.638
802.43	0.621
802.60	0.616
802.78	0.624
802.96	0.629
803.14	0.623
803.31	0.620
803.49	0.620
803.67	0.615
803.84	0.621
804.02	0.613
804.20	0.615
804.38	0.622
804.55	0.622
804.73	0.605
804.91	0.606
805.08	0.619
805.26	0.615
805.44	0.676
805.61	0.678
805.79	0.678
805.97	0.678
806.15	0.670
806.32	0.666
806.50	0.672
806.68	0.675
806.85	0.666
807.03	0.658
807.21	0.674
807.38	0.610
807.56	0.601
807.74	0.609
807.91	0.615
808.09	0.617
808.27	0.633
808.44	0.658
808.62	0.667
808.80	0.670
808.97	0.663
809.15	0.658
809.33	0.673
809.50	0.679
809.68	0.666
809.86	0.673
810.03	0.703
810.21	0.685
810.39	0.668
810.56	0.674
810.74	0.696
810.91	0.767
811.09	0.753
811.27	0.773
811.44	0.780
811.62	0.782
811.80	0.766
811.97	0.736
812.15	0.733
812.33	0.727
812.50	0.711
812.68	0.700
812.85	0.648
813.03	0.652
813.21	0.622
813.38	0.617
813.56	0.621
813.74	0.632
813.91	0.638
814.09	0.669
814.26	0.662
814.44	0.666
814.62	0.658
814.79	0.660
814.97	0.665
815.14	0.668
815.32	0.672
815.50	0.686
815.67	0.688
815.85	0.681
816.02	0.671
816.20	0.679
816.38	0.694
816.55	0.699
816.73	0.699
816.90	0.709
817.08	0.737
817.26	0.740
817.43	0.720
817.61	0.743
817.78	0.764
817.96	0.740
818.13	0.729
818.31	0.730
818.49	0.740
818.66	0.733
818.84	0.720
819.01	0.700
819.19	0.709
819.36	0.713
819.54	0.685
819.71	0.724
819.89	0.739
820.07	0.751
820.24	0.745
820.42	0.746
820.59	0.764
820.77	0.784
820.94	0.776
821.12	0.791
821.29	0.806
821.47	0.806
821.64	0.744
821.82	0.757
822.00	0.755
822.17	0.753
822.35	0.745
822.52	0.747
822.70	0.738
822.87	0.745
823.05	0.726
823.22	0.736
823.40	0.762
823.57	0.781
823.75	0.760
823.92	0.783
824.10	0.800
824.27	0.838
824.45	0.824
824.62	0.884
824.80	0.897
824.97	0.908
825.15	0.896
825.32	0.910
825.50	0.917
825.67	0.927
825.85	0.902
826.02	0.920
826.20	0.939
826.37	1.052
826.55	0.974
826.72	1.155
826.90	1.227
827.07	1.284
827.25	1.216
827.42	1.364
827.60	1.518
827.77	1.699
827.95	1.644
828.12	1.782
828.30	1.409
828.47	1.523
828.65	1.173
828.82	1.213
829.00	1.257
829.17	1.324
829.34	1.300
829.52	1.310
829.69	-0.000
829.87	-0.000
830.04	-0.000
830.22	-0.000
830.39	-0.000
830.57	-0.000
830.74	-0.000
830.92	-0.000
831.09	-0.000
831.26	-0.000
831.44	-0.000
831.61	-0.000
831.79	-0.000
831.96	-0.000
832.14	-0.000
832.31	-0.000
832.49	-0.000
832.66	-0.000
832.83	-0.000
833.01	-0.000
833.18	-0.000
833.36	-0.000
833.53	-0.000
833.70	-0.000
833.88	-0.000
834.05	-0.000
834.23	-0.000
834.40	-0.000
834.58	-0.000
834.75	-0.000
834.92	-0.000
835.10	-0.000
835.27	-0.000
835.45	-0.000
835.62	-0.000
835.79	-0.000
835.97	-0.000
836.14	-0.000
836.32	-0.000
836.49	-0.000
836.66	-0.000
836.84	-0.000
837.01	-0.000
837.18	-0.000
837.36	-0.000
837.53	-0.000
837.71	-0.000
837.88	-0.000
838.05	-0.000
838.23	-0.000
838.40	-0.000
838.58	-0.000
838.75	-0.000
838.92	-0.000
839.10	-0.000
839.27	-0.000
839.44	-0.000
839.62	-0.000
839.79	-0.000
839.96	-0.000
840.14	-0.000
840.31	-0.000
840.48	-0.000
840.66	-0.000
840.83	-0.000
841.01	-0.000
841.18	-0.000
841.35	-0.000
841.53	-0.000
841.70	-0.000
841.87	-0.000
842.05	-0.000
842.22	-0.000
842.39	-0.000
842.57	-0.000
842.74	-0.000
842.91	-0.000
843.09	-0.000
843.26	-0.000
843.43	-0.000
843.60	-0.000
843.78	-0.000
843.95	-0.000
844.12	-0.000
844.30	-0.000
844.47	-0.000
844.64	-0.000
844.82	-0.000
844.99	-0.000
845.16	-0.000
845.34	-0.000
845.51	-0.000
845.68	-0.000
845.85	-0.000
846.03	-0.000
846.20	-0.000
846.37	-0.000
846.55	-0.000
846.72	-0.000
846.89	-0.000
847.06	-0.000
847.24	-0.000
847.41	-0.000
847.58	-0.000
847.76	-0.000
847.93	-0.000
848.10	-0.000
848.27	-0.000
848.45	-0.000
848.62	-0.000
848.79	-0.000
848.97	-0.000
849.14	-0.000
849.31	-0.000
849.48	-0.000
849.66	-0.000
849.83	-0.000
850.00	-0.000
850.17	-0.000
850.35	-0.000
850.52	-0.000
850.69	-0.000
850.86	-0.000
851.04	-0.000
851.21	-0.000
851.38	-0.000
851.55	-0.000
851.72	-0.000
851.90	-0.000
852.07	-0.000
852.24	-0.000
852.41	-0.000
852.59	-0.000
852.76	-0.000
852.93	-0.000
853.10	-0.000
853.28	-0.000
853.45	-0.000
853.62	-0.000
853.79	-0.000
853.96	-0.000
854.14	-0.000
854.31	-0.000
854.48	-0.000
854.65	-0.000
854.82	-0.000
855.00	-0.000
855.17	-0.000
855.34	-0.000
855.51	-0.000
855.68	-0.000
855.86	-0.000
856.03	-0.000
856.20	-0.000
856.37	-0.000
856.54	-0.000
856.72	-0.000
856.89	-0.000
857.06	-0.000
857.23	-0.000
857.40	-0.000
857.57	-0.000
857.75	-0.000
857.92	-0.000
858.09	-0.000
858.26	-0.000
858.43	-0.000
858.60	-0.000
858.78	-0.000
858.95	-0.000
859.12	-0.000
859.29	-0.000
859.46	-0.000
859.63	-0.000
859.81	-0.000
859.98	-0.000
860.15	-0.000
860.32	-0.000
860.49	-0.000
860.66	-0.000
860.83	-0.000
861.01	-0.000
861.18	-0.000
861.35	-0.000
861.52	-0.000
861.69	-0.000
861.86	-0.000
862.03	-0.000
862.21	-0.000
862.38	-0.000
862.55	-0.000
862.72	-0.000
862.89	-0.000
863.06	-0.000
863.23	-0.000
863.40	-0.000
863.58	-0.000
863.75	-0.000
863.92	-0.000
864.09	-0.000
864.26	-0.000
864.43	-0.000
864.60	-0.000
864.77	-0.000
864.94	-0.000
865.11	-0.000
865.29	-0.000
865.46	-0.000
865.63	-0.000
865.80	-0.000
865.97	-0.000
866.14	-0.000
866.31	-0.000
866.48	-0.000
866.65	-0.000
866.82	-0.000
866.99	-0.000
867.16	-0.000
867.34	-0.000
867.51	-0.000
867.68	-0.000
867.85	-0.000
868.02	-0.000
868.19	-0.000
868.36	-0.000
868.53	-0.000
868.70	-0.000
868.87	-0.000
869.04	-0.000
869.21	-0.000
869.38	-0.000
869.55	-0.000
869.72	-0.000
869.89	-0.000
870.06	-0.000
870.24	-0.000
870.41	-0.000
870.58	-0.000
870.75	-0.000
870.92	-0.000
871.09	-0.000
871.26	-0.000
871.43	-0.000
871.60	-0.000
871.77	-0.000
871.94	-0.000
872.11	-0.000
872.28	-0.000
872.45	-0.000
872.62	-0.000
872.79	-0.000
872.96	-0.000
873.13	-0.000
873.30	-0.000
873.47	-0.000
873.64	-0.000
873.81	-0.000
873.98	-0.000
874.15	-0.000
874.32	-0.000
874.49	-0.000
874.66	-0.000
874.83	-0.000
875.00	-0.000
875.17	-0.000
875.34	-0.000
875.51	-0.000
875.68	-0.000
875.85	-0.000
876.02	-0.000
876.19	-0.000
876.36	-0.000
876.53	-0.000
876.70	-0.000
876.87	-0.000
877.04	-0.000
877.21	-0.000
877.38	-0.000
877.55	-0.000
877.72	-0.000
877.89	-0.000
878.06	-0.000
878.23	-0.000
878.39	-0.000
878.56	-0.000
878.73	-0.000
878.90	-0.000
879.07	-0.000
879.24	-0.000
879.41	-0.000
879.58	-0.000
879.75	-0.000
879.92	-0.000
880.09	-0.000
880.26	-0.000
880.43	-0.000
880.60	-0.000
880.77	-0.000
880.94	-0.000
881.11	-0.000
881.27	-0.000
881.44	-0.000
881.61	-0.000
881.78	-0.000
881.95	-0.000
882.12	-0.000
882.29	-0.000
882.46	-0.000
882.63	-0.000
882.80	-0.000
882.97	-0.000
883.14	-0.000
883.30	-0.000
883.47	-0.000
883.64	-0.000
883.81	-0.000
883.98	-0.000
884.15	-0.000
884.32	-0.000
884.49	-0.000
884.66	-0.000
884.82	-0.000
884.99	-0.000
885.16	-0.000
885.33	-0.000
885.50	-0.000
885.67	-0.000
885.84	-0.000
886.01	-0.000
886.17	-0.000
886.34	-0.000
886.51	-0.000
886.68	-0.000
886.85	-0.000
887.02	-0.000
887.19	-0.000
887.36	-0.000
887.52	-0.000
887.69	-0.000
887.86	-0.000
888.03	-0.000
888.20	-0.000
888.37	-0.000
888.54	-0.000
888.70	-0.000
888.87	-0.000
889.04	-0.000
889.21	-0.000
889.38	-0.000
889.55	-0.000
889.71	-0.000
889.88	-0.000
890.05	-0.000
890.22	-0.000
890.39	-0.000
>>>>>End Processed Spectral Data<<<<<
