SpectraSuite Data File
++++++++++++++++++++++++++++++++++++
Date: Fri Jun 19 13:09:07 CEST 2015
User: introlabs
Dark Spectrum Present: Yes
Reference Spectrum Present: Yes
Number of Sampled Component Spectra: 1
Spectrometers: USB4H08886
Integration Time (usec): 745692 (USB4H08886)
Spectra Averaged: 5 (USB4H08886)
Boxcar Smoothing: 5 (USB4H08886)
Correct for Electrical Dark: Yes (USB4H08886)
Strobe/Lamp Enabled: No (USB4H08886)
Correct for Detector Non-linearity: Yes (USB4H08886)
Correct for Stray Light: Yes (USB4H08886)
Number of Pixels in Processed Spectrum: 3648
>>>>>Begin Processed Spectral Data<<<<<
178.14	-0.000
178.36	-0.000
178.57	-0.000
178.79	-0.000
179.01	-0.000
179.22	-0.000
179.44	-0.000
179.65	-0.000
179.87	-0.000
180.08	-0.000
180.30	-0.000
180.52	-0.000
180.73	-0.000
180.95	-0.000
181.16	-0.000
181.38	-0.000
181.59	-0.000
181.81	-0.000
182.03	-0.000
182.24	-0.000
182.46	-0.000
182.67	-0.000
182.89	-0.000
183.10	-0.000
183.32	-0.000
183.54	-0.000
183.75	-0.000
183.97	-0.000
184.18	-0.000
184.40	-0.000
184.61	-0.000
184.83	-0.000
185.04	-0.000
185.26	-0.000
185.48	-0.000
185.69	-0.000
185.91	-0.000
186.12	-0.000
186.34	-0.000
186.55	-0.000
186.77	-0.000
186.98	-0.000
187.20	-0.000
187.42	-0.000
187.63	-0.000
187.85	-0.000
188.06	-0.000
188.28	-0.000
188.49	-0.000
188.71	-0.000
188.92	-0.000
189.14	-0.000
189.36	-0.000
189.57	-0.000
189.79	-0.000
190.00	-0.000
190.22	-0.000
190.43	-0.000
190.65	-0.000
190.86	-0.000
191.08	-0.000
191.29	-0.000
191.51	-0.000
191.72	-0.000
191.94	-0.000
192.16	-0.000
192.37	-0.000
192.59	-0.000
192.80	-0.000
193.02	-0.000
193.23	-0.000
193.45	-0.000
193.66	-0.000
193.88	-0.000
194.09	-0.000
194.31	-0.000
194.52	-0.000
194.74	-0.000
194.95	-0.000
195.17	-0.000
195.38	-0.000
195.60	-0.000
195.81	-0.000
196.03	-0.000
196.25	-0.000
196.46	-0.000
196.68	-0.000
196.89	-0.000
197.11	-0.000
197.32	-0.000
197.54	-0.000
197.75	-0.000
197.97	-0.000
198.18	-0.000
198.40	-0.000
198.61	-0.000
198.83	-0.000
199.04	-0.000
199.26	-0.000
199.47	-0.000
199.69	-0.000
199.90	-0.000
200.12	-0.000
200.33	-0.000
200.55	-0.000
200.76	-0.000
200.98	-0.000
201.19	-0.000
201.41	-0.000
201.62	-0.000
201.84	-0.000
202.05	-0.000
202.27	-0.000
202.48	-0.000
202.70	-0.000
202.91	-0.000
203.13	-0.000
203.34	-0.000
203.56	-0.000
203.77	-0.000
203.99	-0.000
204.20	-0.000
204.42	-0.000
204.63	-0.000
204.85	-0.000
205.06	-0.000
205.28	-0.000
205.49	-0.000
205.71	-0.000
205.92	-0.000
206.14	-0.000
206.35	-0.000
206.56	-0.000
206.78	-0.000
206.99	-0.000
207.21	-0.000
207.42	-0.000
207.64	-0.000
207.85	-0.000
208.07	-0.000
208.28	-0.000
208.50	-0.000
208.71	-0.000
208.93	-0.000
209.14	-0.000
209.36	-0.000
209.57	-0.000
209.79	-0.000
210.00	-0.000
210.22	-0.000
210.43	-0.000
210.64	-0.000
210.86	-0.000
211.07	-0.000
211.29	-0.000
211.50	-0.000
211.72	-0.000
211.93	-0.000
212.15	-0.000
212.36	-0.000
212.58	-0.000
212.79	-0.000
213.01	-0.000
213.22	-0.000
213.43	-0.000
213.65	-0.000
213.86	-0.000
214.08	-0.000
214.29	-0.000
214.51	-0.000
214.72	-0.000
214.94	-0.000
215.15	-0.000
215.36	-0.000
215.58	-0.000
215.79	-0.000
216.01	-0.000
216.22	-0.000
216.44	-0.000
216.65	-0.000
216.87	-0.000
217.08	-0.000
217.29	-0.000
217.51	-0.000
217.72	-0.000
217.94	-0.000
218.15	-0.000
218.37	-0.000
218.58	-0.000
218.80	-0.000
219.01	-0.000
219.22	-0.000
219.44	-0.000
219.65	-0.000
219.87	-0.000
220.08	-0.000
220.30	-0.000
220.51	-0.000
220.72	-0.000
220.94	-0.000
221.15	-0.000
221.37	-0.000
221.58	-0.000
221.79	-0.000
222.01	-0.000
222.22	-0.000
222.44	-0.000
222.65	-0.000
222.87	-0.000
223.08	-0.000
223.29	-0.000
223.51	-0.000
223.72	-0.000
223.94	-0.000
224.15	-0.000
224.36	-0.000
224.58	-0.000
224.79	-0.000
225.01	-0.000
225.22	-0.000
225.44	-0.000
225.65	-0.000
225.86	-0.000
226.08	-0.000
226.29	-0.000
226.51	-0.000
226.72	-0.000
226.93	-0.000
227.15	-0.000
227.36	-0.000
227.58	-0.000
227.79	-0.000
228.00	-0.000
228.22	-0.000
228.43	-0.000
228.65	-0.000
228.86	-0.000
229.07	-0.000
229.29	-0.000
229.50	-0.000
229.72	-0.000
229.93	-0.000
230.14	-0.000
230.36	-0.000
230.57	-0.000
230.78	-0.000
231.00	-0.000
231.21	-0.000
231.43	-0.000
231.64	-0.000
231.85	-0.000
232.07	-0.000
232.28	-0.000
232.50	-0.000
232.71	-0.000
232.92	-0.000
233.14	-0.000
233.35	-0.000
233.56	-0.000
233.78	-0.000
233.99	-0.000
234.21	-0.000
234.42	-0.000
234.63	-0.000
234.85	-0.000
235.06	-0.000
235.27	-0.000
235.49	-0.000
235.70	-0.000
235.91	-0.000
236.13	-0.000
236.34	-0.000
236.56	-0.000
236.77	-0.000
236.98	-0.000
237.20	-0.000
237.41	-0.000
237.62	-0.000
237.84	-0.000
238.05	-0.000
238.26	-0.000
238.48	-0.000
238.69	-0.000
238.91	-0.000
239.12	-0.000
239.33	-0.000
239.55	-0.000
239.76	-0.000
239.97	-0.000
240.19	-0.000
240.40	-0.000
240.61	-0.000
240.83	-0.000
241.04	-0.000
241.25	-0.000
241.47	-0.000
241.68	-0.000
241.89	-0.000
242.11	-0.000
242.32	-0.000
242.53	-0.000
242.75	-0.000
242.96	-0.000
243.17	-0.000
243.39	-0.000
243.60	-0.000
243.81	-0.000
244.03	-0.000
244.24	-0.000
244.45	-0.000
244.67	-0.000
244.88	-0.000
245.09	-0.000
245.31	-0.000
245.52	-0.000
245.73	-0.000
245.95	-0.000
246.16	-0.000
246.37	-0.000
246.59	-0.000
246.80	-0.000
247.01	-0.000
247.23	-0.000
247.44	-0.000
247.65	-0.000
247.87	-0.000
248.08	-0.000
248.29	-0.000
248.51	-0.000
248.72	-0.000
248.93	-0.000
249.15	-0.000
249.36	-0.000
249.57	-0.000
249.78	-0.000
250.00	-0.000
250.21	-0.000
250.42	-0.000
250.64	-0.000
250.85	-0.000
251.06	-0.000
251.28	-0.000
251.49	-0.000
251.70	-0.000
251.92	-0.000
252.13	-0.000
252.34	-0.000
252.55	-0.000
252.77	-0.000
252.98	-0.000
253.19	-0.000
253.41	-0.000
253.62	-0.000
253.83	-0.000
254.05	-0.000
254.26	-0.000
254.47	-0.000
254.68	-0.000
254.90	-0.000
255.11	-0.000
255.32	-0.000
255.54	-0.000
255.75	-0.000
255.96	-0.000
256.17	-0.000
256.39	-0.000
256.60	-0.000
256.81	-0.000
257.03	-0.000
257.24	-0.000
257.45	-0.000
257.66	-0.000
257.88	-0.000
258.09	-0.000
258.30	-0.000
258.51	-0.000
258.73	-0.000
258.94	-0.000
259.15	-0.000
259.37	-0.000
259.58	-0.000
259.79	-0.000
260.00	-0.000
260.22	-0.000
260.43	-0.000
260.64	-0.000
260.85	-0.000
261.07	-0.000
261.28	-0.000
261.49	-0.000
261.71	-0.000
261.92	-0.000
262.13	-0.000
262.34	-0.000
262.56	-0.000
262.77	-0.000
262.98	-0.000
263.19	-0.000
263.41	-0.000
263.62	-0.000
263.83	-0.000
264.04	-0.000
264.26	-0.000
264.47	-0.000
264.68	-0.000
264.89	-0.000
265.11	-0.000
265.32	-0.000
265.53	-0.000
265.74	-0.000
265.96	-0.000
266.17	-0.000
266.38	-0.000
266.59	-0.000
266.81	-0.000
267.02	-0.000
267.23	-0.000
267.44	-0.000
267.65	-0.000
267.87	-0.000
268.08	-0.000
268.29	-0.000
268.50	-0.000
268.72	-0.000
268.93	-0.000
269.14	-0.000
269.35	-0.000
269.57	-0.000
269.78	-0.000
269.99	-0.000
270.20	-0.000
270.41	-0.000
270.63	-0.000
270.84	-0.000
271.05	-0.000
271.26	-0.000
271.48	-0.000
271.69	-0.000
271.90	-0.000
272.11	-0.000
272.32	-0.000
272.54	-0.000
272.75	-0.000
272.96	-0.000
273.17	-0.000
273.39	-0.000
273.60	-0.000
273.81	-0.000
274.02	-0.000
274.23	-0.000
274.45	-0.000
274.66	-0.000
274.87	-0.000
275.08	-0.000
275.29	-0.000
275.51	-0.000
275.72	-0.000
275.93	-0.000
276.14	-0.000
276.35	-0.000
276.57	-0.000
276.78	-0.000
276.99	-0.000
277.20	-0.000
277.41	-0.000
277.63	-0.000
277.84	-0.000
278.05	-0.000
278.26	-0.000
278.47	-0.000
278.69	-0.000
278.90	-0.000
279.11	-0.000
279.32	-0.000
279.53	-0.000
279.74	-0.000
279.96	-0.000
280.17	-0.000
280.38	-0.000
280.59	-0.000
280.80	-0.000
281.02	-0.000
281.23	-0.000
281.44	-0.000
281.65	-0.000
281.86	-0.000
282.07	-0.000
282.29	-0.000
282.50	-0.000
282.71	-0.000
282.92	-0.000
283.13	-0.000
283.35	-0.000
283.56	-0.000
283.77	-0.000
283.98	-0.000
284.19	-0.000
284.40	-0.000
284.62	-0.000
284.83	-0.000
285.04	-0.000
285.25	-0.000
285.46	-0.000
285.67	-0.000
285.88	-0.000
286.10	-0.000
286.31	-0.000
286.52	-0.000
286.73	-0.000
286.94	-0.000
287.15	-0.000
287.37	-0.000
287.58	-0.000
287.79	-0.000
288.00	-0.000
288.21	-0.000
288.42	-0.000
288.63	-0.000
288.85	-0.000
289.06	-0.000
289.27	-0.000
289.48	-0.000
289.69	-0.000
289.90	-0.000
290.11	-0.000
290.33	-0.000
290.54	-0.000
290.75	-0.000
290.96	-0.000
291.17	-0.000
291.38	-0.000
291.59	-0.000
291.81	-0.000
292.02	-0.000
292.23	-0.000
292.44	-0.000
292.65	-0.000
292.86	-0.000
293.07	-0.000
293.28	-0.000
293.50	-0.000
293.71	-0.000
293.92	-0.000
294.13	-0.000
294.34	-0.000
294.55	-0.000
294.76	-0.000
294.97	-0.000
295.19	-0.000
295.40	-0.000
295.61	-0.000
295.82	-0.000
296.03	-0.000
296.24	-0.000
296.45	-0.000
296.66	-0.000
296.87	-0.000
297.09	-0.000
297.30	-0.000
297.51	3.372
297.72	2.528
297.93	-0.000
298.14	-0.000
298.35	2.562
298.56	2.469
298.77	-0.000
298.99	-0.000
299.20	3.289
299.41	2.870
299.62	2.496
299.83	2.448
300.04	2.114
300.25	2.099
300.46	2.236
300.67	2.137
300.88	1.956
301.10	1.972
301.31	2.237
301.52	2.007
301.73	1.835
301.94	1.838
302.15	1.877
302.36	1.774
302.57	1.641
302.78	1.655
302.99	1.746
303.20	1.768
303.41	1.591
303.63	1.560
303.84	1.570
304.05	1.568
304.26	1.475
304.47	1.486
304.68	1.496
304.89	1.483
305.10	1.419
305.31	1.397
305.52	1.452
305.73	1.441
305.94	1.381
306.15	1.375
306.37	1.405
306.58	1.411
306.79	1.365
307.00	1.389
307.21	1.440
307.42	1.427
307.63	1.379
307.84	1.337
308.05	1.386
308.26	1.387
308.47	1.352
308.68	1.345
308.89	1.351
309.10	1.347
309.31	1.300
309.52	1.285
309.73	1.309
309.95	1.300
310.16	1.265
310.37	1.251
310.58	1.276
310.79	1.273
311.00	1.267
311.21	1.267
311.42	1.272
311.63	1.262
311.84	1.241
312.05	1.234
312.26	1.263
312.47	1.274
312.68	1.244
312.89	1.225
313.10	1.234
313.31	1.200
313.52	1.200
313.73	1.201
313.94	1.205
314.15	1.185
314.36	1.163
314.57	1.152
314.78	1.139
314.99	1.132
315.21	1.115
315.42	1.121
315.63	1.138
315.84	1.112
316.05	1.093
316.26	1.101
316.47	1.120
316.68	1.114
316.89	1.092
317.10	1.115
317.31	1.123
317.52	1.126
317.73	1.100
317.94	1.099
318.15	1.147
318.36	1.147
318.57	1.126
318.78	1.113
318.99	1.155
319.20	1.150
319.41	1.112
319.62	1.111
319.83	1.127
320.04	1.119
320.25	1.104
320.46	1.067
320.67	1.071
320.88	1.064
321.09	1.047
321.30	1.031
321.51	1.049
321.72	1.046
321.93	1.028
322.14	1.019
322.35	1.051
322.56	1.052
322.77	1.039
322.98	1.051
323.19	1.062
323.40	1.070
323.61	1.045
323.82	1.039
324.03	1.046
324.24	1.042
324.45	1.027
324.66	1.005
324.87	1.001
325.08	1.000
325.29	0.979
325.50	0.971
325.71	0.977
325.92	0.985
326.13	0.969
326.34	0.968
326.55	0.980
326.76	0.977
326.97	0.963
327.18	0.957
327.39	0.984
327.60	0.984
327.80	0.983
328.01	0.981
328.22	0.982
328.43	0.986
328.64	0.973
328.85	0.975
329.06	0.981
329.27	0.980
329.48	0.975
329.69	0.955
329.90	0.966
330.11	0.959
330.32	0.951
330.53	0.944
330.74	0.944
330.95	0.942
331.16	0.926
331.37	0.932
331.58	0.935
331.79	0.934
332.00	0.925
332.21	0.918
332.42	0.922
332.63	0.912
332.83	0.906
333.04	0.909
333.25	0.923
333.46	0.923
333.67	0.907
333.88	0.909
334.09	0.919
334.30	0.915
334.51	0.905
334.72	0.900
334.93	0.907
335.14	0.906
335.35	0.897
335.56	0.892
335.77	0.901
335.98	0.900
336.18	0.892
336.39	0.885
336.60	0.890
336.81	0.889
337.02	0.888
337.23	0.891
337.44	0.895
337.65	0.896
337.86	0.885
338.07	0.880
338.28	0.885
338.49	0.883
338.70	0.874
338.91	0.882
339.11	0.889
339.32	0.884
339.53	0.870
339.74	0.867
339.95	0.865
340.16	0.862
340.37	0.854
340.58	0.853
340.79	0.858
341.00	0.858
341.21	0.847
341.41	0.848
341.62	0.850
341.83	0.851
342.04	0.846
342.25	0.857
342.46	0.863
342.67	0.862
342.88	0.854
343.09	0.851
343.30	0.859
343.50	0.862
343.71	0.851
343.92	0.851
344.13	0.856
344.34	0.855
344.55	0.836
344.76	0.835
344.97	0.840
345.18	0.839
345.38	0.837
345.59	0.832
345.80	0.832
346.01	0.830
346.22	0.824
346.43	0.818
346.64	0.827
346.85	0.826
347.06	0.818
347.26	0.818
347.47	0.822
347.68	0.817
347.89	0.812
348.10	0.806
348.31	0.813
348.52	0.813
348.73	0.810
348.93	0.807
349.14	0.810
349.35	0.810
349.56	0.804
349.77	0.798
349.98	0.804
350.19	0.802
350.39	0.797
350.60	0.792
350.81	0.809
351.02	0.808
351.23	0.803
351.44	0.806
351.65	0.809
351.86	0.807
352.06	0.806
352.27	0.807
352.48	0.808
352.69	0.807
352.90	0.801
353.11	0.788
353.31	0.795
353.52	0.790
353.73	0.782
353.94	0.783
354.15	0.790
354.36	0.790
354.57	0.782
354.77	0.784
354.98	0.784
355.19	0.784
355.40	0.783
355.61	0.789
355.82	0.794
356.02	0.793
356.23	0.785
356.44	0.787
356.65	0.789
356.86	0.789
357.07	0.783
357.27	0.786
357.48	0.789
357.69	0.784
357.90	0.768
358.11	0.766
358.32	0.771
358.52	0.773
358.73	0.762
358.94	0.765
359.15	0.771
359.36	0.771
359.56	0.766
359.77	0.762
359.98	0.770
360.19	0.770
360.40	0.765
360.61	0.765
360.81	0.764
361.02	0.765
361.23	0.755
361.44	0.753
361.65	0.754
361.85	0.753
362.06	0.751
362.27	0.753
362.48	0.753
362.69	0.756
362.89	0.750
363.10	0.752
363.31	0.758
363.52	0.761
363.73	0.756
363.93	0.756
364.14	0.760
364.35	0.762
364.56	0.751
364.77	0.753
364.97	0.756
365.18	0.757
365.39	0.750
365.60	0.746
365.81	0.748
366.01	0.747
366.22	0.743
366.43	0.742
366.64	0.745
366.84	0.751
367.05	0.746
367.26	0.745
367.47	0.746
367.68	0.747
367.88	0.743
368.09	0.742
368.30	0.745
368.51	0.744
368.71	0.743
368.92	0.747
369.13	0.745
369.34	0.745
369.55	0.744
369.75	0.744
369.96	0.752
370.17	0.751
370.38	0.747
370.58	0.746
370.79	0.752
371.00	0.750
371.21	0.741
371.41	0.746
371.62	0.751
371.83	0.746
372.04	0.744
372.24	0.737
372.45	0.739
372.66	0.740
372.87	0.737
373.07	0.734
373.28	0.735
373.49	0.739
373.70	0.728
373.90	0.727
374.11	0.736
374.32	0.735
374.53	0.734
374.73	0.734
374.94	0.736
375.15	0.736
375.36	0.733
375.56	0.742
375.77	0.741
375.98	0.742
376.19	0.740
376.39	0.734
376.60	0.738
376.81	0.738
377.02	0.735
377.22	0.733
377.43	0.733
377.64	0.733
377.84	0.723
378.05	0.729
378.26	0.735
378.47	0.733
378.67	0.729
378.88	0.726
379.09	0.726
379.30	0.727
379.50	0.724
379.71	0.726
379.92	0.730
380.12	0.729
380.33	0.720
380.54	0.716
380.75	0.724
380.95	0.723
381.16	0.722
381.37	0.722
381.57	0.724
381.78	0.724
381.99	0.723
382.20	0.721
382.40	0.725
382.61	0.725
382.82	0.721
383.02	0.715
383.23	0.718
383.44	0.718
383.64	0.715
383.85	0.719
384.06	0.722
384.27	0.720
384.47	0.718
384.68	0.718
384.89	0.723
385.09	0.723
385.30	0.723
385.51	0.721
385.71	0.724
385.92	0.725
386.13	0.722
386.33	0.724
386.54	0.725
386.75	0.724
386.95	0.721
387.16	0.716
387.37	0.719
387.58	0.718
387.78	0.716
387.99	0.714
388.20	0.716
388.40	0.714
388.61	0.709
388.82	0.713
389.02	0.715
389.23	0.714
389.44	0.712
389.64	0.712
389.85	0.724
390.06	0.723
390.26	0.723
390.47	0.722
390.68	0.725
390.88	0.723
391.09	0.718
391.30	0.717
391.50	0.717
391.71	0.716
391.92	0.714
392.12	0.705
392.33	0.706
392.53	0.705
392.74	0.706
392.95	0.705
393.15	0.707
393.36	0.709
393.57	0.707
393.77	0.710
393.98	0.712
394.19	0.711
394.39	0.711
394.60	0.712
394.81	0.714
395.01	0.712
395.22	0.710
395.43	0.711
395.63	0.715
395.84	0.716
396.04	0.711
396.25	0.713
396.46	0.715
396.66	0.713
396.87	0.710
397.08	0.707
397.28	0.709
397.49	0.710
397.69	0.706
397.90	0.702
398.11	0.703
398.31	0.704
398.52	0.700
398.73	0.701
398.93	0.700
399.14	0.700
399.34	0.698
399.55	0.699
399.76	0.699
399.96	0.700
400.17	0.698
400.37	0.696
400.58	0.703
400.79	0.704
400.99	0.701
401.20	0.707
401.41	0.710
401.61	0.710
401.82	0.715
402.02	0.715
402.23	0.717
402.44	0.716
402.64	0.716
402.85	0.711
403.05	0.710
403.26	0.708
403.47	0.702
403.67	0.700
403.88	0.701
404.08	0.695
404.29	0.693
404.50	0.692
404.70	0.692
404.91	0.692
405.11	0.688
405.32	0.688
405.52	0.689
405.73	0.689
405.94	0.686
406.14	0.688
406.35	0.691
406.55	0.690
406.76	0.688
406.97	0.689
407.17	0.691
407.38	0.691
407.58	0.689
407.79	0.692
407.99	0.695
408.20	0.696
408.41	0.692
408.61	0.690
408.82	0.691
409.02	0.690
409.23	0.687
409.43	0.686
409.64	0.688
409.84	0.688
410.05	0.684
410.26	0.682
410.46	0.682
410.67	0.681
410.87	0.683
411.08	0.685
411.28	0.686
411.49	0.688
411.69	0.685
411.90	0.686
412.11	0.687
412.31	0.688
412.52	0.686
412.72	0.688
412.93	0.689
413.13	0.687
413.34	0.683
413.54	0.685
413.75	0.687
413.95	0.686
414.16	0.683
414.37	0.686
414.57	0.686
414.78	0.689
414.98	0.686
415.19	0.688
415.39	0.685
415.60	0.688
415.80	0.687
416.01	0.685
416.21	0.687
416.42	0.687
416.62	0.682
416.83	0.682
417.03	0.682
417.24	0.682
417.44	0.680
417.65	0.679
417.86	0.679
418.06	0.677
418.27	0.674
418.47	0.676
418.68	0.677
418.88	0.678
419.09	0.676
419.29	0.676
419.50	0.677
419.70	0.677
419.91	0.676
420.11	0.674
420.32	0.677
420.52	0.677
420.73	0.675
420.93	0.676
421.14	0.677
421.34	0.676
421.55	0.673
421.75	0.673
421.96	0.674
422.16	0.674
422.37	0.673
422.57	0.670
422.78	0.672
422.98	0.669
423.19	0.666
423.39	0.665
423.60	0.669
423.80	0.670
424.01	0.668
424.21	0.671
424.42	0.673
424.62	0.673
424.83	0.672
425.03	0.672
425.23	0.674
425.44	0.675
425.64	0.675
425.85	0.673
426.05	0.675
426.26	0.675
426.46	0.672
426.67	0.670
426.87	0.675
427.08	0.676
427.28	0.673
427.49	0.674
427.69	0.675
427.90	0.674
428.10	0.671
428.31	0.671
428.51	0.673
428.71	0.672
428.92	0.673
429.12	0.671
429.33	0.672
429.53	0.676
429.74	0.680
429.94	0.680
430.15	0.679
430.35	0.680
430.56	0.676
430.76	0.676
430.96	0.676
431.17	0.674
431.37	0.671
431.58	0.668
431.78	0.665
431.99	0.659
432.19	0.661
432.40	0.662
432.60	0.664
432.80	0.666
433.01	0.664
433.21	0.665
433.42	0.668
433.62	0.668
433.83	0.668
434.03	0.671
434.23	0.674
434.44	0.672
434.64	0.670
434.85	0.675
435.05	0.676
435.26	0.676
435.46	0.675
435.66	0.674
435.87	0.674
436.07	0.674
436.28	0.669
436.48	0.667
436.69	0.667
436.89	0.667
437.09	0.661
437.30	0.660
437.50	0.661
437.71	0.673
437.91	0.672
438.11	0.674
438.32	0.678
438.52	0.679
438.73	0.677
438.93	0.676
439.13	0.675
439.34	0.679
439.54	0.676
439.75	0.676
439.95	0.666
440.15	0.670
440.36	0.668
440.56	0.666
440.77	0.667
440.97	0.667
441.17	0.666
441.38	0.667
441.58	0.664
441.79	0.664
441.99	0.662
442.19	0.662
442.40	0.659
442.60	0.660
442.81	0.657
443.01	0.657
443.21	0.658
443.42	0.658
443.62	0.656
443.82	0.656
444.03	0.658
444.23	0.658
444.44	0.658
444.64	0.657
444.84	0.658
445.05	0.658
445.25	0.656
445.45	0.656
445.66	0.659
445.86	0.658
446.06	0.659
446.27	0.659
446.47	0.663
446.68	0.661
446.88	0.661
447.08	0.660
447.29	0.662
447.49	0.663
447.69	0.662
447.90	0.661
448.10	0.665
448.30	0.662
448.51	0.663
448.71	0.661
448.91	0.663
449.12	0.662
449.32	0.664
449.52	0.662
449.73	0.666
449.93	0.665
450.14	0.666
450.34	0.666
450.54	0.669
450.75	0.666
450.95	0.665
451.15	0.664
451.36	0.667
451.56	0.664
451.76	0.663
451.97	0.660
452.17	0.661
452.37	0.659
452.58	0.655
452.78	0.655
452.98	0.658
453.19	0.658
453.39	0.658
453.59	0.657
453.79	0.658
454.00	0.658
454.20	0.657
454.40	0.658
454.61	0.660
454.81	0.661
455.01	0.659
455.22	0.659
455.42	0.661
455.62	0.660
455.83	0.659
456.03	0.662
456.23	0.663
456.44	0.664
456.64	0.663
456.84	0.663
457.04	0.663
457.25	0.662
457.45	0.659
457.65	0.657
457.86	0.659
458.06	0.658
458.26	0.653
458.47	0.652
458.67	0.654
458.87	0.654
459.07	0.652
459.28	0.653
459.48	0.656
459.68	0.656
459.89	0.655
460.09	0.654
460.29	0.656
460.49	0.657
460.70	0.656
460.90	0.656
461.10	0.657
461.31	0.657
461.51	0.654
461.71	0.655
461.91	0.657
462.12	0.657
462.32	0.656
462.52	0.657
462.72	0.660
462.93	0.660
463.13	0.657
463.33	0.658
463.53	0.660
463.74	0.659
463.94	0.655
464.14	0.655
464.35	0.657
464.55	0.657
464.75	0.655
464.95	0.653
465.16	0.655
465.36	0.654
465.56	0.653
465.76	0.652
465.97	0.653
466.17	0.654
466.37	0.651
466.57	0.652
466.78	0.654
466.98	0.654
467.18	0.651
467.38	0.650
467.59	0.652
467.79	0.654
467.99	0.653
468.19	0.654
468.39	0.657
468.60	0.657
468.80	0.655
469.00	0.657
469.20	0.658
469.41	0.658
469.61	0.658
469.81	0.658
470.01	0.658
470.22	0.658
470.42	0.656
470.62	0.654
470.82	0.655
471.02	0.654
471.23	0.651
471.43	0.652
471.63	0.655
471.83	0.654
472.04	0.652
472.24	0.651
472.44	0.656
472.64	0.655
472.84	0.654
473.05	0.653
473.25	0.657
473.45	0.656
473.65	0.653
473.85	0.654
474.06	0.656
474.26	0.655
474.46	0.657
474.66	0.653
474.86	0.655
475.07	0.654
475.27	0.652
475.47	0.649
475.67	0.650
475.87	0.653
476.08	0.649
476.28	0.650
476.48	0.652
476.68	0.650
476.88	0.648
477.09	0.649
477.29	0.651
477.49	0.652
477.69	0.651
477.89	0.651
478.09	0.650
478.30	0.652
478.50	0.649
478.70	0.649
478.90	0.649
479.10	0.652
479.31	0.652
479.51	0.650
479.71	0.651
479.91	0.651
480.11	0.650
480.31	0.651
480.52	0.650
480.72	0.649
480.92	0.648
481.12	0.647
481.32	0.644
481.52	0.642
481.72	0.643
481.93	0.646
482.13	0.646
482.33	0.646
482.53	0.643
482.73	0.644
482.93	0.645
483.14	0.644
483.34	0.643
483.54	0.644
483.74	0.643
483.94	0.642
484.14	0.638
484.34	0.639
484.55	0.640
484.75	0.640
484.95	0.638
485.15	0.637
485.35	0.638
485.55	0.637
485.75	0.636
485.96	0.636
486.16	0.638
486.36	0.637
486.56	0.635
486.76	0.635
486.96	0.636
487.16	0.635
487.36	0.634
487.57	0.633
487.77	0.635
487.97	0.635
488.17	0.633
488.37	0.632
488.57	0.633
488.77	0.634
488.97	0.632
489.18	0.632
489.38	0.635
489.58	0.636
489.78	0.635
489.98	0.634
490.18	0.634
490.38	0.635
490.58	0.633
490.78	0.633
490.98	0.636
491.19	0.636
491.39	0.635
491.59	0.634
491.79	0.636
491.99	0.637
492.19	0.636
492.39	0.640
492.59	0.640
492.79	0.642
492.99	0.642
493.20	0.642
493.40	0.642
493.60	0.644
493.80	0.642
494.00	0.640
494.20	0.640
494.40	0.640
494.60	0.637
494.80	0.642
495.00	0.641
495.20	0.639
495.40	0.638
495.61	0.640
495.81	0.639
496.01	0.643
496.21	0.644
496.41	0.643
496.61	0.643
496.81	0.642
497.01	0.637
497.21	0.637
497.41	0.638
497.61	0.637
497.81	0.635
498.01	0.635
498.21	0.633
498.41	0.631
498.61	0.631
498.82	0.633
499.02	0.635
499.22	0.635
499.42	0.635
499.62	0.636
499.82	0.637
500.02	0.638
500.22	0.637
500.42	0.639
500.62	0.640
500.82	0.640
501.02	0.638
501.22	0.638
501.42	0.638
501.62	0.640
501.82	0.639
502.02	0.639
502.22	0.639
502.42	0.641
502.62	0.638
502.82	0.638
503.02	0.639
503.22	0.639
503.42	0.636
503.63	0.636
503.83	0.635
504.03	0.633
504.23	0.632
504.43	0.632
504.63	0.633
504.83	0.633
505.03	0.631
505.23	0.633
505.43	0.635
505.63	0.636
505.83	0.635
506.03	0.637
506.23	0.640
506.43	0.640
506.63	0.639
506.83	0.638
507.03	0.640
507.23	0.640
507.43	0.638
507.63	0.638
507.83	0.639
508.03	0.639
508.23	0.638
508.43	0.637
508.63	0.638
508.83	0.639
509.03	0.640
509.23	0.638
509.43	0.640
509.63	0.640
509.83	0.639
510.03	0.641
510.23	0.643
510.43	0.644
510.63	0.645
510.83	0.645
511.03	0.646
511.23	0.644
511.43	0.643
511.63	0.645
511.83	0.648
512.03	0.647
512.22	0.644
512.42	0.644
512.62	0.644
512.82	0.644
513.02	0.643
513.22	0.643
513.42	0.645
513.62	0.648
513.82	0.645
514.02	0.644
514.22	0.646
514.42	0.647
514.62	0.646
514.82	0.647
515.02	0.649
515.22	0.653
515.42	0.651
515.62	0.653
515.82	0.652
516.02	0.654
516.22	0.653
516.42	0.655
516.62	0.656
516.82	0.658
517.01	0.655
517.21	0.654
517.41	0.658
517.61	0.658
517.81	0.655
518.01	0.654
518.21	0.654
518.41	0.653
518.61	0.652
518.81	0.652
519.01	0.653
519.21	0.654
519.41	0.653
519.61	0.648
519.81	0.650
520.00	0.651
520.20	0.651
520.40	0.654
520.60	0.655
520.80	0.654
521.00	0.654
521.20	0.655
521.40	0.660
521.60	0.660
521.80	0.658
522.00	0.658
522.20	0.661
522.39	0.660
522.59	0.657
522.79	0.659
522.99	0.661
523.19	0.660
523.39	0.657
523.59	0.655
523.79	0.659
523.99	0.661
524.19	0.659
524.38	0.658
524.58	0.660
524.78	0.660
524.98	0.657
525.18	0.660
525.38	0.661
525.58	0.662
525.78	0.659
525.98	0.657
526.18	0.657
526.37	0.657
526.57	0.659
526.77	0.660
526.97	0.661
527.17	0.661
527.37	0.656
527.57	0.659
527.77	0.661
527.96	0.661
528.16	0.660
528.36	0.661
528.56	0.663
528.76	0.660
528.96	0.659
529.16	0.660
529.36	0.664
529.55	0.664
529.75	0.660
529.95	0.661
530.15	0.662
530.35	0.665
530.55	0.662
530.75	0.663
530.94	0.664
531.14	0.665
531.34	0.662
531.54	0.659
531.74	0.663
531.94	0.666
532.13	0.664
532.33	0.666
532.53	0.665
532.73	0.665
532.93	0.663
533.13	0.664
533.33	0.664
533.52	0.665
533.72	0.668
533.92	0.666
534.12	0.664
534.32	0.665
534.52	0.663
534.71	0.664
534.91	0.667
535.11	0.669
535.31	0.667
535.51	0.669
535.71	0.671
535.90	0.668
536.10	0.669
536.30	0.671
536.50	0.671
536.70	0.672
536.89	0.669
537.09	0.669
537.29	0.670
537.49	0.671
537.69	0.669
537.89	0.670
538.08	0.669
538.28	0.667
538.48	0.668
538.68	0.670
538.88	0.672
539.07	0.671
539.27	0.670
539.47	0.669
539.67	0.669
539.87	0.671
540.06	0.668
540.26	0.669
540.46	0.672
540.66	0.669
540.86	0.666
541.05	0.666
541.25	0.668
541.45	0.668
541.65	0.667
541.84	0.669
542.04	0.670
542.24	0.671
542.44	0.670
542.64	0.670
542.83	0.673
543.03	0.674
543.23	0.670
543.43	0.671
543.62	0.672
543.82	0.672
544.02	0.670
544.22	0.670
544.42	0.673
544.61	0.673
544.81	0.670
545.01	0.669
545.21	0.671
545.40	0.672
545.60	0.670
545.80	0.674
546.00	0.674
546.19	0.674
546.39	0.672
546.59	0.670
546.79	0.672
546.98	0.673
547.18	0.672
547.38	0.673
547.58	0.676
547.77	0.676
547.97	0.672
548.17	0.674
548.37	0.675
548.56	0.676
548.76	0.675
548.96	0.677
549.16	0.680
549.35	0.679
549.55	0.677
549.75	0.677
549.95	0.680
550.14	0.681
550.34	0.679
550.54	0.684
550.73	0.688
550.93	0.688
551.13	0.684
551.33	0.683
551.52	0.683
551.72	0.684
551.92	0.682
552.12	0.682
552.31	0.683
552.51	0.683
552.71	0.677
552.90	0.677
553.10	0.678
553.30	0.678
553.50	0.677
553.69	0.678
553.89	0.679
554.09	0.679
554.28	0.676
554.48	0.678
554.68	0.680
554.87	0.681
555.07	0.677
555.27	0.678
555.47	0.680
555.66	0.681
555.86	0.680
556.06	0.682
556.25	0.683
556.45	0.691
556.65	0.689
556.84	0.692
557.04	0.695
557.24	0.697
557.43	0.696
557.63	0.699
557.83	0.700
558.02	0.700
558.22	0.704
558.42	0.705
558.61	0.698
558.81	0.698
559.01	0.694
559.21	0.695
559.40	0.696
559.60	0.696
559.80	0.691
559.99	0.693
560.19	0.695
560.39	0.688
560.58	0.686
560.78	0.687
560.97	0.690
561.17	0.688
561.37	0.685
561.56	0.686
561.76	0.688
561.96	0.688
562.15	0.685
562.35	0.688
562.55	0.690
562.74	0.689
562.94	0.687
563.14	0.685
563.33	0.686
563.53	0.686
563.73	0.683
563.92	0.685
564.12	0.688
564.31	0.690
564.51	0.688
564.71	0.689
564.90	0.693
565.10	0.694
565.30	0.697
565.49	0.697
565.69	0.700
565.89	0.701
566.08	0.697
566.28	0.699
566.47	0.701
566.67	0.698
566.87	0.695
567.06	0.697
567.26	0.704
567.46	0.700
567.65	0.699
567.85	0.700
568.04	0.703
568.24	0.702
568.44	0.699
568.63	0.697
568.83	0.699
569.02	0.698
569.22	0.692
569.42	0.687
569.61	0.690
569.81	0.689
570.00	0.687
570.20	0.688
570.40	0.689
570.59	0.689
570.79	0.687
570.98	0.685
571.18	0.686
571.38	0.687
571.57	0.684
571.77	0.681
571.96	0.685
572.16	0.682
572.35	0.677
572.55	0.677
572.75	0.676
572.94	0.676
573.14	0.674
573.33	0.674
573.53	0.675
573.73	0.674
573.92	0.672
574.12	0.669
574.31	0.673
574.51	0.673
574.70	0.670
574.90	0.672
575.09	0.674
575.29	0.674
575.49	0.671
575.68	0.672
575.88	0.674
576.07	0.675
576.27	0.673
576.46	0.672
576.66	0.671
576.86	0.670
577.05	0.668
577.25	0.666
577.44	0.668
577.64	0.668
577.83	0.666
578.03	0.667
578.22	0.666
578.42	0.665
578.61	0.663
578.81	0.665
579.00	0.665
579.20	0.665
579.40	0.664
579.59	0.662
579.79	0.663
579.98	0.663
580.18	0.662
580.37	0.662
580.57	0.665
580.76	0.669
580.96	0.667
581.15	0.668
581.35	0.670
581.54	0.669
581.74	0.668
581.93	0.670
582.13	0.671
582.32	0.668
582.52	0.666
582.71	0.666
582.91	0.662
583.10	0.661
583.30	0.660
583.49	0.659
583.69	0.663
583.88	0.664
584.08	0.663
584.27	0.665
584.47	0.669
584.66	0.669
584.86	0.668
585.05	0.670
585.25	0.673
585.44	0.673
585.64	0.671
585.83	0.669
586.03	0.670
586.22	0.668
586.42	0.665
586.61	0.667
586.81	0.669
587.00	0.670
587.20	0.667
587.39	0.668
587.59	0.670
587.78	0.672
587.98	0.672
588.17	0.673
588.37	0.675
588.56	0.677
588.76	0.673
588.95	0.673
589.15	0.677
589.34	0.680
589.54	0.678
589.73	0.679
589.92	0.682
590.12	0.681
590.31	0.678
590.51	0.683
590.70	0.685
590.90	0.685
591.09	0.682
591.29	0.680
591.48	0.680
591.68	0.681
591.87	0.679
592.06	0.678
592.26	0.681
592.45	0.681
592.65	0.675
592.84	0.674
593.04	0.678
593.23	0.680
593.43	0.677
593.62	0.677
593.81	0.678
594.01	0.677
594.20	0.675
594.40	0.674
594.59	0.677
594.79	0.678
594.98	0.676
595.17	0.675
595.37	0.676
595.56	0.678
595.76	0.677
595.95	0.679
596.14	0.682
596.34	0.684
596.53	0.682
596.73	0.683
596.92	0.684
597.12	0.687
597.31	0.686
597.50	0.685
597.70	0.687
597.89	0.686
598.09	0.681
598.28	0.683
598.47	0.685
598.67	0.684
598.86	0.680
599.06	0.682
599.25	0.683
599.44	0.681
599.64	0.678
599.83	0.676
600.03	0.679
600.22	0.680
600.41	0.680
600.61	0.677
600.80	0.681
601.00	0.681
601.19	0.677
601.38	0.675
601.58	0.678
601.77	0.679
601.96	0.680
602.16	0.680
602.35	0.689
602.55	0.687
602.74	0.688
602.93	0.689
603.13	0.695
603.32	0.696
603.51	0.695
603.71	0.698
603.90	0.701
604.09	0.701
604.29	0.698
604.48	0.692
604.68	0.694
604.87	0.693
605.06	0.689
605.26	0.685
605.45	0.687
605.64	0.686
605.84	0.681
606.03	0.680
606.22	0.680
606.42	0.679
606.61	0.676
606.80	0.676
607.00	0.677
607.19	0.678
607.38	0.677
607.58	0.678
607.77	0.681
607.96	0.681
608.16	0.680
608.35	0.685
608.54	0.688
608.74	0.691
608.93	0.696
609.12	0.700
609.32	0.702
609.51	0.705
609.70	0.703
609.90	0.705
610.09	0.710
610.28	0.716
610.48	0.708
610.67	0.710
610.86	0.711
611.06	0.704
611.25	0.701
611.44	0.703
611.64	0.703
611.83	0.705
612.02	0.701
612.21	0.699
612.41	0.697
612.60	0.697
612.79	0.692
612.99	0.692
613.18	0.695
613.37	0.693
613.57	0.689
613.76	0.692
613.95	0.690
614.14	0.690
614.34	0.687
614.53	0.688
614.72	0.692
614.92	0.692
615.11	0.689
615.30	0.686
615.49	0.688
615.69	0.691
615.88	0.687
616.07	0.688
616.26	0.691
616.46	0.692
616.65	0.689
616.84	0.688
617.04	0.689
617.23	0.693
617.42	0.693
617.61	0.697
617.81	0.698
618.00	0.699
618.19	0.696
618.38	0.700
618.58	0.704
618.77	0.705
618.96	0.704
619.15	0.707
619.35	0.709
619.54	0.710
619.73	0.705
619.92	0.707
620.12	0.712
620.31	0.713
620.50	0.707
620.69	0.708
620.89	0.712
621.08	0.712
621.27	0.711
621.46	0.710
621.66	0.715
621.85	0.714
622.04	0.710
622.23	0.710
622.43	0.711
622.62	0.711
622.81	0.709
623.00	0.707
623.19	0.711
623.39	0.710
623.58	0.706
623.77	0.704
623.96	0.708
624.16	0.708
624.35	0.703
624.54	0.706
624.73	0.710
624.92	0.709
625.12	0.707
625.31	0.708
625.50	0.711
625.69	0.713
625.88	0.709
626.08	0.709
626.27	0.711
626.46	0.712
626.65	0.708
626.84	0.708
627.04	0.713
627.23	0.713
627.42	0.708
627.61	0.710
627.80	0.713
628.00	0.713
628.19	0.711
628.38	0.714
628.57	0.717
628.76	0.716
628.96	0.713
629.15	0.713
629.34	0.717
629.53	0.717
629.72	0.712
629.91	0.712
630.11	0.717
630.30	0.718
630.49	0.720
630.68	0.721
630.87	0.726
631.06	0.728
631.26	0.722
631.45	0.725
631.64	0.734
631.83	0.737
632.02	0.733
632.21	0.732
632.41	0.741
632.60	0.736
632.79	0.734
632.98	0.733
633.17	0.736
633.36	0.737
633.55	0.732
633.75	0.727
633.94	0.729
634.13	0.730
634.32	0.726
634.51	0.719
634.70	0.721
634.89	0.721
635.09	0.717
635.28	0.717
635.47	0.718
635.66	0.721
635.85	0.716
636.04	0.717
636.23	0.722
636.43	0.724
636.62	0.723
636.81	0.723
637.00	0.726
637.19	0.729
637.38	0.725
637.57	0.726
637.76	0.727
637.95	0.729
638.15	0.726
638.34	0.723
638.53	0.727
638.72	0.728
638.91	0.724
639.10	0.721
639.29	0.723
639.48	0.724
639.67	0.723
639.87	0.721
640.06	0.727
640.25	0.725
640.44	0.726
640.63	0.725
640.82	0.728
641.01	0.728
641.20	0.728
641.39	0.729
641.58	0.732
641.78	0.731
641.97	0.727
642.16	0.741
642.35	0.744
642.54	0.743
642.73	0.737
642.92	0.735
643.11	0.740
643.30	0.740
643.49	0.734
643.68	0.736
643.87	0.738
644.06	0.738
644.25	0.718
644.45	0.720
644.64	0.722
644.83	0.723
645.02	0.719
645.21	0.718
645.40	0.720
645.59	0.721
645.78	0.714
645.97	0.716
646.16	0.718
646.35	0.718
646.54	0.714
646.73	0.715
646.92	0.717
647.11	0.717
647.30	0.712
647.49	0.714
647.68	0.714
647.88	0.713
648.07	0.705
648.26	0.708
648.45	0.710
648.64	0.707
648.83	0.704
649.02	0.706
649.21	0.717
649.40	0.716
649.59	0.710
649.78	0.710
649.97	0.727
650.16	0.726
650.35	0.720
650.54	0.723
650.73	0.732
650.92	0.728
651.11	0.721
651.30	0.718
651.49	0.723
651.68	0.725
651.87	0.721
652.06	0.710
652.25	0.713
652.44	0.715
652.63	0.710
652.82	0.709
653.01	0.709
653.20	0.705
653.39	0.692
653.58	0.690
653.77	0.689
653.96	0.684
654.15	0.676
654.34	0.673
654.53	0.669
654.72	0.664
654.91	0.654
655.10	0.651
655.29	0.649
655.48	0.648
655.67	0.642
655.86	0.640
656.05	0.639
656.24	0.638
656.43	0.633
656.62	0.632
656.81	0.633
657.00	0.632
657.19	0.629
657.38	0.631
657.57	0.631
657.76	0.633
657.95	0.630
658.14	0.634
658.33	0.638
658.51	0.643
658.70	0.644
658.89	0.645
659.08	0.653
659.27	0.660
659.46	0.660
659.65	0.666
659.84	0.670
660.03	0.674
660.22	0.674
660.41	0.678
660.60	0.679
660.79	0.680
660.98	0.686
661.17	0.685
661.36	0.684
661.55	0.685
661.74	0.682
661.92	0.685
662.11	0.688
662.30	0.687
662.49	0.680
662.68	0.678
662.87	0.682
663.06	0.676
663.25	0.677
663.44	0.677
663.63	0.679
663.82	0.678
664.01	0.672
664.20	0.670
664.38	0.672
664.57	0.672
664.76	0.672
664.95	0.672
665.14	0.677
665.33	0.671
665.52	0.678
665.71	0.682
665.90	0.682
666.09	0.684
666.28	0.682
666.46	0.682
666.65	0.682
666.84	0.680
667.03	0.674
667.22	0.672
667.41	0.675
667.60	0.665
667.79	0.657
667.98	0.658
668.16	0.660
668.35	0.660
668.54	0.654
668.73	0.654
668.92	0.656
669.11	0.655
669.30	0.649
669.49	0.645
669.67	0.647
669.86	0.650
670.05	0.647
670.24	0.644
670.43	0.642
670.62	0.642
670.81	0.637
671.00	0.638
671.18	0.637
671.37	0.637
671.56	0.635
671.75	0.634
671.94	0.631
672.13	0.628
672.32	0.624
672.50	0.623
672.69	0.623
672.88	0.624
673.07	0.619
673.26	0.622
673.45	0.624
673.63	0.623
673.82	0.620
674.01	0.622
674.20	0.622
674.39	0.622
674.58	0.620
674.76	0.620
674.95	0.619
675.14	0.619
675.33	0.613
675.52	0.611
675.71	0.611
675.89	0.609
676.08	0.604
676.27	0.604
676.46	0.605
676.65	0.605
676.84	0.604
677.02	0.606
677.21	0.609
677.40	0.608
677.59	0.606
677.78	0.608
677.96	0.611
678.15	0.610
678.34	0.608
678.53	0.609
678.72	0.609
678.90	0.607
679.09	0.602
679.28	0.599
679.47	0.599
679.66	0.598
679.84	0.594
680.03	0.591
680.22	0.591
680.41	0.592
680.60	0.587
680.78	0.586
680.97	0.589
681.16	0.589
681.35	0.588
681.53	0.587
681.72	0.588
681.91	0.591
682.10	0.589
682.29	0.592
682.47	0.590
682.66	0.590
682.85	0.589
683.04	0.586
683.22	0.587
683.41	0.588
683.60	0.586
683.79	0.587
683.97	0.586
684.16	0.585
684.35	0.580
684.54	0.582
684.72	0.582
684.91	0.582
685.10	0.581
685.29	0.582
685.47	0.579
685.66	0.578
685.85	0.574
686.04	0.574
686.22	0.577
686.41	0.580
686.60	0.577
686.79	0.580
686.97	0.581
687.16	0.582
687.35	0.579
687.54	0.583
687.72	0.587
687.91	0.587
688.10	0.588
688.29	0.588
688.47	0.586
688.66	0.586
688.85	0.581
689.03	0.578
689.22	0.583
689.41	0.584
689.60	0.579
689.78	0.577
689.97	0.578
690.16	0.575
690.34	0.571
690.53	0.570
690.72	0.571
690.91	0.569
691.09	0.567
691.28	0.561
691.47	0.559
691.65	0.558
691.84	0.555
692.03	0.554
692.21	0.552
692.40	0.552
692.59	0.549
692.77	0.548
692.96	0.550
693.15	0.550
693.34	0.547
693.52	0.547
693.71	0.548
693.90	0.550
694.08	0.550
694.27	0.552
694.46	0.562
694.64	0.563
694.83	0.562
695.02	0.561
695.20	0.561
695.39	0.561
695.58	0.561
695.76	0.562
695.95	0.561
696.14	0.560
696.32	0.558
696.51	0.547
696.70	0.547
696.88	0.549
697.07	0.548
697.26	0.549
697.44	0.550
697.63	0.549
697.81	0.546
698.00	0.546
698.19	0.545
698.37	0.545
698.56	0.545
698.75	0.545
698.93	0.545
699.12	0.544
699.31	0.543
699.49	0.543
699.68	0.544
699.87	0.547
700.05	0.547
700.24	0.546
700.42	0.547
700.61	0.546
700.80	0.544
700.98	0.544
701.17	0.547
701.36	0.546
701.54	0.544
701.73	0.546
701.91	0.544
702.10	0.543
702.29	0.541
702.47	0.540
702.66	0.541
702.84	0.542
703.03	0.540
703.22	0.541
703.40	0.541
703.59	0.542
703.77	0.541
703.96	0.541
704.15	0.542
704.33	0.542
704.52	0.541
704.70	0.541
704.89	0.542
705.08	0.541
705.26	0.536
705.45	0.536
705.63	0.536
705.82	0.532
706.00	0.532
706.19	0.531
706.38	0.530
706.56	0.530
706.75	0.527
706.93	0.526
707.12	0.527
707.30	0.528
707.49	0.525
707.68	0.523
707.86	0.524
708.05	0.523
708.23	0.521
708.42	0.522
708.60	0.525
708.79	0.525
708.98	0.523
709.16	0.523
709.35	0.525
709.53	0.529
709.72	0.528
709.90	0.529
710.09	0.532
710.27	0.534
710.46	0.537
710.64	0.535
710.83	0.538
711.02	0.539
711.20	0.537
711.39	0.535
711.57	0.534
711.76	0.534
711.94	0.532
712.13	0.532
712.31	0.532
712.50	0.528
712.68	0.524
712.87	0.525
713.05	0.526
713.24	0.526
713.42	0.526
713.61	0.527
713.79	0.528
713.98	0.528
714.16	0.528
714.35	0.527
714.54	0.529
714.72	0.529
714.91	0.526
715.09	0.532
715.28	0.536
715.46	0.535
715.65	0.532
715.83	0.532
716.02	0.534
716.20	0.531
716.39	0.530
716.57	0.531
716.76	0.533
716.94	0.533
717.12	0.525
717.31	0.526
717.49	0.529
717.68	0.532
717.86	0.532
718.05	0.534
718.23	0.537
718.42	0.540
718.60	0.541
718.79	0.550
718.97	0.553
719.16	0.554
719.34	0.552
719.53	0.552
719.71	0.552
719.90	0.553
720.08	0.550
720.27	0.550
720.45	0.550
720.63	0.549
720.82	0.542
721.00	0.545
721.19	0.549
721.37	0.548
721.56	0.548
721.74	0.551
721.93	0.559
722.11	0.568
722.30	0.567
722.48	0.571
722.66	0.572
722.85	0.572
723.03	0.572
723.22	0.570
723.40	0.573
723.59	0.573
723.77	0.577
723.95	0.571
724.14	0.572
724.32	0.573
724.51	0.571
724.69	0.574
724.88	0.575
725.06	0.573
725.24	0.573
725.43	0.575
725.61	0.578
725.80	0.571
725.98	0.568
726.16	0.565
726.35	0.573
726.53	0.572
726.72	0.570
726.90	0.581
727.09	0.582
727.27	0.588
727.45	0.584
727.64	0.594
727.82	0.604
728.01	0.608
728.19	0.604
728.37	0.609
728.56	0.614
728.74	0.620
728.92	0.606
729.11	0.610
729.29	0.609
729.48	0.611
729.66	0.599
729.84	0.599
730.03	0.603
730.21	0.606
730.40	0.596
730.58	0.597
730.76	0.598
730.95	0.601
731.13	0.599
731.31	0.612
731.50	0.624
731.68	0.626
731.86	0.621
732.05	0.637
732.23	0.640
732.42	0.644
732.60	0.647
732.78	0.652
732.97	0.673
733.15	0.680
733.33	0.669
733.52	0.674
733.70	0.687
733.88	0.697
734.07	0.681
734.25	0.711
734.43	0.722
734.62	0.727
734.80	0.720
734.98	0.707
735.17	0.716
735.35	0.723
735.53	0.712
735.72	0.716
735.90	0.741
736.08	0.760
736.27	0.733
736.45	0.742
736.63	0.756
736.82	0.767
737.00	0.768
737.18	0.777
737.37	0.812
737.55	0.838
737.73	0.832
737.92	0.838
738.10	0.839
738.28	0.862
738.46	0.847
738.65	0.861
738.83	0.887
739.01	0.949
739.20	0.937
739.38	0.919
739.56	0.909
739.75	0.916
739.93	0.875
740.11	0.900
740.29	0.904
740.48	0.915
740.66	0.890
740.84	0.885
741.03	0.848
741.21	0.864
741.39	0.843
741.57	0.856
741.76	0.876
741.94	0.881
742.12	0.841
742.31	0.848
742.49	0.875
742.67	0.900
742.85	0.914
743.04	0.916
743.22	0.930
743.40	0.990
743.58	0.965
743.77	0.985
743.95	1.029
744.13	1.098
744.31	1.067
744.50	1.052
744.68	1.059
744.86	1.029
745.04	1.043
745.23	1.125
745.41	1.105
745.59	1.123
745.77	1.078
745.96	1.058
746.14	1.072
746.32	1.070
746.50	1.060
746.69	1.039
746.87	1.053
747.05	1.033
747.23	0.941
747.42	0.926
747.60	0.957
747.78	0.958
747.96	0.996
748.14	0.941
748.33	0.974
748.51	0.967
748.69	0.952
748.87	0.989
749.06	0.991
749.24	0.991
749.42	0.971
749.60	0.948
749.78	0.964
749.97	0.906
750.15	0.899
750.33	0.906
750.51	0.940
750.69	0.945
750.88	0.944
751.06	0.953
751.24	0.988
751.42	0.983
751.60	0.971
751.79	1.061
751.97	1.137
752.15	1.129
752.33	1.076
752.51	1.165
752.69	1.200
752.88	1.148
753.06	1.217
753.24	1.182
753.42	1.229
753.60	1.493
753.78	1.246
753.97	1.256
754.15	1.295
754.33	1.332
754.51	1.139
754.69	1.117
754.87	1.166
755.06	1.068
755.24	1.060
755.42	1.067
755.60	0.954
755.78	0.965
755.96	0.902
756.15	0.902
756.33	0.917
756.51	0.937
756.69	0.919
756.87	0.879
757.05	0.905
757.23	0.887
757.42	0.850
757.60	0.851
757.78	0.840
757.96	0.842
758.14	0.818
758.32	0.797
758.50	0.814
758.69	0.814
758.87	0.802
759.05	0.804
759.23	0.820
759.41	0.819
759.59	0.808
759.77	0.830
759.95	0.859
760.13	0.918
760.32	0.919
760.50	0.913
760.68	0.940
760.86	0.945
761.04	0.914
761.22	0.919
761.40	0.981
761.58	0.980
761.76	0.944
761.95	0.922
762.13	0.874
762.31	0.873
762.49	0.839
762.67	0.857
762.85	0.878
763.03	0.869
763.21	0.843
763.39	0.822
763.57	0.830
763.75	0.826
763.94	0.809
764.12	0.807
764.30	0.833
764.48	0.835
764.66	0.791
764.84	0.787
765.02	0.831
765.20	0.838
765.38	0.812
765.56	0.814
765.74	0.860
765.92	0.864
766.10	0.874
766.28	0.867
766.46	0.903
766.65	0.907
766.83	0.891
767.01	0.873
767.19	0.884
767.37	0.889
767.55	0.874
767.73	0.852
767.91	0.851
768.09	0.839
768.27	0.823
768.45	0.815
768.63	0.821
768.81	0.820
768.99	0.789
769.17	0.816
769.35	0.832
769.53	0.830
769.71	0.807
769.89	0.821
770.07	0.826
770.25	0.809
770.43	0.781
770.61	0.811
770.79	0.823
770.97	0.835
771.15	0.797
771.33	0.802
771.51	0.807
771.69	0.819
771.87	0.822
772.05	0.829
772.24	0.843
772.42	0.854
772.60	0.826
772.78	0.895
772.96	0.927
773.14	0.924
773.32	0.892
773.49	0.900
773.67	0.897
773.85	0.874
774.03	0.860
774.21	0.896
774.39	0.911
774.57	0.933
774.75	0.845
774.93	0.842
775.11	0.870
775.29	0.880
775.47	0.877
775.65	0.892
775.83	0.919
776.01	0.945
776.19	0.884
776.37	0.885
776.55	0.886
776.73	0.883
776.91	0.876
777.09	0.857
777.27	0.857
777.45	0.844
777.63	0.818
777.81	0.812
777.99	0.799
778.17	0.799
778.35	0.772
778.53	0.765
778.71	0.773
778.89	0.758
779.07	0.743
779.24	0.749
779.42	0.752
779.60	0.768
779.78	0.763
779.96	0.769
780.14	0.780
780.32	0.802
780.50	0.780
780.68	0.778
780.86	0.769
781.04	0.789
781.22	0.791
781.40	0.805
781.58	0.799
781.75	0.789
781.93	0.769
782.11	0.769
782.29	0.756
782.47	0.753
782.65	0.739
782.83	0.772
783.01	0.770
783.19	0.759
783.37	0.743
783.55	0.746
783.72	0.769
783.90	0.781
784.08	0.769
784.26	0.782
784.44	0.807
784.62	0.811
784.80	0.767
784.98	0.771
785.16	0.781
785.33	0.798
785.51	0.780
785.69	0.764
785.87	0.764
786.05	0.777
786.23	0.769
786.41	0.766
786.59	0.773
786.77	0.773
786.94	0.756
787.12	0.758
787.30	0.759
787.48	0.754
787.66	0.740
787.84	0.738
788.02	0.727
788.19	0.726
788.37	0.709
788.55	0.711
788.73	0.715
788.91	0.708
789.09	0.691
789.27	0.680
789.44	0.694
789.62	0.701
789.80	0.711
789.98	0.739
790.16	0.727
790.34	0.724
790.51	0.710
790.69	0.730
790.87	0.740
791.05	0.737
791.23	0.730
791.41	0.731
791.58	0.741
791.76	0.718
791.94	0.684
792.12	0.694
792.30	0.697
792.48	0.693
792.65	0.687
792.83	0.693
793.01	0.702
793.19	0.699
793.37	0.680
793.54	0.676
793.72	0.688
793.90	0.686
794.08	0.673
794.26	0.675
794.43	0.686
794.61	0.669
794.79	0.658
794.97	0.657
795.15	0.665
795.32	0.669
795.50	0.658
795.68	0.652
795.86	0.659
796.04	0.661
796.21	0.653
796.39	0.652
796.57	0.669
796.75	0.675
796.92	0.674
797.10	0.680
797.28	0.685
797.46	0.689
797.64	0.688
797.81	0.695
797.99	0.699
798.17	0.704
798.35	0.696
798.52	0.698
798.70	0.695
798.88	0.707
799.06	0.704
799.23	0.705
799.41	0.714
799.59	0.709
799.77	0.696
799.94	0.706
800.12	0.719
800.30	0.737
800.48	0.733
800.65	0.733
800.83	0.721
801.01	0.713
801.19	0.711
801.36	0.710
801.54	0.714
801.72	0.726
801.90	0.710
802.07	0.704
802.25	0.692
802.43	0.675
802.60	0.672
802.78	0.681
802.96	0.684
803.14	0.678
803.31	0.673
803.49	0.673
803.67	0.671
803.84	0.674
804.02	0.665
804.20	0.667
804.38	0.674
804.55	0.670
804.73	0.653
804.91	0.655
805.08	0.670
805.26	0.663
805.44	0.725
805.61	0.730
805.79	0.731
805.97	0.729
806.15	0.722
806.32	0.716
806.50	0.728
806.68	0.726
806.85	0.715
807.03	0.702
807.21	0.722
807.38	0.657
807.56	0.644
807.74	0.655
807.91	0.665
808.09	0.664
808.27	0.682
808.44	0.707
808.62	0.720
808.80	0.723
808.97	0.720
809.15	0.713
809.33	0.731
809.50	0.737
809.68	0.719
809.86	0.727
810.03	0.764
810.21	0.740
810.39	0.718
810.56	0.725
810.74	0.752
810.91	0.828
811.09	0.816
811.27	0.839
811.44	0.847
811.62	0.848
811.80	0.827
811.97	0.796
812.15	0.800
812.33	0.798
812.50	0.782
812.68	0.770
812.85	0.713
813.03	0.714
813.21	0.679
813.38	0.673
813.56	0.677
813.74	0.688
813.91	0.694
814.09	0.726
814.26	0.719
814.44	0.719
814.62	0.707
814.79	0.709
814.97	0.716
815.14	0.720
815.32	0.725
815.50	0.744
815.67	0.751
815.85	0.740
816.02	0.726
816.20	0.735
816.38	0.755
816.55	0.760
816.73	0.760
816.90	0.771
817.08	0.807
817.26	0.814
817.43	0.790
817.61	0.816
817.78	0.843
817.96	0.819
818.13	0.803
818.31	0.805
818.49	0.823
818.66	0.812
818.84	0.793
819.01	0.772
819.19	0.780
819.36	0.784
819.54	0.749
819.71	0.797
819.89	0.816
820.07	0.833
820.24	0.823
820.42	0.823
820.59	0.849
820.77	0.879
820.94	0.862
821.12	0.884
821.29	0.905
821.47	0.905
821.64	0.826
821.82	0.844
822.00	0.849
822.17	0.845
822.35	0.835
822.52	0.834
822.70	0.823
822.87	0.838
823.05	0.812
823.22	0.827
823.40	0.865
823.57	0.892
823.75	0.864
823.92	0.889
824.10	0.921
824.27	0.973
824.45	0.961
824.62	1.047
824.80	1.074
824.97	1.098
825.15	1.074
825.32	1.091
825.50	1.099
825.67	1.123
825.85	1.099
826.02	1.127
826.20	1.172
826.37	1.406
826.55	1.246
826.72	1.689
826.90	2.037
827.07	3.129
827.25	2.152
827.42	-0.000
827.60	-0.000
827.77	-0.000
827.95	-0.000
828.12	-0.000
828.30	-0.000
828.47	-0.000
828.65	2.093
828.82	-0.000
829.00	-0.000
829.17	-0.000
829.34	-0.000
829.52	-0.000
829.69	-0.000
829.87	-0.000
830.04	-0.000
830.22	-0.000
830.39	-0.000
830.57	-0.000
830.74	-0.000
830.92	-0.000
831.09	-0.000
831.26	-0.000
831.44	-0.000
831.61	-0.000
831.79	-0.000
831.96	-0.000
832.14	-0.000
832.31	-0.000
832.49	-0.000
832.66	-0.000
832.83	-0.000
833.01	-0.000
833.18	-0.000
833.36	-0.000
833.53	-0.000
833.70	-0.000
833.88	-0.000
834.05	-0.000
834.23	-0.000
834.40	-0.000
834.58	-0.000
834.75	-0.000
834.92	-0.000
835.10	-0.000
835.27	-0.000
835.45	-0.000
835.62	-0.000
835.79	-0.000
835.97	-0.000
836.14	-0.000
836.32	-0.000
836.49	-0.000
836.66	-0.000
836.84	-0.000
837.01	-0.000
837.18	-0.000
837.36	-0.000
837.53	-0.000
837.71	-0.000
837.88	-0.000
838.05	-0.000
838.23	-0.000
838.40	-0.000
838.58	-0.000
838.75	-0.000
838.92	-0.000
839.10	-0.000
839.27	-0.000
839.44	-0.000
839.62	-0.000
839.79	-0.000
839.96	-0.000
840.14	-0.000
840.31	-0.000
840.48	-0.000
840.66	-0.000
840.83	-0.000
841.01	-0.000
841.18	-0.000
841.35	-0.000
841.53	-0.000
841.70	-0.000
841.87	-0.000
842.05	-0.000
842.22	-0.000
842.39	-0.000
842.57	-0.000
842.74	-0.000
842.91	-0.000
843.09	-0.000
843.26	-0.000
843.43	-0.000
843.60	-0.000
843.78	-0.000
843.95	-0.000
844.12	-0.000
844.30	-0.000
844.47	-0.000
844.64	-0.000
844.82	-0.000
844.99	-0.000
845.16	-0.000
845.34	-0.000
845.51	-0.000
845.68	-0.000
845.85	-0.000
846.03	-0.000
846.20	-0.000
846.37	-0.000
846.55	-0.000
846.72	-0.000
846.89	-0.000
847.06	-0.000
847.24	-0.000
847.41	-0.000
847.58	-0.000
847.76	-0.000
847.93	-0.000
848.10	-0.000
848.27	-0.000
848.45	-0.000
848.62	-0.000
848.79	-0.000
848.97	-0.000
849.14	-0.000
849.31	-0.000
849.48	-0.000
849.66	-0.000
849.83	-0.000
850.00	-0.000
850.17	-0.000
850.35	-0.000
850.52	-0.000
850.69	-0.000
850.86	-0.000
851.04	-0.000
851.21	-0.000
851.38	-0.000
851.55	-0.000
851.72	-0.000
851.90	-0.000
852.07	-0.000
852.24	-0.000
852.41	-0.000
852.59	-0.000
852.76	-0.000
852.93	-0.000
853.10	-0.000
853.28	-0.000
853.45	-0.000
853.62	-0.000
853.79	-0.000
853.96	-0.000
854.14	-0.000
854.31	-0.000
854.48	-0.000
854.65	-0.000
854.82	-0.000
855.00	-0.000
855.17	-0.000
855.34	-0.000
855.51	-0.000
855.68	-0.000
855.86	-0.000
856.03	-0.000
856.20	-0.000
856.37	-0.000
856.54	-0.000
856.72	-0.000
856.89	-0.000
857.06	-0.000
857.23	-0.000
857.40	-0.000
857.57	-0.000
857.75	-0.000
857.92	-0.000
858.09	-0.000
858.26	-0.000
858.43	-0.000
858.60	-0.000
858.78	-0.000
858.95	-0.000
859.12	-0.000
859.29	-0.000
859.46	-0.000
859.63	-0.000
859.81	-0.000
859.98	-0.000
860.15	-0.000
860.32	-0.000
860.49	-0.000
860.66	-0.000
860.83	-0.000
861.01	-0.000
861.18	-0.000
861.35	-0.000
861.52	-0.000
861.69	-0.000
861.86	-0.000
862.03	-0.000
862.21	-0.000
862.38	-0.000
862.55	-0.000
862.72	-0.000
862.89	-0.000
863.06	-0.000
863.23	-0.000
863.40	-0.000
863.58	-0.000
863.75	-0.000
863.92	-0.000
864.09	-0.000
864.26	-0.000
864.43	-0.000
864.60	-0.000
864.77	-0.000
864.94	-0.000
865.11	-0.000
865.29	-0.000
865.46	-0.000
865.63	-0.000
865.80	-0.000
865.97	-0.000
866.14	-0.000
866.31	-0.000
866.48	-0.000
866.65	-0.000
866.82	-0.000
866.99	-0.000
867.16	-0.000
867.34	-0.000
867.51	-0.000
867.68	-0.000
867.85	-0.000
868.02	-0.000
868.19	-0.000
868.36	-0.000
868.53	-0.000
868.70	-0.000
868.87	-0.000
869.04	-0.000
869.21	-0.000
869.38	-0.000
869.55	-0.000
869.72	-0.000
869.89	-0.000
870.06	-0.000
870.24	-0.000
870.41	-0.000
870.58	-0.000
870.75	-0.000
870.92	-0.000
871.09	-0.000
871.26	-0.000
871.43	-0.000
871.60	-0.000
871.77	-0.000
871.94	-0.000
872.11	-0.000
872.28	-0.000
872.45	-0.000
872.62	-0.000
872.79	-0.000
872.96	-0.000
873.13	-0.000
873.30	-0.000
873.47	-0.000
873.64	-0.000
873.81	-0.000
873.98	-0.000
874.15	-0.000
874.32	-0.000
874.49	-0.000
874.66	-0.000
874.83	-0.000
875.00	-0.000
875.17	-0.000
875.34	-0.000
875.51	-0.000
875.68	-0.000
875.85	-0.000
876.02	-0.000
876.19	-0.000
876.36	-0.000
876.53	-0.000
876.70	-0.000
876.87	-0.000
877.04	-0.000
877.21	-0.000
877.38	-0.000
877.55	-0.000
877.72	-0.000
877.89	-0.000
878.06	-0.000
878.23	-0.000
878.39	-0.000
878.56	-0.000
878.73	-0.000
878.90	-0.000
879.07	-0.000
879.24	-0.000
879.41	-0.000
879.58	-0.000
879.75	-0.000
879.92	-0.000
880.09	-0.000
880.26	-0.000
880.43	-0.000
880.60	-0.000
880.77	-0.000
880.94	-0.000
881.11	-0.000
881.27	-0.000
881.44	-0.000
881.61	-0.000
881.78	-0.000
881.95	-0.000
882.12	-0.000
882.29	-0.000
882.46	-0.000
882.63	-0.000
882.80	-0.000
882.97	-0.000
883.14	-0.000
883.30	-0.000
883.47	-0.000
883.64	-0.000
883.81	-0.000
883.98	-0.000
884.15	-0.000
884.32	-0.000
884.49	-0.000
884.66	-0.000
884.82	-0.000
884.99	-0.000
885.16	-0.000
885.33	-0.000
885.50	-0.000
885.67	-0.000
885.84	-0.000
886.01	-0.000
886.17	-0.000
886.34	-0.000
886.51	-0.000
886.68	-0.000
886.85	-0.000
887.02	-0.000
887.19	-0.000
887.36	-0.000
887.52	-0.000
887.69	-0.000
887.86	-0.000
888.03	-0.000
888.20	-0.000
888.37	-0.000
888.54	-0.000
888.70	-0.000
888.87	-0.000
889.04	-0.000
889.21	-0.000
889.38	-0.000
889.55	-0.000
889.71	-0.000
889.88	-0.000
890.05	-0.000
890.22	-0.000
890.39	-0.000
>>>>>End Processed Spectral Data<<<<<
