SpectraSuite Data File
++++++++++++++++++++++++++++++++++++
Date: Fri Jun 19 14:32:29 CEST 2015
User: introlabs
Dark Spectrum Present: Yes
Reference Spectrum Present: Yes
Number of Sampled Component Spectra: 1
Spectrometers: USB4H08886
Integration Time (usec): 745692 (USB4H08886)
Spectra Averaged: 5 (USB4H08886)
Boxcar Smoothing: 5 (USB4H08886)
Correct for Electrical Dark: Yes (USB4H08886)
Strobe/Lamp Enabled: No (USB4H08886)
Correct for Detector Non-linearity: Yes (USB4H08886)
Correct for Stray Light: Yes (USB4H08886)
Number of Pixels in Processed Spectrum: 3648
>>>>>Begin Processed Spectral Data<<<<<
178.14	-0.000
178.36	-0.000
178.57	-0.000
178.79	-0.000
179.01	-0.000
179.22	-0.000
179.44	-0.000
179.65	-0.000
179.87	-0.000
180.08	-0.000
180.30	-0.000
180.52	-0.000
180.73	-0.000
180.95	-0.000
181.16	-0.000
181.38	-0.000
181.59	-0.000
181.81	-0.000
182.03	-0.000
182.24	-0.000
182.46	-0.000
182.67	-0.000
182.89	-0.000
183.10	-0.000
183.32	-0.000
183.54	-0.000
183.75	-0.000
183.97	-0.000
184.18	-0.000
184.40	-0.000
184.61	-0.000
184.83	-0.000
185.04	-0.000
185.26	-0.000
185.48	-0.000
185.69	-0.000
185.91	-0.000
186.12	-0.000
186.34	-0.000
186.55	-0.000
186.77	-0.000
186.98	-0.000
187.20	-0.000
187.42	-0.000
187.63	-0.000
187.85	-0.000
188.06	-0.000
188.28	-0.000
188.49	-0.000
188.71	-0.000
188.92	-0.000
189.14	-0.000
189.36	-0.000
189.57	-0.000
189.79	-0.000
190.00	-0.000
190.22	-0.000
190.43	-0.000
190.65	-0.000
190.86	-0.000
191.08	-0.000
191.29	-0.000
191.51	-0.000
191.72	-0.000
191.94	-0.000
192.16	-0.000
192.37	-0.000
192.59	-0.000
192.80	-0.000
193.02	-0.000
193.23	-0.000
193.45	-0.000
193.66	-0.000
193.88	-0.000
194.09	-0.000
194.31	-0.000
194.52	-0.000
194.74	-0.000
194.95	-0.000
195.17	-0.000
195.38	-0.000
195.60	-0.000
195.81	-0.000
196.03	-0.000
196.25	-0.000
196.46	-0.000
196.68	-0.000
196.89	-0.000
197.11	-0.000
197.32	-0.000
197.54	-0.000
197.75	-0.000
197.97	-0.000
198.18	-0.000
198.40	-0.000
198.61	-0.000
198.83	-0.000
199.04	-0.000
199.26	-0.000
199.47	-0.000
199.69	-0.000
199.90	-0.000
200.12	-0.000
200.33	-0.000
200.55	-0.000
200.76	-0.000
200.98	-0.000
201.19	-0.000
201.41	-0.000
201.62	-0.000
201.84	-0.000
202.05	-0.000
202.27	-0.000
202.48	-0.000
202.70	-0.000
202.91	-0.000
203.13	-0.000
203.34	-0.000
203.56	-0.000
203.77	-0.000
203.99	-0.000
204.20	-0.000
204.42	-0.000
204.63	-0.000
204.85	-0.000
205.06	-0.000
205.28	-0.000
205.49	-0.000
205.71	-0.000
205.92	-0.000
206.14	-0.000
206.35	-0.000
206.56	-0.000
206.78	-0.000
206.99	-0.000
207.21	-0.000
207.42	-0.000
207.64	-0.000
207.85	-0.000
208.07	-0.000
208.28	-0.000
208.50	-0.000
208.71	-0.000
208.93	-0.000
209.14	-0.000
209.36	-0.000
209.57	-0.000
209.79	-0.000
210.00	-0.000
210.22	-0.000
210.43	-0.000
210.64	-0.000
210.86	-0.000
211.07	-0.000
211.29	-0.000
211.50	-0.000
211.72	-0.000
211.93	-0.000
212.15	-0.000
212.36	-0.000
212.58	-0.000
212.79	-0.000
213.01	-0.000
213.22	-0.000
213.43	-0.000
213.65	-0.000
213.86	-0.000
214.08	-0.000
214.29	-0.000
214.51	-0.000
214.72	-0.000
214.94	-0.000
215.15	-0.000
215.36	-0.000
215.58	-0.000
215.79	-0.000
216.01	-0.000
216.22	-0.000
216.44	-0.000
216.65	-0.000
216.87	-0.000
217.08	-0.000
217.29	-0.000
217.51	-0.000
217.72	-0.000
217.94	-0.000
218.15	-0.000
218.37	-0.000
218.58	-0.000
218.80	-0.000
219.01	-0.000
219.22	-0.000
219.44	-0.000
219.65	-0.000
219.87	-0.000
220.08	-0.000
220.30	-0.000
220.51	-0.000
220.72	-0.000
220.94	-0.000
221.15	-0.000
221.37	-0.000
221.58	-0.000
221.79	-0.000
222.01	-0.000
222.22	-0.000
222.44	-0.000
222.65	-0.000
222.87	-0.000
223.08	-0.000
223.29	-0.000
223.51	-0.000
223.72	-0.000
223.94	-0.000
224.15	-0.000
224.36	-0.000
224.58	-0.000
224.79	-0.000
225.01	-0.000
225.22	-0.000
225.44	-0.000
225.65	-0.000
225.86	-0.000
226.08	-0.000
226.29	-0.000
226.51	-0.000
226.72	-0.000
226.93	-0.000
227.15	-0.000
227.36	-0.000
227.58	-0.000
227.79	-0.000
228.00	-0.000
228.22	-0.000
228.43	-0.000
228.65	-0.000
228.86	-0.000
229.07	-0.000
229.29	-0.000
229.50	-0.000
229.72	-0.000
229.93	-0.000
230.14	-0.000
230.36	-0.000
230.57	-0.000
230.78	-0.000
231.00	-0.000
231.21	-0.000
231.43	-0.000
231.64	-0.000
231.85	-0.000
232.07	-0.000
232.28	-0.000
232.50	-0.000
232.71	-0.000
232.92	-0.000
233.14	-0.000
233.35	-0.000
233.56	-0.000
233.78	-0.000
233.99	-0.000
234.21	-0.000
234.42	-0.000
234.63	-0.000
234.85	-0.000
235.06	-0.000
235.27	-0.000
235.49	-0.000
235.70	-0.000
235.91	-0.000
236.13	-0.000
236.34	-0.000
236.56	-0.000
236.77	-0.000
236.98	-0.000
237.20	-0.000
237.41	-0.000
237.62	-0.000
237.84	-0.000
238.05	-0.000
238.26	-0.000
238.48	-0.000
238.69	-0.000
238.91	-0.000
239.12	-0.000
239.33	-0.000
239.55	-0.000
239.76	-0.000
239.97	-0.000
240.19	-0.000
240.40	-0.000
240.61	-0.000
240.83	-0.000
241.04	-0.000
241.25	-0.000
241.47	-0.000
241.68	-0.000
241.89	-0.000
242.11	-0.000
242.32	-0.000
242.53	-0.000
242.75	-0.000
242.96	-0.000
243.17	-0.000
243.39	-0.000
243.60	-0.000
243.81	-0.000
244.03	-0.000
244.24	-0.000
244.45	-0.000
244.67	-0.000
244.88	-0.000
245.09	-0.000
245.31	-0.000
245.52	-0.000
245.73	-0.000
245.95	-0.000
246.16	-0.000
246.37	-0.000
246.59	-0.000
246.80	-0.000
247.01	-0.000
247.23	-0.000
247.44	-0.000
247.65	-0.000
247.87	-0.000
248.08	-0.000
248.29	-0.000
248.51	-0.000
248.72	-0.000
248.93	-0.000
249.15	-0.000
249.36	-0.000
249.57	-0.000
249.78	-0.000
250.00	-0.000
250.21	-0.000
250.42	-0.000
250.64	-0.000
250.85	-0.000
251.06	-0.000
251.28	-0.000
251.49	-0.000
251.70	-0.000
251.92	-0.000
252.13	-0.000
252.34	-0.000
252.55	-0.000
252.77	-0.000
252.98	-0.000
253.19	-0.000
253.41	-0.000
253.62	-0.000
253.83	-0.000
254.05	-0.000
254.26	-0.000
254.47	-0.000
254.68	-0.000
254.90	-0.000
255.11	-0.000
255.32	-0.000
255.54	-0.000
255.75	-0.000
255.96	-0.000
256.17	-0.000
256.39	-0.000
256.60	-0.000
256.81	-0.000
257.03	-0.000
257.24	-0.000
257.45	-0.000
257.66	-0.000
257.88	-0.000
258.09	-0.000
258.30	-0.000
258.51	-0.000
258.73	-0.000
258.94	-0.000
259.15	-0.000
259.37	-0.000
259.58	-0.000
259.79	-0.000
260.00	-0.000
260.22	-0.000
260.43	-0.000
260.64	-0.000
260.85	-0.000
261.07	-0.000
261.28	-0.000
261.49	-0.000
261.71	-0.000
261.92	-0.000
262.13	-0.000
262.34	-0.000
262.56	-0.000
262.77	-0.000
262.98	-0.000
263.19	-0.000
263.41	-0.000
263.62	-0.000
263.83	-0.000
264.04	-0.000
264.26	-0.000
264.47	-0.000
264.68	-0.000
264.89	-0.000
265.11	-0.000
265.32	-0.000
265.53	-0.000
265.74	-0.000
265.96	-0.000
266.17	-0.000
266.38	-0.000
266.59	-0.000
266.81	-0.000
267.02	-0.000
267.23	-0.000
267.44	-0.000
267.65	-0.000
267.87	-0.000
268.08	-0.000
268.29	-0.000
268.50	-0.000
268.72	-0.000
268.93	-0.000
269.14	-0.000
269.35	-0.000
269.57	-0.000
269.78	-0.000
269.99	-0.000
270.20	-0.000
270.41	-0.000
270.63	-0.000
270.84	-0.000
271.05	-0.000
271.26	-0.000
271.48	-0.000
271.69	-0.000
271.90	-0.000
272.11	-0.000
272.32	-0.000
272.54	-0.000
272.75	-0.000
272.96	-0.000
273.17	-0.000
273.39	-0.000
273.60	-0.000
273.81	-0.000
274.02	-0.000
274.23	-0.000
274.45	-0.000
274.66	-0.000
274.87	-0.000
275.08	-0.000
275.29	-0.000
275.51	-0.000
275.72	-0.000
275.93	-0.000
276.14	-0.000
276.35	-0.000
276.57	-0.000
276.78	-0.000
276.99	-0.000
277.20	-0.000
277.41	-0.000
277.63	-0.000
277.84	-0.000
278.05	-0.000
278.26	-0.000
278.47	-0.000
278.69	-0.000
278.90	-0.000
279.11	-0.000
279.32	-0.000
279.53	-0.000
279.74	-0.000
279.96	-0.000
280.17	-0.000
280.38	-0.000
280.59	-0.000
280.80	-0.000
281.02	-0.000
281.23	-0.000
281.44	-0.000
281.65	-0.000
281.86	-0.000
282.07	-0.000
282.29	-0.000
282.50	-0.000
282.71	-0.000
282.92	-0.000
283.13	-0.000
283.35	-0.000
283.56	-0.000
283.77	-0.000
283.98	-0.000
284.19	-0.000
284.40	-0.000
284.62	-0.000
284.83	-0.000
285.04	-0.000
285.25	-0.000
285.46	-0.000
285.67	-0.000
285.88	-0.000
286.10	-0.000
286.31	-0.000
286.52	-0.000
286.73	-0.000
286.94	-0.000
287.15	-0.000
287.37	-0.000
287.58	-0.000
287.79	-0.000
288.00	-0.000
288.21	-0.000
288.42	-0.000
288.63	-0.000
288.85	-0.000
289.06	-0.000
289.27	-0.000
289.48	-0.000
289.69	-0.000
289.90	-0.000
290.11	-0.000
290.33	-0.000
290.54	-0.000
290.75	-0.000
290.96	-0.000
291.17	-0.000
291.38	-0.000
291.59	-0.000
291.81	-0.000
292.02	-0.000
292.23	-0.000
292.44	-0.000
292.65	-0.000
292.86	-0.000
293.07	-0.000
293.28	-0.000
293.50	-0.000
293.71	-0.000
293.92	-0.000
294.13	-0.000
294.34	-0.000
294.55	-0.000
294.76	-0.000
294.97	-0.000
295.19	-0.000
295.40	-0.000
295.61	-0.000
295.82	-0.000
296.03	-0.000
296.24	-0.000
296.45	2.438
296.66	1.895
296.87	1.911
297.09	2.010
297.30	2.366
297.51	1.814
297.72	1.772
297.93	1.907
298.14	1.866
298.35	1.806
298.56	1.775
298.77	1.979
298.99	1.929
299.20	1.899
299.41	1.875
299.62	1.798
299.83	1.778
300.04	1.698
300.25	1.678
300.46	1.728
300.67	1.691
300.88	1.618
301.10	1.612
301.31	1.705
301.52	1.624
301.73	1.553
301.94	1.563
302.15	1.580
302.36	1.523
302.57	1.454
302.78	1.466
302.99	1.514
303.20	1.540
303.41	1.439
303.63	1.419
303.84	1.429
304.05	1.422
304.26	1.358
304.47	1.364
304.68	1.366
304.89	1.360
305.10	1.313
305.31	1.299
305.52	1.344
305.73	1.335
305.94	1.295
306.15	1.284
306.37	1.311
306.58	1.318
306.79	1.282
307.00	1.310
307.21	1.356
307.42	1.350
307.63	1.311
307.84	1.274
308.05	1.312
308.26	1.315
308.47	1.293
308.68	1.287
308.89	1.286
309.10	1.284
309.31	1.240
309.52	1.228
309.73	1.244
309.95	1.236
310.16	1.208
310.37	1.195
310.58	1.211
310.79	1.209
311.00	1.207
311.21	1.211
311.42	1.214
311.63	1.208
311.84	1.189
312.05	1.187
312.26	1.211
312.47	1.222
312.68	1.199
312.89	1.181
313.10	1.191
313.31	1.162
313.52	1.164
313.73	1.164
313.94	1.167
314.15	1.146
314.36	1.122
314.57	1.115
314.78	1.102
314.99	1.098
315.21	1.085
315.42	1.087
315.63	1.099
315.84	1.075
316.05	1.060
316.26	1.070
316.47	1.088
316.68	1.085
316.89	1.065
317.10	1.087
317.31	1.092
317.52	1.093
317.73	1.073
317.94	1.071
318.15	1.116
318.36	1.117
318.57	1.097
318.78	1.084
318.99	1.119
319.20	1.117
319.41	1.082
319.62	1.083
319.83	1.098
320.04	1.092
320.25	1.079
320.46	1.046
320.67	1.046
320.88	1.042
321.09	1.030
321.30	1.018
321.51	1.034
321.72	1.031
321.93	1.014
322.14	1.007
322.35	1.035
322.56	1.038
322.77	1.024
322.98	1.039
323.19	1.049
323.40	1.055
323.61	1.032
323.82	1.026
324.03	1.031
324.24	1.030
324.45	1.015
324.66	0.996
324.87	0.991
325.08	0.989
325.29	0.966
325.50	0.959
325.71	0.964
325.92	0.972
326.13	0.960
326.34	0.960
326.55	0.968
326.76	0.966
326.97	0.955
327.18	0.950
327.39	0.977
327.60	0.979
327.80	0.980
328.01	0.978
328.22	0.979
328.43	0.981
328.64	0.970
328.85	0.973
329.06	0.976
329.27	0.976
329.48	0.971
329.69	0.951
329.90	0.963
330.11	0.956
330.32	0.949
330.53	0.940
330.74	0.940
330.95	0.938
331.16	0.922
331.37	0.931
331.58	0.932
331.79	0.931
332.00	0.922
332.21	0.915
332.42	0.918
332.63	0.909
332.83	0.905
333.04	0.907
333.25	0.921
333.46	0.920
333.67	0.904
333.88	0.907
334.09	0.918
334.30	0.914
334.51	0.904
334.72	0.901
334.93	0.905
335.14	0.905
335.35	0.897
335.56	0.891
335.77	0.899
335.98	0.898
336.18	0.892
336.39	0.885
336.60	0.890
336.81	0.889
337.02	0.887
337.23	0.891
337.44	0.894
337.65	0.896
337.86	0.887
338.07	0.882
338.28	0.887
338.49	0.885
338.70	0.876
338.91	0.883
339.11	0.890
339.32	0.886
339.53	0.875
339.74	0.871
339.95	0.867
340.16	0.865
340.37	0.859
340.58	0.857
340.79	0.860
341.00	0.860
341.21	0.849
341.41	0.849
341.62	0.851
341.83	0.851
342.04	0.846
342.25	0.857
342.46	0.862
342.67	0.860
342.88	0.854
343.09	0.853
343.30	0.859
343.50	0.862
343.71	0.852
343.92	0.850
344.13	0.854
344.34	0.854
344.55	0.838
344.76	0.835
344.97	0.840
345.18	0.837
345.38	0.833
345.59	0.830
345.80	0.830
346.01	0.828
346.22	0.823
346.43	0.818
346.64	0.826
346.85	0.825
347.06	0.819
347.26	0.820
347.47	0.824
347.68	0.820
347.89	0.816
348.10	0.811
348.31	0.818
348.52	0.817
348.73	0.814
348.93	0.810
349.14	0.812
349.35	0.811
349.56	0.804
349.77	0.801
349.98	0.807
350.19	0.804
350.39	0.799
350.60	0.795
350.81	0.812
351.02	0.811
351.23	0.807
351.44	0.810
351.65	0.813
351.86	0.811
352.06	0.808
352.27	0.809
352.48	0.810
352.69	0.809
352.90	0.803
353.11	0.790
353.31	0.797
353.52	0.794
353.73	0.785
353.94	0.787
354.15	0.792
354.36	0.792
354.57	0.783
354.77	0.785
354.98	0.784
355.19	0.783
355.40	0.782
355.61	0.787
355.82	0.791
356.02	0.791
356.23	0.784
356.44	0.787
356.65	0.790
356.86	0.791
357.07	0.785
357.27	0.789
357.48	0.792
357.69	0.787
357.90	0.772
358.11	0.769
358.32	0.773
358.52	0.775
358.73	0.765
358.94	0.768
359.15	0.772
359.36	0.773
359.56	0.768
359.77	0.764
359.98	0.772
360.19	0.771
360.40	0.767
360.61	0.768
360.81	0.767
361.02	0.768
361.23	0.759
361.44	0.757
361.65	0.757
361.85	0.756
362.06	0.754
362.27	0.756
362.48	0.757
362.69	0.758
362.89	0.752
363.10	0.753
363.31	0.758
363.52	0.761
363.73	0.756
363.93	0.757
364.14	0.759
364.35	0.761
364.56	0.751
364.77	0.752
364.97	0.755
365.18	0.755
365.39	0.750
365.60	0.747
365.81	0.748
366.01	0.747
366.22	0.743
366.43	0.742
366.64	0.744
366.84	0.750
367.05	0.746
367.26	0.746
367.47	0.747
367.68	0.747
367.88	0.744
368.09	0.742
368.30	0.744
368.51	0.744
368.71	0.744
368.92	0.747
369.13	0.745
369.34	0.744
369.55	0.743
369.75	0.743
369.96	0.750
370.17	0.750
370.38	0.747
370.58	0.746
370.79	0.752
371.00	0.750
371.21	0.742
371.41	0.748
371.62	0.752
371.83	0.748
372.04	0.745
372.24	0.738
372.45	0.739
372.66	0.739
372.87	0.736
373.07	0.733
373.28	0.735
373.49	0.738
373.70	0.728
373.90	0.727
374.11	0.736
374.32	0.736
374.53	0.736
374.73	0.736
374.94	0.739
375.15	0.738
375.36	0.734
375.56	0.743
375.77	0.743
375.98	0.744
376.19	0.741
376.39	0.735
376.60	0.739
376.81	0.740
377.02	0.737
377.22	0.736
377.43	0.737
377.64	0.739
377.84	0.729
378.05	0.733
378.26	0.739
378.47	0.738
378.67	0.734
378.88	0.731
379.09	0.731
379.30	0.731
379.50	0.728
379.71	0.730
379.92	0.732
380.12	0.732
380.33	0.724
380.54	0.720
380.75	0.727
380.95	0.728
381.16	0.726
381.37	0.726
381.57	0.728
381.78	0.729
381.99	0.729
382.20	0.728
382.40	0.731
382.61	0.732
382.82	0.728
383.02	0.722
383.23	0.724
383.44	0.725
383.64	0.723
383.85	0.725
384.06	0.728
384.27	0.726
384.47	0.724
384.68	0.724
384.89	0.729
385.09	0.729
385.30	0.729
385.51	0.728
385.71	0.731
385.92	0.732
386.13	0.731
386.33	0.733
386.54	0.733
386.75	0.732
386.95	0.728
387.16	0.724
387.37	0.727
387.58	0.726
387.78	0.724
387.99	0.721
388.20	0.723
388.40	0.719
388.61	0.715
388.82	0.719
389.02	0.721
389.23	0.721
389.44	0.719
389.64	0.719
389.85	0.731
390.06	0.731
390.26	0.731
390.47	0.731
390.68	0.734
390.88	0.732
391.09	0.727
391.30	0.726
391.50	0.727
391.71	0.726
391.92	0.724
392.12	0.716
392.33	0.716
392.53	0.716
392.74	0.715
392.95	0.715
393.15	0.718
393.36	0.720
393.57	0.718
393.77	0.721
393.98	0.723
394.19	0.723
394.39	0.722
394.60	0.724
394.81	0.726
395.01	0.724
395.22	0.722
395.43	0.722
395.63	0.727
395.84	0.728
396.04	0.724
396.25	0.726
396.46	0.728
396.66	0.726
396.87	0.723
397.08	0.720
397.28	0.723
397.49	0.724
397.69	0.720
397.90	0.715
398.11	0.716
398.31	0.717
398.52	0.713
398.73	0.715
398.93	0.714
399.14	0.713
399.34	0.712
399.55	0.713
399.76	0.713
399.96	0.714
400.17	0.712
400.37	0.711
400.58	0.717
400.79	0.719
400.99	0.716
401.20	0.722
401.41	0.725
401.61	0.726
401.82	0.731
402.02	0.731
402.23	0.732
402.44	0.732
402.64	0.732
402.85	0.727
403.05	0.726
403.26	0.725
403.47	0.719
403.67	0.719
403.88	0.720
404.08	0.714
404.29	0.712
404.50	0.712
404.70	0.712
404.91	0.711
405.11	0.708
405.32	0.708
405.52	0.709
405.73	0.708
405.94	0.706
406.14	0.708
406.35	0.710
406.55	0.709
406.76	0.707
406.97	0.708
407.17	0.711
407.38	0.710
407.58	0.708
407.79	0.711
407.99	0.713
408.20	0.714
408.41	0.710
408.61	0.708
408.82	0.709
409.02	0.709
409.23	0.706
409.43	0.705
409.64	0.707
409.84	0.707
410.05	0.703
410.26	0.702
410.46	0.701
410.67	0.701
410.87	0.702
411.08	0.704
411.28	0.706
411.49	0.708
411.69	0.706
411.90	0.707
412.11	0.708
412.31	0.709
412.52	0.708
412.72	0.709
412.93	0.710
413.13	0.708
413.34	0.705
413.54	0.706
413.75	0.708
413.95	0.707
414.16	0.704
414.37	0.706
414.57	0.707
414.78	0.710
414.98	0.708
415.19	0.708
415.39	0.706
415.60	0.708
415.80	0.707
416.01	0.705
416.21	0.707
416.42	0.707
416.62	0.702
416.83	0.702
417.03	0.701
417.24	0.702
417.44	0.699
417.65	0.699
417.86	0.699
418.06	0.697
418.27	0.695
418.47	0.697
418.68	0.697
418.88	0.697
419.09	0.696
419.29	0.697
419.50	0.697
419.70	0.697
419.91	0.695
420.11	0.693
420.32	0.696
420.52	0.695
420.73	0.693
420.93	0.695
421.14	0.697
421.34	0.696
421.55	0.692
421.75	0.693
421.96	0.694
422.16	0.694
422.37	0.692
422.57	0.689
422.78	0.691
422.98	0.688
423.19	0.685
423.39	0.684
423.60	0.688
423.80	0.689
424.01	0.687
424.21	0.690
424.42	0.691
424.62	0.691
424.83	0.690
425.03	0.690
425.23	0.693
425.44	0.693
425.64	0.692
425.85	0.691
426.05	0.693
426.26	0.693
426.46	0.689
426.67	0.688
426.87	0.693
427.08	0.693
427.28	0.691
427.49	0.691
427.69	0.692
427.90	0.690
428.10	0.687
428.31	0.687
428.51	0.689
428.71	0.688
428.92	0.689
429.12	0.687
429.33	0.688
429.53	0.692
429.74	0.696
429.94	0.696
430.15	0.697
430.35	0.697
430.56	0.694
430.76	0.693
430.96	0.694
431.17	0.690
431.37	0.687
431.58	0.685
431.78	0.682
431.99	0.675
432.19	0.677
432.40	0.678
432.60	0.679
432.80	0.681
433.01	0.680
433.21	0.680
433.42	0.682
433.62	0.682
433.83	0.682
434.03	0.685
434.23	0.687
434.44	0.686
434.64	0.685
434.85	0.689
435.05	0.691
435.26	0.691
435.46	0.689
435.66	0.689
435.87	0.689
436.07	0.689
436.28	0.685
436.48	0.682
436.69	0.681
436.89	0.681
437.09	0.675
437.30	0.673
437.50	0.674
437.71	0.685
437.91	0.684
438.11	0.685
438.32	0.689
438.52	0.689
438.73	0.688
438.93	0.686
439.13	0.686
439.34	0.690
439.54	0.688
439.75	0.687
439.95	0.677
440.15	0.682
440.36	0.680
440.56	0.677
440.77	0.679
440.97	0.679
441.17	0.679
441.38	0.680
441.58	0.677
441.79	0.676
441.99	0.675
442.19	0.674
442.40	0.672
442.60	0.672
442.81	0.670
443.01	0.670
443.21	0.670
443.42	0.669
443.62	0.668
443.82	0.667
444.03	0.669
444.23	0.669
444.44	0.669
444.64	0.668
444.84	0.669
445.05	0.669
445.25	0.667
445.45	0.667
445.66	0.670
445.86	0.669
446.06	0.671
446.27	0.670
446.47	0.674
446.68	0.672
446.88	0.670
447.08	0.669
447.29	0.671
447.49	0.671
447.69	0.671
447.90	0.670
448.10	0.674
448.30	0.670
448.51	0.671
448.71	0.669
448.91	0.671
449.12	0.670
449.32	0.672
449.52	0.670
449.73	0.674
449.93	0.673
450.14	0.673
450.34	0.671
450.54	0.675
450.75	0.672
450.95	0.672
451.15	0.671
451.36	0.674
451.56	0.670
451.76	0.670
451.97	0.666
452.17	0.667
452.37	0.665
452.58	0.663
452.78	0.662
452.98	0.664
453.19	0.663
453.39	0.663
453.59	0.662
453.79	0.663
454.00	0.663
454.20	0.662
454.40	0.663
454.61	0.665
454.81	0.665
455.01	0.663
455.22	0.664
455.42	0.667
455.62	0.664
455.83	0.664
456.03	0.667
456.23	0.668
456.44	0.669
456.64	0.667
456.84	0.667
457.04	0.668
457.25	0.667
457.45	0.664
457.65	0.662
457.86	0.664
458.06	0.662
458.26	0.658
458.47	0.658
458.67	0.659
458.87	0.659
459.07	0.657
459.28	0.659
459.48	0.662
459.68	0.661
459.89	0.660
460.09	0.659
460.29	0.660
460.49	0.661
460.70	0.659
460.90	0.659
461.10	0.660
461.31	0.659
461.51	0.656
461.71	0.658
461.91	0.659
462.12	0.659
462.32	0.659
462.52	0.659
462.72	0.662
462.93	0.663
463.13	0.661
463.33	0.661
463.53	0.663
463.74	0.663
463.94	0.658
464.14	0.659
464.35	0.660
464.55	0.661
464.75	0.659
464.95	0.656
465.16	0.659
465.36	0.658
465.56	0.658
465.76	0.657
465.97	0.657
466.17	0.657
466.37	0.655
466.57	0.657
466.78	0.658
466.98	0.657
467.18	0.655
467.38	0.653
467.59	0.654
467.79	0.655
467.99	0.654
468.19	0.655
468.39	0.658
468.60	0.658
468.80	0.656
469.00	0.657
469.20	0.659
469.41	0.660
469.61	0.659
469.81	0.661
470.01	0.660
470.22	0.661
470.42	0.659
470.62	0.657
470.82	0.658
471.02	0.658
471.23	0.655
471.43	0.656
471.63	0.658
471.83	0.657
472.04	0.655
472.24	0.654
472.44	0.659
472.64	0.660
472.84	0.657
473.05	0.657
473.25	0.659
473.45	0.658
473.65	0.656
473.85	0.657
474.06	0.658
474.26	0.658
474.46	0.659
474.66	0.655
474.86	0.656
475.07	0.656
475.27	0.654
475.47	0.651
475.67	0.653
475.87	0.655
476.08	0.651
476.28	0.652
476.48	0.653
476.68	0.651
476.88	0.649
477.09	0.650
477.29	0.652
477.49	0.652
477.69	0.651
477.89	0.651
478.09	0.651
478.30	0.653
478.50	0.650
478.70	0.650
478.90	0.651
479.10	0.653
479.31	0.654
479.51	0.652
479.71	0.653
479.91	0.654
480.11	0.652
480.31	0.653
480.52	0.651
480.72	0.652
480.92	0.650
481.12	0.650
481.32	0.647
481.52	0.644
481.72	0.645
481.93	0.648
482.13	0.648
482.33	0.648
482.53	0.646
482.73	0.647
482.93	0.648
483.14	0.648
483.34	0.647
483.54	0.648
483.74	0.647
483.94	0.647
484.14	0.643
484.34	0.643
484.55	0.644
484.75	0.643
484.95	0.641
485.15	0.641
485.35	0.641
485.55	0.640
485.75	0.638
485.96	0.639
486.16	0.640
486.36	0.640
486.56	0.638
486.76	0.639
486.96	0.639
487.16	0.639
487.36	0.637
487.57	0.636
487.77	0.637
487.97	0.638
488.17	0.635
488.37	0.634
488.57	0.635
488.77	0.635
488.97	0.634
489.18	0.633
489.38	0.636
489.58	0.636
489.78	0.636
489.98	0.636
490.18	0.636
490.38	0.637
490.58	0.636
490.78	0.636
490.98	0.638
491.19	0.638
491.39	0.637
491.59	0.636
491.79	0.639
491.99	0.639
492.19	0.638
492.39	0.641
492.59	0.641
492.79	0.643
492.99	0.644
493.20	0.644
493.40	0.644
493.60	0.645
493.80	0.643
494.00	0.641
494.20	0.642
494.40	0.641
494.60	0.639
494.80	0.643
495.00	0.642
495.20	0.640
495.40	0.639
495.61	0.641
495.81	0.640
496.01	0.644
496.21	0.646
496.41	0.645
496.61	0.646
496.81	0.644
497.01	0.639
497.21	0.638
497.41	0.639
497.61	0.638
497.81	0.636
498.01	0.637
498.21	0.634
498.41	0.632
498.61	0.632
498.82	0.633
499.02	0.636
499.22	0.637
499.42	0.636
499.62	0.637
499.82	0.638
500.02	0.639
500.22	0.638
500.42	0.641
500.62	0.641
500.82	0.641
501.02	0.639
501.22	0.639
501.42	0.638
501.62	0.641
501.82	0.640
502.02	0.640
502.22	0.639
502.42	0.641
502.62	0.638
502.82	0.639
503.02	0.639
503.22	0.639
503.42	0.637
503.63	0.637
503.83	0.635
504.03	0.634
504.23	0.633
504.43	0.633
504.63	0.634
504.83	0.634
505.03	0.633
505.23	0.634
505.43	0.636
505.63	0.637
505.83	0.636
506.03	0.638
506.23	0.640
506.43	0.640
506.63	0.639
506.83	0.638
507.03	0.640
507.23	0.640
507.43	0.637
507.63	0.637
507.83	0.638
508.03	0.638
508.23	0.638
508.43	0.636
508.63	0.638
508.83	0.638
509.03	0.639
509.23	0.638
509.43	0.640
509.63	0.640
509.83	0.639
510.03	0.642
510.23	0.644
510.43	0.644
510.63	0.645
510.83	0.645
511.03	0.647
511.23	0.645
511.43	0.644
511.63	0.646
511.83	0.648
512.03	0.648
512.22	0.645
512.42	0.644
512.62	0.644
512.82	0.644
513.02	0.642
513.22	0.642
513.42	0.644
513.62	0.647
513.82	0.645
514.02	0.644
514.22	0.646
514.42	0.646
514.62	0.646
514.82	0.646
515.02	0.649
515.22	0.652
515.42	0.651
515.62	0.653
515.82	0.652
516.02	0.654
516.22	0.654
516.42	0.655
516.62	0.657
516.82	0.658
517.01	0.655
517.21	0.654
517.41	0.658
517.61	0.658
517.81	0.654
518.01	0.653
518.21	0.653
518.41	0.652
518.61	0.650
518.81	0.651
519.01	0.652
519.21	0.652
519.41	0.652
519.61	0.646
519.81	0.648
520.00	0.649
520.20	0.649
520.40	0.652
520.60	0.652
520.80	0.652
521.00	0.652
521.20	0.653
521.40	0.657
521.60	0.657
521.80	0.656
522.00	0.657
522.20	0.659
522.39	0.658
522.59	0.655
522.79	0.657
522.99	0.659
523.19	0.657
523.39	0.655
523.59	0.653
523.79	0.656
523.99	0.658
524.19	0.657
524.38	0.656
524.58	0.657
524.78	0.658
524.98	0.656
525.18	0.658
525.38	0.659
525.58	0.660
525.78	0.658
525.98	0.656
526.18	0.656
526.37	0.655
526.57	0.657
526.77	0.657
526.97	0.658
527.17	0.658
527.37	0.654
527.57	0.657
527.77	0.658
527.96	0.658
528.16	0.657
528.36	0.658
528.56	0.660
528.76	0.658
528.96	0.657
529.16	0.658
529.36	0.661
529.55	0.661
529.75	0.658
529.95	0.658
530.15	0.660
530.35	0.662
530.55	0.660
530.75	0.660
530.94	0.661
531.14	0.662
531.34	0.660
531.54	0.658
531.74	0.661
531.94	0.664
532.13	0.663
532.33	0.664
532.53	0.662
532.73	0.661
532.93	0.659
533.13	0.661
533.33	0.661
533.52	0.662
533.72	0.665
533.92	0.663
534.12	0.661
534.32	0.661
534.52	0.660
534.71	0.662
534.91	0.666
535.11	0.667
535.31	0.665
535.51	0.667
535.71	0.669
535.90	0.666
536.10	0.666
536.30	0.668
536.50	0.669
536.70	0.669
536.89	0.666
537.09	0.666
537.29	0.668
537.49	0.669
537.69	0.667
537.89	0.668
538.08	0.668
538.28	0.667
538.48	0.667
538.68	0.669
538.88	0.671
539.07	0.671
539.27	0.669
539.47	0.668
539.67	0.668
539.87	0.670
540.06	0.667
540.26	0.667
540.46	0.670
540.66	0.666
540.86	0.664
541.05	0.664
541.25	0.666
541.45	0.666
541.65	0.665
541.84	0.666
542.04	0.667
542.24	0.667
542.44	0.666
542.64	0.668
542.83	0.671
543.03	0.671
543.23	0.669
543.43	0.669
543.62	0.670
543.82	0.671
544.02	0.669
544.22	0.669
544.42	0.672
544.61	0.673
544.81	0.669
545.01	0.667
545.21	0.670
545.40	0.670
545.60	0.668
545.80	0.671
546.00	0.671
546.19	0.671
546.39	0.670
546.59	0.667
546.79	0.669
546.98	0.670
547.18	0.669
547.38	0.669
547.58	0.673
547.77	0.673
547.97	0.669
548.17	0.670
548.37	0.670
548.56	0.671
548.76	0.670
548.96	0.672
549.16	0.675
549.35	0.675
549.55	0.672
549.75	0.672
549.95	0.675
550.14	0.675
550.34	0.674
550.54	0.679
550.73	0.683
550.93	0.684
551.13	0.680
551.33	0.679
551.52	0.680
551.72	0.681
551.92	0.679
552.12	0.679
552.31	0.680
552.51	0.680
552.71	0.675
552.90	0.675
553.10	0.675
553.30	0.676
553.50	0.675
553.69	0.676
553.89	0.678
554.09	0.678
554.28	0.675
554.48	0.676
554.68	0.678
554.87	0.678
555.07	0.675
555.27	0.675
555.47	0.677
555.66	0.677
555.86	0.675
556.06	0.677
556.25	0.678
556.45	0.685
556.65	0.684
556.84	0.687
557.04	0.690
557.24	0.691
557.43	0.692
557.63	0.695
557.83	0.696
558.02	0.697
558.22	0.701
558.42	0.702
558.61	0.695
558.81	0.696
559.01	0.692
559.21	0.692
559.40	0.692
559.60	0.692
559.80	0.688
559.99	0.690
560.19	0.692
560.39	0.685
560.58	0.683
560.78	0.683
560.97	0.686
561.17	0.685
561.37	0.682
561.56	0.684
561.76	0.685
561.96	0.685
562.15	0.682
562.35	0.684
562.55	0.685
562.74	0.685
562.94	0.684
563.14	0.682
563.33	0.684
563.53	0.684
563.73	0.682
563.92	0.684
564.12	0.686
564.31	0.687
564.51	0.685
564.71	0.687
564.90	0.691
565.10	0.692
565.30	0.694
565.49	0.694
565.69	0.695
565.89	0.696
566.08	0.693
566.28	0.695
566.47	0.697
566.67	0.695
566.87	0.692
567.06	0.693
567.26	0.699
567.46	0.695
567.65	0.695
567.85	0.697
568.04	0.700
568.24	0.699
568.44	0.696
568.63	0.694
568.83	0.696
569.02	0.696
569.22	0.691
569.42	0.687
569.61	0.690
569.81	0.688
570.00	0.686
570.20	0.687
570.40	0.688
570.59	0.688
570.79	0.686
570.98	0.684
571.18	0.685
571.38	0.685
571.57	0.682
571.77	0.680
571.96	0.684
572.16	0.681
572.35	0.675
572.55	0.676
572.75	0.674
572.94	0.673
573.14	0.672
573.33	0.672
573.53	0.672
573.73	0.672
573.92	0.670
574.12	0.668
574.31	0.671
574.51	0.672
574.70	0.669
574.90	0.672
575.09	0.674
575.29	0.674
575.49	0.671
575.68	0.671
575.88	0.673
576.07	0.673
576.27	0.671
576.46	0.670
576.66	0.669
576.86	0.669
577.05	0.666
577.25	0.664
577.44	0.666
577.64	0.666
577.83	0.664
578.03	0.665
578.22	0.665
578.42	0.665
578.61	0.663
578.81	0.664
579.00	0.664
579.20	0.664
579.40	0.663
579.59	0.662
579.79	0.663
579.98	0.662
580.18	0.661
580.37	0.662
580.57	0.664
580.76	0.669
580.96	0.667
581.15	0.668
581.35	0.670
581.54	0.669
581.74	0.668
581.93	0.670
582.13	0.671
582.32	0.668
582.52	0.666
582.71	0.665
582.91	0.661
583.10	0.661
583.30	0.660
583.49	0.659
583.69	0.663
583.88	0.665
584.08	0.664
584.27	0.665
584.47	0.669
584.66	0.669
584.86	0.669
585.05	0.671
585.25	0.673
585.44	0.673
585.64	0.671
585.83	0.667
586.03	0.667
586.22	0.665
586.42	0.662
586.61	0.663
586.81	0.665
587.00	0.665
587.20	0.663
587.39	0.663
587.59	0.666
587.78	0.667
587.98	0.668
588.17	0.668
588.37	0.671
588.56	0.673
588.76	0.669
588.95	0.669
589.15	0.673
589.34	0.676
589.54	0.674
589.73	0.675
589.92	0.678
590.12	0.678
590.31	0.676
590.51	0.681
590.70	0.683
590.90	0.683
591.09	0.681
591.29	0.679
591.48	0.680
591.68	0.680
591.87	0.678
592.06	0.677
592.26	0.680
592.45	0.680
592.65	0.673
592.84	0.673
593.04	0.676
593.23	0.678
593.43	0.675
593.62	0.674
593.81	0.675
594.01	0.674
594.20	0.672
594.40	0.671
594.59	0.673
594.79	0.674
594.98	0.672
595.17	0.671
595.37	0.672
595.56	0.674
595.76	0.673
595.95	0.674
596.14	0.677
596.34	0.678
596.53	0.677
596.73	0.678
596.92	0.679
597.12	0.683
597.31	0.683
597.50	0.682
597.70	0.684
597.89	0.684
598.09	0.681
598.28	0.682
598.47	0.684
598.67	0.682
598.86	0.678
599.06	0.681
599.25	0.681
599.44	0.678
599.64	0.675
599.83	0.673
600.03	0.676
600.22	0.677
600.41	0.676
600.61	0.675
600.80	0.677
601.00	0.678
601.19	0.674
601.38	0.673
601.58	0.676
601.77	0.677
601.96	0.680
602.16	0.679
602.35	0.688
602.55	0.685
602.74	0.686
602.93	0.687
603.13	0.692
603.32	0.693
603.51	0.693
603.71	0.695
603.90	0.697
604.09	0.697
604.29	0.694
604.48	0.689
604.68	0.691
604.87	0.689
605.06	0.686
605.26	0.683
605.45	0.684
605.64	0.683
605.84	0.678
606.03	0.678
606.22	0.676
606.42	0.676
606.61	0.671
606.80	0.672
607.00	0.673
607.19	0.673
607.38	0.671
607.58	0.672
607.77	0.675
607.96	0.675
608.16	0.674
608.35	0.679
608.54	0.682
608.74	0.685
608.93	0.690
609.12	0.693
609.32	0.696
609.51	0.699
609.70	0.698
609.90	0.700
610.09	0.704
610.28	0.709
610.48	0.703
610.67	0.704
610.86	0.705
611.06	0.699
611.25	0.697
611.44	0.698
611.64	0.697
611.83	0.700
612.02	0.696
612.21	0.695
612.41	0.694
612.60	0.693
612.79	0.690
612.99	0.690
613.18	0.692
613.37	0.690
613.57	0.687
613.76	0.688
613.95	0.686
614.14	0.686
614.34	0.683
614.53	0.684
614.72	0.686
614.92	0.686
615.11	0.682
615.30	0.679
615.49	0.680
615.69	0.682
615.88	0.679
616.07	0.680
616.26	0.682
616.46	0.683
616.65	0.680
616.84	0.679
617.04	0.681
617.23	0.684
617.42	0.685
617.61	0.689
617.81	0.690
618.00	0.692
618.19	0.691
618.38	0.694
618.58	0.698
618.77	0.699
618.96	0.698
619.15	0.699
619.35	0.702
619.54	0.703
619.73	0.698
619.92	0.701
620.12	0.705
620.31	0.705
620.50	0.700
620.69	0.700
620.89	0.704
621.08	0.704
621.27	0.705
621.46	0.704
621.66	0.707
621.85	0.707
622.04	0.703
622.23	0.704
622.43	0.705
622.62	0.705
622.81	0.704
623.00	0.703
623.19	0.707
623.39	0.705
623.58	0.701
623.77	0.700
623.96	0.703
624.16	0.703
624.35	0.697
624.54	0.700
624.73	0.704
624.92	0.702
625.12	0.699
625.31	0.700
625.50	0.704
625.69	0.704
625.88	0.700
626.08	0.700
626.27	0.702
626.46	0.703
626.65	0.700
626.84	0.700
627.04	0.704
627.23	0.704
627.42	0.699
627.61	0.702
627.80	0.705
628.00	0.706
628.19	0.704
628.38	0.707
628.57	0.709
628.76	0.709
628.96	0.705
629.15	0.706
629.34	0.709
629.53	0.710
629.72	0.703
629.91	0.704
630.11	0.709
630.30	0.709
630.49	0.712
630.68	0.712
630.87	0.716
631.06	0.718
631.26	0.713
631.45	0.715
631.64	0.722
631.83	0.725
632.02	0.722
632.21	0.719
632.41	0.725
632.60	0.720
632.79	0.719
632.98	0.718
633.17	0.719
633.36	0.721
633.55	0.717
633.75	0.713
633.94	0.715
634.13	0.715
634.32	0.713
634.51	0.707
634.70	0.708
634.89	0.708
635.09	0.705
635.28	0.705
635.47	0.706
635.66	0.708
635.85	0.704
636.04	0.706
636.23	0.710
636.43	0.712
636.62	0.712
636.81	0.712
637.00	0.715
637.19	0.719
637.38	0.716
637.57	0.716
637.76	0.717
637.95	0.718
638.15	0.715
638.34	0.712
638.53	0.715
638.72	0.716
638.91	0.713
639.10	0.710
639.29	0.709
639.48	0.710
639.67	0.710
639.87	0.709
640.06	0.714
640.25	0.713
640.44	0.714
640.63	0.714
640.82	0.716
641.01	0.716
641.20	0.716
641.39	0.718
641.58	0.721
641.78	0.720
641.97	0.716
642.16	0.730
642.35	0.731
642.54	0.729
642.73	0.723
642.92	0.723
643.11	0.727
643.30	0.727
643.49	0.722
643.68	0.724
643.87	0.726
644.06	0.727
644.25	0.706
644.45	0.709
644.64	0.711
644.83	0.712
645.02	0.707
645.21	0.706
645.40	0.708
645.59	0.707
645.78	0.702
645.97	0.704
646.16	0.706
646.35	0.705
646.54	0.703
646.73	0.705
646.92	0.707
647.11	0.707
647.30	0.703
647.49	0.705
647.68	0.705
647.88	0.703
648.07	0.695
648.26	0.697
648.45	0.699
648.64	0.696
648.83	0.693
649.02	0.695
649.21	0.706
649.40	0.705
649.59	0.699
649.78	0.700
649.97	0.715
650.16	0.715
650.35	0.709
650.54	0.713
650.73	0.720
650.92	0.716
651.11	0.709
651.30	0.705
651.49	0.711
651.68	0.712
651.87	0.708
652.06	0.696
652.25	0.700
652.44	0.703
652.63	0.700
652.82	0.701
653.01	0.701
653.20	0.699
653.39	0.689
653.58	0.686
653.77	0.685
653.96	0.681
654.15	0.673
654.34	0.671
654.53	0.667
654.72	0.661
654.91	0.651
655.10	0.647
655.29	0.645
655.48	0.643
655.67	0.638
655.86	0.635
656.05	0.634
656.24	0.634
656.43	0.628
656.62	0.627
656.81	0.627
657.00	0.625
657.19	0.622
657.38	0.621
657.57	0.621
657.76	0.623
657.95	0.621
658.14	0.624
658.33	0.627
658.51	0.632
658.70	0.632
658.89	0.633
659.08	0.643
659.27	0.650
659.46	0.651
659.65	0.657
659.84	0.659
660.03	0.663
660.22	0.663
660.41	0.667
660.60	0.667
660.79	0.668
660.98	0.674
661.17	0.673
661.36	0.672
661.55	0.673
661.74	0.672
661.92	0.674
662.11	0.676
662.30	0.675
662.49	0.668
662.68	0.668
662.87	0.671
663.06	0.665
663.25	0.666
663.44	0.667
663.63	0.668
663.82	0.666
664.01	0.662
664.20	0.661
664.38	0.663
664.57	0.664
664.76	0.664
664.95	0.665
665.14	0.668
665.33	0.664
665.52	0.671
665.71	0.675
665.90	0.674
666.09	0.675
666.28	0.673
666.46	0.671
666.65	0.672
666.84	0.669
667.03	0.663
667.22	0.661
667.41	0.664
667.60	0.655
667.79	0.648
667.98	0.649
668.16	0.650
668.35	0.649
668.54	0.646
668.73	0.647
668.92	0.648
669.11	0.647
669.30	0.642
669.49	0.638
669.67	0.639
669.86	0.642
670.05	0.638
670.24	0.636
670.43	0.634
670.62	0.632
670.81	0.627
671.00	0.628
671.18	0.628
671.37	0.627
671.56	0.625
671.75	0.624
671.94	0.621
672.13	0.620
672.32	0.615
672.50	0.615
672.69	0.616
672.88	0.617
673.07	0.612
673.26	0.614
673.45	0.615
673.63	0.614
673.82	0.611
674.01	0.612
674.20	0.612
674.39	0.611
674.58	0.611
674.76	0.610
674.95	0.608
675.14	0.608
675.33	0.604
675.52	0.603
675.71	0.603
675.89	0.602
676.08	0.598
676.27	0.599
676.46	0.599
676.65	0.598
676.84	0.598
677.02	0.599
677.21	0.601
677.40	0.600
677.59	0.598
677.78	0.599
677.96	0.602
678.15	0.601
678.34	0.599
678.53	0.600
678.72	0.600
678.90	0.597
679.09	0.592
679.28	0.588
679.47	0.588
679.66	0.587
679.84	0.584
680.03	0.581
680.22	0.580
680.41	0.581
680.60	0.577
680.78	0.576
680.97	0.579
681.16	0.580
681.35	0.579
681.53	0.578
681.72	0.579
681.91	0.581
682.10	0.580
682.29	0.582
682.47	0.580
682.66	0.580
682.85	0.578
683.04	0.576
683.22	0.576
683.41	0.578
683.60	0.576
683.79	0.578
683.97	0.577
684.16	0.577
684.35	0.573
684.54	0.575
684.72	0.575
684.91	0.576
685.10	0.574
685.29	0.575
685.47	0.573
685.66	0.572
685.85	0.569
686.04	0.567
686.22	0.569
686.41	0.572
686.60	0.569
686.79	0.572
686.97	0.572
687.16	0.574
687.35	0.572
687.54	0.576
687.72	0.579
687.91	0.579
688.10	0.582
688.29	0.581
688.47	0.579
688.66	0.579
688.85	0.574
689.03	0.572
689.22	0.577
689.41	0.577
689.60	0.572
689.78	0.569
689.97	0.570
690.16	0.567
690.34	0.563
690.53	0.563
690.72	0.563
690.91	0.561
691.09	0.559
691.28	0.554
691.47	0.552
691.65	0.550
691.84	0.547
692.03	0.546
692.21	0.544
692.40	0.544
692.59	0.542
692.77	0.540
692.96	0.541
693.15	0.542
693.34	0.539
693.52	0.539
693.71	0.540
693.90	0.541
694.08	0.541
694.27	0.542
694.46	0.551
694.64	0.552
694.83	0.551
695.02	0.550
695.20	0.551
695.39	0.550
695.58	0.550
695.76	0.552
695.95	0.551
696.14	0.550
696.32	0.548
696.51	0.539
696.70	0.539
696.88	0.540
697.07	0.539
697.26	0.541
697.44	0.542
697.63	0.540
697.81	0.538
698.00	0.537
698.19	0.537
698.37	0.538
698.56	0.537
698.75	0.537
698.93	0.537
699.12	0.537
699.31	0.535
699.49	0.535
699.68	0.535
699.87	0.538
700.05	0.537
700.24	0.537
700.42	0.538
700.61	0.537
700.80	0.535
700.98	0.535
701.17	0.536
701.36	0.535
701.54	0.534
701.73	0.536
701.91	0.534
702.10	0.533
702.29	0.531
702.47	0.530
702.66	0.532
702.84	0.533
703.03	0.532
703.22	0.534
703.40	0.534
703.59	0.535
703.77	0.534
703.96	0.534
704.15	0.535
704.33	0.535
704.52	0.534
704.70	0.533
704.89	0.533
705.08	0.531
705.26	0.526
705.45	0.526
705.63	0.526
705.82	0.523
706.00	0.522
706.19	0.522
706.38	0.521
706.56	0.521
706.75	0.519
706.93	0.517
707.12	0.519
707.30	0.519
707.49	0.517
707.68	0.515
707.86	0.515
708.05	0.515
708.23	0.512
708.42	0.513
708.60	0.515
708.79	0.515
708.98	0.513
709.16	0.513
709.35	0.515
709.53	0.520
709.72	0.519
709.90	0.520
710.09	0.522
710.27	0.524
710.46	0.527
710.64	0.526
710.83	0.528
711.02	0.529
711.20	0.527
711.39	0.525
711.57	0.522
711.76	0.523
711.94	0.521
712.13	0.521
712.31	0.521
712.50	0.517
712.68	0.514
712.87	0.516
713.05	0.516
713.24	0.517
713.42	0.516
713.61	0.516
713.79	0.517
713.98	0.517
714.16	0.518
714.35	0.518
714.54	0.518
714.72	0.518
714.91	0.516
715.09	0.522
715.28	0.526
715.46	0.526
715.65	0.524
715.83	0.524
716.02	0.527
716.20	0.523
716.39	0.522
716.57	0.523
716.76	0.525
716.94	0.525
717.12	0.517
717.31	0.519
717.49	0.520
717.68	0.522
717.86	0.521
718.05	0.523
718.23	0.526
718.42	0.529
718.60	0.530
718.79	0.538
718.97	0.539
719.16	0.540
719.34	0.536
719.53	0.536
719.71	0.537
719.90	0.538
720.08	0.535
720.27	0.536
720.45	0.535
720.63	0.535
720.82	0.529
721.00	0.532
721.19	0.535
721.37	0.535
721.56	0.536
721.74	0.539
721.93	0.548
722.11	0.555
722.30	0.554
722.48	0.558
722.66	0.559
722.85	0.558
723.03	0.558
723.22	0.557
723.40	0.560
723.59	0.559
723.77	0.562
723.95	0.556
724.14	0.557
724.32	0.558
724.51	0.558
724.69	0.559
724.88	0.560
725.06	0.558
725.24	0.559
725.43	0.560
725.61	0.563
725.80	0.558
725.98	0.556
726.16	0.552
726.35	0.557
726.53	0.555
726.72	0.554
726.90	0.564
727.09	0.565
727.27	0.572
727.45	0.568
727.64	0.577
727.82	0.586
728.01	0.591
728.19	0.588
728.37	0.593
728.56	0.597
728.74	0.603
728.92	0.591
729.11	0.593
729.29	0.591
729.48	0.594
729.66	0.582
729.84	0.581
730.03	0.583
730.21	0.587
730.40	0.578
730.58	0.578
730.76	0.578
730.95	0.580
731.13	0.579
731.31	0.592
731.50	0.599
731.68	0.604
731.86	0.601
732.05	0.614
732.23	0.616
732.42	0.620
732.60	0.625
732.78	0.629
732.97	0.647
733.15	0.655
733.33	0.643
733.52	0.651
733.70	0.661
733.88	0.670
734.07	0.657
734.25	0.682
734.43	0.690
734.62	0.692
734.80	0.685
734.98	0.676
735.17	0.681
735.35	0.691
735.53	0.678
735.72	0.680
735.90	0.701
736.08	0.718
736.27	0.697
736.45	0.704
736.63	0.715
736.82	0.725
737.00	0.726
737.18	0.738
737.37	0.766
737.55	0.788
737.73	0.782
737.92	0.784
738.10	0.784
738.28	0.804
738.46	0.793
738.65	0.804
738.83	0.828
739.01	0.878
739.20	0.867
739.38	0.849
739.56	0.841
739.75	0.847
739.93	0.815
740.11	0.837
740.29	0.832
740.48	0.838
740.66	0.819
740.84	0.810
741.03	0.777
741.21	0.785
741.39	0.769
741.57	0.783
741.76	0.797
741.94	0.800
742.12	0.767
742.31	0.773
742.49	0.794
742.67	0.817
742.85	0.832
743.04	0.834
743.22	0.845
743.40	0.895
743.58	0.876
743.77	0.896
743.95	0.931
744.13	0.982
744.31	0.962
744.50	0.953
744.68	0.952
744.86	0.926
745.04	0.943
745.23	1.005
745.41	0.986
745.59	0.993
745.77	0.954
745.96	0.943
746.14	0.946
746.32	0.945
746.50	0.931
746.69	0.914
746.87	0.924
747.05	0.912
747.23	0.842
747.42	0.831
747.60	0.856
747.78	0.859
747.96	0.887
748.14	0.850
748.33	0.883
748.51	0.885
748.69	0.879
748.87	0.902
749.06	0.894
749.24	0.893
749.42	0.881
749.60	0.860
749.78	0.869
749.97	0.821
750.15	0.810
750.33	0.810
750.51	0.834
750.69	0.835
750.88	0.840
751.06	0.850
751.24	0.876
751.42	0.864
751.60	0.855
751.79	0.926
751.97	0.972
752.15	0.974
752.33	0.941
752.51	0.999
752.69	1.014
752.88	0.980
753.06	1.026
753.24	1.005
753.42	1.042
753.60	1.203
753.78	1.058
753.97	1.074
754.15	1.088
754.33	1.115
754.51	0.999
754.69	0.986
754.87	1.016
755.06	0.946
755.24	0.945
755.42	0.952
755.60	0.866
755.78	0.874
755.96	0.821
756.15	0.822
756.33	0.829
756.51	0.846
756.69	0.834
756.87	0.801
757.05	0.820
757.23	0.805
757.42	0.773
757.60	0.768
757.78	0.761
757.96	0.761
758.14	0.747
758.32	0.731
758.50	0.743
758.69	0.744
758.87	0.735
759.05	0.738
759.23	0.746
759.41	0.748
759.59	0.741
759.77	0.760
759.95	0.788
760.13	0.832
760.32	0.833
760.50	0.827
760.68	0.850
760.86	0.853
761.04	0.828
761.22	0.833
761.40	0.878
761.58	0.880
761.76	0.853
761.95	0.833
762.13	0.793
762.31	0.794
762.49	0.765
762.67	0.782
762.85	0.795
763.03	0.789
763.21	0.774
763.39	0.756
763.57	0.760
763.75	0.756
763.94	0.741
764.12	0.742
764.30	0.763
764.48	0.766
764.66	0.730
764.84	0.727
765.02	0.763
765.20	0.768
765.38	0.748
765.56	0.752
765.74	0.790
765.92	0.791
766.10	0.796
766.28	0.793
766.46	0.823
766.65	0.826
766.83	0.817
767.01	0.802
767.19	0.812
767.37	0.813
767.55	0.800
767.73	0.778
767.91	0.783
768.09	0.772
768.27	0.758
768.45	0.745
768.63	0.748
768.81	0.748
768.99	0.722
769.17	0.744
769.35	0.757
769.53	0.754
769.71	0.736
769.89	0.745
770.07	0.748
770.25	0.733
770.43	0.714
770.61	0.736
770.79	0.742
770.97	0.754
771.15	0.723
771.33	0.725
771.51	0.728
771.69	0.742
771.87	0.753
772.05	0.760
772.24	0.768
772.42	0.775
772.60	0.752
772.78	0.808
772.96	0.832
773.14	0.828
773.32	0.809
773.49	0.816
773.67	0.811
773.85	0.785
774.03	0.774
774.21	0.805
774.39	0.816
774.57	0.838
774.75	0.770
774.93	0.766
775.11	0.787
775.29	0.792
775.47	0.793
775.65	0.806
775.83	0.825
776.01	0.846
776.19	0.801
776.37	0.801
776.55	0.803
776.73	0.804
776.91	0.799
777.09	0.782
777.27	0.781
777.45	0.768
777.63	0.744
777.81	0.740
777.99	0.726
778.17	0.725
778.35	0.704
778.53	0.691
778.71	0.694
778.89	0.681
779.07	0.670
779.24	0.674
779.42	0.677
779.60	0.695
779.78	0.690
779.96	0.697
780.14	0.707
780.32	0.726
780.50	0.711
780.68	0.710
780.86	0.703
781.04	0.721
781.22	0.726
781.40	0.736
781.58	0.724
781.75	0.717
781.93	0.701
782.11	0.697
782.29	0.684
782.47	0.686
782.65	0.675
782.83	0.702
783.01	0.694
783.19	0.690
783.37	0.676
783.55	0.681
783.72	0.700
783.90	0.710
784.08	0.704
784.26	0.716
784.44	0.734
784.62	0.738
784.80	0.706
784.98	0.712
785.16	0.715
785.33	0.728
785.51	0.713
785.69	0.699
785.87	0.696
786.05	0.706
786.23	0.702
786.41	0.699
786.59	0.706
786.77	0.706
786.94	0.692
787.12	0.696
787.30	0.699
787.48	0.698
787.66	0.688
787.84	0.690
788.02	0.682
788.19	0.681
788.37	0.667
788.55	0.669
788.73	0.671
788.91	0.666
789.09	0.650
789.27	0.639
789.44	0.653
789.62	0.657
789.80	0.666
789.98	0.688
790.16	0.675
790.34	0.674
790.51	0.661
790.69	0.678
790.87	0.685
791.05	0.684
791.23	0.680
791.41	0.677
791.58	0.685
791.76	0.666
791.94	0.638
792.12	0.647
792.30	0.649
792.48	0.646
792.65	0.640
792.83	0.646
793.01	0.653
793.19	0.651
793.37	0.636
793.54	0.633
793.72	0.645
793.90	0.642
794.08	0.633
794.26	0.634
794.43	0.642
794.61	0.626
794.79	0.615
794.97	0.614
795.15	0.619
795.32	0.623
795.50	0.613
795.68	0.607
795.86	0.611
796.04	0.612
796.21	0.605
796.39	0.604
796.57	0.618
796.75	0.624
796.92	0.624
797.10	0.627
797.28	0.629
797.46	0.633
797.64	0.634
797.81	0.643
797.99	0.647
798.17	0.650
798.35	0.644
798.52	0.646
798.70	0.643
798.88	0.652
799.06	0.652
799.23	0.654
799.41	0.661
799.59	0.655
799.77	0.643
799.94	0.651
800.12	0.661
800.30	0.679
800.48	0.679
800.65	0.679
800.83	0.668
801.01	0.660
801.19	0.660
801.36	0.658
801.54	0.659
801.72	0.668
801.90	0.654
802.07	0.649
802.25	0.635
802.43	0.619
802.60	0.617
802.78	0.625
802.96	0.631
803.14	0.625
803.31	0.624
803.49	0.625
803.67	0.622
803.84	0.627
804.02	0.620
804.20	0.624
804.38	0.631
804.55	0.627
804.73	0.613
804.91	0.612
805.08	0.624
805.26	0.619
805.44	0.683
805.61	0.686
805.79	0.687
805.97	0.685
806.15	0.674
806.32	0.669
806.50	0.676
806.68	0.676
806.85	0.669
807.03	0.660
807.21	0.677
807.38	0.611
807.56	0.601
807.74	0.610
807.91	0.616
808.09	0.619
808.27	0.636
808.44	0.661
808.62	0.671
808.80	0.672
808.97	0.667
809.15	0.662
809.33	0.677
809.50	0.684
809.68	0.669
809.86	0.677
810.03	0.708
810.21	0.688
810.39	0.669
810.56	0.675
810.74	0.700
810.91	0.770
811.09	0.760
811.27	0.781
811.44	0.788
811.62	0.792
811.80	0.776
811.97	0.746
812.15	0.749
812.33	0.744
812.50	0.731
812.68	0.718
812.85	0.663
813.03	0.664
813.21	0.632
813.38	0.625
813.56	0.626
813.74	0.636
813.91	0.643
814.09	0.671
814.26	0.665
814.44	0.667
814.62	0.657
814.79	0.660
814.97	0.666
815.14	0.670
815.32	0.674
815.50	0.691
815.67	0.692
815.85	0.683
816.02	0.671
816.20	0.678
816.38	0.692
816.55	0.696
816.73	0.696
816.90	0.705
817.08	0.734
817.26	0.741
817.43	0.721
817.61	0.745
817.78	0.763
817.96	0.744
818.13	0.735
818.31	0.735
818.49	0.746
818.66	0.733
818.84	0.719
819.01	0.698
819.19	0.702
819.36	0.705
819.54	0.676
819.71	0.712
819.89	0.721
820.07	0.733
820.24	0.727
820.42	0.730
820.59	0.750
820.77	0.774
820.94	0.765
821.12	0.784
821.29	0.797
821.47	0.798
821.64	0.741
821.82	0.757
822.00	0.750
822.17	0.746
822.35	0.739
822.52	0.740
822.70	0.726
822.87	0.734
823.05	0.713
823.22	0.726
823.40	0.752
823.57	0.769
823.75	0.753
823.92	0.780
824.10	0.799
824.27	0.836
824.45	0.824
824.62	0.885
824.80	0.900
824.97	0.913
825.15	0.901
825.32	0.918
825.50	0.924
825.67	0.930
825.85	0.903
826.02	0.920
826.20	0.945
826.37	1.066
826.55	0.992
826.72	1.168
826.90	1.242
827.07	1.286
827.25	1.220
827.42	1.375
827.60	1.537
827.77	1.739
827.95	1.665
828.12	1.790
828.30	1.405
828.47	1.524
828.65	1.177
828.82	1.212
829.00	1.269
829.17	1.353
829.34	1.336
829.52	1.352
829.69	-0.000
829.87	-0.000
830.04	-0.000
830.22	-0.000
830.39	-0.000
830.57	-0.000
830.74	-0.000
830.92	-0.000
831.09	-0.000
831.26	-0.000
831.44	-0.000
831.61	-0.000
831.79	-0.000
831.96	-0.000
832.14	-0.000
832.31	-0.000
832.49	-0.000
832.66	-0.000
832.83	-0.000
833.01	-0.000
833.18	-0.000
833.36	-0.000
833.53	-0.000
833.70	-0.000
833.88	-0.000
834.05	-0.000
834.23	-0.000
834.40	-0.000
834.58	-0.000
834.75	-0.000
834.92	-0.000
835.10	-0.000
835.27	-0.000
835.45	-0.000
835.62	-0.000
835.79	-0.000
835.97	-0.000
836.14	-0.000
836.32	-0.000
836.49	-0.000
836.66	-0.000
836.84	-0.000
837.01	-0.000
837.18	-0.000
837.36	-0.000
837.53	-0.000
837.71	-0.000
837.88	-0.000
838.05	-0.000
838.23	-0.000
838.40	-0.000
838.58	-0.000
838.75	-0.000
838.92	-0.000
839.10	-0.000
839.27	-0.000
839.44	-0.000
839.62	-0.000
839.79	-0.000
839.96	-0.000
840.14	-0.000
840.31	-0.000
840.48	-0.000
840.66	-0.000
840.83	-0.000
841.01	-0.000
841.18	-0.000
841.35	-0.000
841.53	-0.000
841.70	-0.000
841.87	-0.000
842.05	-0.000
842.22	-0.000
842.39	-0.000
842.57	-0.000
842.74	-0.000
842.91	-0.000
843.09	-0.000
843.26	-0.000
843.43	-0.000
843.60	-0.000
843.78	-0.000
843.95	-0.000
844.12	-0.000
844.30	-0.000
844.47	-0.000
844.64	-0.000
844.82	-0.000
844.99	-0.000
845.16	-0.000
845.34	-0.000
845.51	-0.000
845.68	-0.000
845.85	-0.000
846.03	-0.000
846.20	-0.000
846.37	-0.000
846.55	-0.000
846.72	-0.000
846.89	-0.000
847.06	-0.000
847.24	-0.000
847.41	-0.000
847.58	-0.000
847.76	-0.000
847.93	-0.000
848.10	-0.000
848.27	-0.000
848.45	-0.000
848.62	-0.000
848.79	-0.000
848.97	-0.000
849.14	-0.000
849.31	-0.000
849.48	-0.000
849.66	-0.000
849.83	-0.000
850.00	-0.000
850.17	-0.000
850.35	-0.000
850.52	-0.000
850.69	-0.000
850.86	-0.000
851.04	-0.000
851.21	-0.000
851.38	-0.000
851.55	-0.000
851.72	-0.000
851.90	-0.000
852.07	-0.000
852.24	-0.000
852.41	-0.000
852.59	-0.000
852.76	-0.000
852.93	-0.000
853.10	-0.000
853.28	-0.000
853.45	-0.000
853.62	-0.000
853.79	-0.000
853.96	-0.000
854.14	-0.000
854.31	-0.000
854.48	-0.000
854.65	-0.000
854.82	-0.000
855.00	-0.000
855.17	-0.000
855.34	-0.000
855.51	-0.000
855.68	-0.000
855.86	-0.000
856.03	-0.000
856.20	-0.000
856.37	-0.000
856.54	-0.000
856.72	-0.000
856.89	-0.000
857.06	-0.000
857.23	-0.000
857.40	-0.000
857.57	-0.000
857.75	-0.000
857.92	-0.000
858.09	-0.000
858.26	-0.000
858.43	-0.000
858.60	-0.000
858.78	-0.000
858.95	-0.000
859.12	-0.000
859.29	-0.000
859.46	-0.000
859.63	-0.000
859.81	-0.000
859.98	-0.000
860.15	-0.000
860.32	-0.000
860.49	-0.000
860.66	-0.000
860.83	-0.000
861.01	-0.000
861.18	-0.000
861.35	-0.000
861.52	-0.000
861.69	-0.000
861.86	-0.000
862.03	-0.000
862.21	-0.000
862.38	-0.000
862.55	-0.000
862.72	-0.000
862.89	-0.000
863.06	-0.000
863.23	-0.000
863.40	-0.000
863.58	-0.000
863.75	-0.000
863.92	-0.000
864.09	-0.000
864.26	-0.000
864.43	-0.000
864.60	-0.000
864.77	-0.000
864.94	-0.000
865.11	-0.000
865.29	-0.000
865.46	-0.000
865.63	-0.000
865.80	-0.000
865.97	-0.000
866.14	-0.000
866.31	-0.000
866.48	-0.000
866.65	-0.000
866.82	-0.000
866.99	-0.000
867.16	-0.000
867.34	-0.000
867.51	-0.000
867.68	-0.000
867.85	-0.000
868.02	-0.000
868.19	-0.000
868.36	-0.000
868.53	-0.000
868.70	-0.000
868.87	-0.000
869.04	-0.000
869.21	-0.000
869.38	-0.000
869.55	-0.000
869.72	-0.000
869.89	-0.000
870.06	-0.000
870.24	-0.000
870.41	-0.000
870.58	-0.000
870.75	-0.000
870.92	-0.000
871.09	-0.000
871.26	-0.000
871.43	-0.000
871.60	-0.000
871.77	-0.000
871.94	-0.000
872.11	-0.000
872.28	-0.000
872.45	-0.000
872.62	-0.000
872.79	-0.000
872.96	-0.000
873.13	-0.000
873.30	-0.000
873.47	-0.000
873.64	-0.000
873.81	-0.000
873.98	-0.000
874.15	-0.000
874.32	-0.000
874.49	-0.000
874.66	-0.000
874.83	-0.000
875.00	-0.000
875.17	-0.000
875.34	-0.000
875.51	-0.000
875.68	-0.000
875.85	-0.000
876.02	-0.000
876.19	-0.000
876.36	-0.000
876.53	-0.000
876.70	-0.000
876.87	-0.000
877.04	-0.000
877.21	-0.000
877.38	-0.000
877.55	-0.000
877.72	-0.000
877.89	-0.000
878.06	-0.000
878.23	-0.000
878.39	-0.000
878.56	-0.000
878.73	-0.000
878.90	-0.000
879.07	-0.000
879.24	-0.000
879.41	-0.000
879.58	-0.000
879.75	-0.000
879.92	-0.000
880.09	-0.000
880.26	-0.000
880.43	-0.000
880.60	-0.000
880.77	-0.000
880.94	-0.000
881.11	-0.000
881.27	-0.000
881.44	-0.000
881.61	-0.000
881.78	-0.000
881.95	-0.000
882.12	-0.000
882.29	-0.000
882.46	-0.000
882.63	-0.000
882.80	-0.000
882.97	-0.000
883.14	-0.000
883.30	-0.000
883.47	-0.000
883.64	-0.000
883.81	-0.000
883.98	-0.000
884.15	-0.000
884.32	-0.000
884.49	-0.000
884.66	-0.000
884.82	-0.000
884.99	-0.000
885.16	-0.000
885.33	-0.000
885.50	-0.000
885.67	-0.000
885.84	-0.000
886.01	-0.000
886.17	-0.000
886.34	-0.000
886.51	-0.000
886.68	-0.000
886.85	-0.000
887.02	-0.000
887.19	-0.000
887.36	-0.000
887.52	-0.000
887.69	-0.000
887.86	-0.000
888.03	-0.000
888.20	-0.000
888.37	-0.000
888.54	-0.000
888.70	-0.000
888.87	-0.000
889.04	-0.000
889.21	-0.000
889.38	-0.000
889.55	-0.000
889.71	-0.000
889.88	-0.000
890.05	-0.000
890.22	-0.000
890.39	-0.000
>>>>>End Processed Spectral Data<<<<<
