SpectraSuite Data File
++++++++++++++++++++++++++++++++++++
Date: Fri Jun 19 12:30:16 CEST 2015
User: introlabs
Dark Spectrum Present: Yes
Reference Spectrum Present: Yes
Number of Sampled Component Spectra: 1
Spectrometers: USB4H08886
Integration Time (usec): 745692 (USB4H08886)
Spectra Averaged: 5 (USB4H08886)
Boxcar Smoothing: 5 (USB4H08886)
Correct for Electrical Dark: Yes (USB4H08886)
Strobe/Lamp Enabled: No (USB4H08886)
Correct for Detector Non-linearity: Yes (USB4H08886)
Correct for Stray Light: Yes (USB4H08886)
Number of Pixels in Processed Spectrum: 3648
>>>>>Begin Processed Spectral Data<<<<<
178.14	-0.000
178.36	-0.000
178.57	-0.000
178.79	-0.000
179.01	-0.000
179.22	-0.000
179.44	-0.000
179.65	-0.000
179.87	-0.000
180.08	-0.000
180.30	-0.000
180.52	-0.000
180.73	-0.000
180.95	-0.000
181.16	-0.000
181.38	-0.000
181.59	-0.000
181.81	-0.000
182.03	-0.000
182.24	-0.000
182.46	-0.000
182.67	-0.000
182.89	-0.000
183.10	-0.000
183.32	-0.000
183.54	-0.000
183.75	-0.000
183.97	-0.000
184.18	-0.000
184.40	-0.000
184.61	-0.000
184.83	-0.000
185.04	-0.000
185.26	-0.000
185.48	-0.000
185.69	-0.000
185.91	-0.000
186.12	-0.000
186.34	-0.000
186.55	-0.000
186.77	-0.000
186.98	-0.000
187.20	-0.000
187.42	-0.000
187.63	-0.000
187.85	-0.000
188.06	-0.000
188.28	-0.000
188.49	-0.000
188.71	-0.000
188.92	-0.000
189.14	-0.000
189.36	-0.000
189.57	-0.000
189.79	-0.000
190.00	-0.000
190.22	-0.000
190.43	-0.000
190.65	-0.000
190.86	-0.000
191.08	-0.000
191.29	-0.000
191.51	-0.000
191.72	-0.000
191.94	-0.000
192.16	-0.000
192.37	-0.000
192.59	-0.000
192.80	-0.000
193.02	-0.000
193.23	-0.000
193.45	-0.000
193.66	-0.000
193.88	-0.000
194.09	-0.000
194.31	-0.000
194.52	-0.000
194.74	-0.000
194.95	-0.000
195.17	-0.000
195.38	-0.000
195.60	-0.000
195.81	-0.000
196.03	-0.000
196.25	-0.000
196.46	-0.000
196.68	-0.000
196.89	-0.000
197.11	-0.000
197.32	-0.000
197.54	-0.000
197.75	-0.000
197.97	-0.000
198.18	-0.000
198.40	-0.000
198.61	-0.000
198.83	-0.000
199.04	-0.000
199.26	-0.000
199.47	-0.000
199.69	-0.000
199.90	-0.000
200.12	-0.000
200.33	-0.000
200.55	-0.000
200.76	-0.000
200.98	-0.000
201.19	-0.000
201.41	-0.000
201.62	-0.000
201.84	-0.000
202.05	-0.000
202.27	-0.000
202.48	-0.000
202.70	-0.000
202.91	-0.000
203.13	-0.000
203.34	-0.000
203.56	-0.000
203.77	-0.000
203.99	-0.000
204.20	-0.000
204.42	-0.000
204.63	-0.000
204.85	-0.000
205.06	-0.000
205.28	-0.000
205.49	-0.000
205.71	-0.000
205.92	-0.000
206.14	-0.000
206.35	-0.000
206.56	-0.000
206.78	-0.000
206.99	-0.000
207.21	-0.000
207.42	-0.000
207.64	-0.000
207.85	-0.000
208.07	-0.000
208.28	-0.000
208.50	-0.000
208.71	-0.000
208.93	-0.000
209.14	-0.000
209.36	-0.000
209.57	-0.000
209.79	-0.000
210.00	-0.000
210.22	-0.000
210.43	-0.000
210.64	-0.000
210.86	-0.000
211.07	-0.000
211.29	-0.000
211.50	-0.000
211.72	-0.000
211.93	-0.000
212.15	-0.000
212.36	-0.000
212.58	-0.000
212.79	-0.000
213.01	-0.000
213.22	-0.000
213.43	-0.000
213.65	-0.000
213.86	-0.000
214.08	-0.000
214.29	-0.000
214.51	-0.000
214.72	-0.000
214.94	-0.000
215.15	-0.000
215.36	-0.000
215.58	-0.000
215.79	-0.000
216.01	-0.000
216.22	-0.000
216.44	-0.000
216.65	-0.000
216.87	-0.000
217.08	-0.000
217.29	-0.000
217.51	-0.000
217.72	-0.000
217.94	-0.000
218.15	-0.000
218.37	-0.000
218.58	-0.000
218.80	-0.000
219.01	-0.000
219.22	-0.000
219.44	-0.000
219.65	-0.000
219.87	-0.000
220.08	-0.000
220.30	-0.000
220.51	-0.000
220.72	-0.000
220.94	-0.000
221.15	-0.000
221.37	-0.000
221.58	-0.000
221.79	-0.000
222.01	-0.000
222.22	-0.000
222.44	-0.000
222.65	-0.000
222.87	-0.000
223.08	-0.000
223.29	-0.000
223.51	-0.000
223.72	-0.000
223.94	-0.000
224.15	-0.000
224.36	-0.000
224.58	-0.000
224.79	-0.000
225.01	-0.000
225.22	-0.000
225.44	-0.000
225.65	-0.000
225.86	-0.000
226.08	-0.000
226.29	-0.000
226.51	-0.000
226.72	-0.000
226.93	-0.000
227.15	-0.000
227.36	-0.000
227.58	-0.000
227.79	-0.000
228.00	-0.000
228.22	-0.000
228.43	-0.000
228.65	-0.000
228.86	-0.000
229.07	-0.000
229.29	-0.000
229.50	-0.000
229.72	-0.000
229.93	-0.000
230.14	-0.000
230.36	-0.000
230.57	-0.000
230.78	-0.000
231.00	-0.000
231.21	-0.000
231.43	-0.000
231.64	-0.000
231.85	-0.000
232.07	-0.000
232.28	-0.000
232.50	-0.000
232.71	-0.000
232.92	-0.000
233.14	-0.000
233.35	-0.000
233.56	-0.000
233.78	-0.000
233.99	-0.000
234.21	-0.000
234.42	-0.000
234.63	-0.000
234.85	-0.000
235.06	-0.000
235.27	-0.000
235.49	-0.000
235.70	-0.000
235.91	-0.000
236.13	-0.000
236.34	-0.000
236.56	-0.000
236.77	-0.000
236.98	-0.000
237.20	-0.000
237.41	-0.000
237.62	-0.000
237.84	-0.000
238.05	-0.000
238.26	-0.000
238.48	-0.000
238.69	-0.000
238.91	-0.000
239.12	-0.000
239.33	-0.000
239.55	-0.000
239.76	-0.000
239.97	-0.000
240.19	-0.000
240.40	-0.000
240.61	-0.000
240.83	-0.000
241.04	-0.000
241.25	-0.000
241.47	-0.000
241.68	-0.000
241.89	-0.000
242.11	-0.000
242.32	-0.000
242.53	-0.000
242.75	-0.000
242.96	-0.000
243.17	-0.000
243.39	-0.000
243.60	-0.000
243.81	-0.000
244.03	-0.000
244.24	-0.000
244.45	-0.000
244.67	-0.000
244.88	-0.000
245.09	-0.000
245.31	-0.000
245.52	-0.000
245.73	-0.000
245.95	-0.000
246.16	-0.000
246.37	-0.000
246.59	-0.000
246.80	-0.000
247.01	-0.000
247.23	-0.000
247.44	-0.000
247.65	-0.000
247.87	-0.000
248.08	-0.000
248.29	-0.000
248.51	-0.000
248.72	-0.000
248.93	-0.000
249.15	-0.000
249.36	-0.000
249.57	-0.000
249.78	-0.000
250.00	-0.000
250.21	-0.000
250.42	-0.000
250.64	-0.000
250.85	-0.000
251.06	-0.000
251.28	-0.000
251.49	-0.000
251.70	-0.000
251.92	-0.000
252.13	-0.000
252.34	-0.000
252.55	-0.000
252.77	-0.000
252.98	-0.000
253.19	-0.000
253.41	-0.000
253.62	-0.000
253.83	-0.000
254.05	-0.000
254.26	-0.000
254.47	-0.000
254.68	-0.000
254.90	-0.000
255.11	-0.000
255.32	-0.000
255.54	-0.000
255.75	-0.000
255.96	-0.000
256.17	-0.000
256.39	-0.000
256.60	-0.000
256.81	-0.000
257.03	-0.000
257.24	-0.000
257.45	-0.000
257.66	-0.000
257.88	-0.000
258.09	-0.000
258.30	-0.000
258.51	-0.000
258.73	-0.000
258.94	-0.000
259.15	-0.000
259.37	-0.000
259.58	-0.000
259.79	-0.000
260.00	-0.000
260.22	-0.000
260.43	-0.000
260.64	-0.000
260.85	-0.000
261.07	-0.000
261.28	-0.000
261.49	-0.000
261.71	-0.000
261.92	-0.000
262.13	-0.000
262.34	-0.000
262.56	-0.000
262.77	-0.000
262.98	-0.000
263.19	-0.000
263.41	-0.000
263.62	-0.000
263.83	-0.000
264.04	-0.000
264.26	-0.000
264.47	-0.000
264.68	-0.000
264.89	-0.000
265.11	-0.000
265.32	-0.000
265.53	-0.000
265.74	-0.000
265.96	-0.000
266.17	-0.000
266.38	-0.000
266.59	-0.000
266.81	-0.000
267.02	-0.000
267.23	-0.000
267.44	-0.000
267.65	-0.000
267.87	-0.000
268.08	-0.000
268.29	-0.000
268.50	-0.000
268.72	-0.000
268.93	-0.000
269.14	-0.000
269.35	-0.000
269.57	-0.000
269.78	-0.000
269.99	-0.000
270.20	-0.000
270.41	-0.000
270.63	-0.000
270.84	-0.000
271.05	-0.000
271.26	-0.000
271.48	-0.000
271.69	-0.000
271.90	-0.000
272.11	-0.000
272.32	-0.000
272.54	-0.000
272.75	-0.000
272.96	-0.000
273.17	-0.000
273.39	-0.000
273.60	-0.000
273.81	-0.000
274.02	-0.000
274.23	-0.000
274.45	-0.000
274.66	-0.000
274.87	-0.000
275.08	-0.000
275.29	-0.000
275.51	-0.000
275.72	-0.000
275.93	-0.000
276.14	-0.000
276.35	-0.000
276.57	-0.000
276.78	-0.000
276.99	-0.000
277.20	-0.000
277.41	-0.000
277.63	-0.000
277.84	-0.000
278.05	-0.000
278.26	-0.000
278.47	-0.000
278.69	-0.000
278.90	-0.000
279.11	-0.000
279.32	-0.000
279.53	-0.000
279.74	-0.000
279.96	-0.000
280.17	-0.000
280.38	-0.000
280.59	-0.000
280.80	-0.000
281.02	-0.000
281.23	-0.000
281.44	-0.000
281.65	-0.000
281.86	-0.000
282.07	-0.000
282.29	-0.000
282.50	-0.000
282.71	-0.000
282.92	-0.000
283.13	-0.000
283.35	-0.000
283.56	-0.000
283.77	-0.000
283.98	-0.000
284.19	-0.000
284.40	-0.000
284.62	-0.000
284.83	-0.000
285.04	-0.000
285.25	-0.000
285.46	-0.000
285.67	-0.000
285.88	-0.000
286.10	-0.000
286.31	-0.000
286.52	-0.000
286.73	-0.000
286.94	-0.000
287.15	-0.000
287.37	-0.000
287.58	-0.000
287.79	-0.000
288.00	-0.000
288.21	-0.000
288.42	-0.000
288.63	-0.000
288.85	-0.000
289.06	-0.000
289.27	-0.000
289.48	-0.000
289.69	-0.000
289.90	-0.000
290.11	-0.000
290.33	-0.000
290.54	-0.000
290.75	-0.000
290.96	-0.000
291.17	-0.000
291.38	-0.000
291.59	-0.000
291.81	-0.000
292.02	-0.000
292.23	-0.000
292.44	-0.000
292.65	2.599
292.86	-0.000
293.07	-0.000
293.28	2.055
293.50	2.222
293.71	3.322
293.92	2.500
294.13	2.902
294.34	3.215
294.55	-0.000
294.76	-0.000
294.97	2.233
295.19	2.696
295.40	-0.000
295.61	-0.000
295.82	2.109
296.03	1.897
296.24	1.996
296.45	1.675
296.66	1.483
296.87	1.483
297.09	1.537
297.30	1.623
297.51	1.432
297.72	1.408
297.93	1.471
298.14	1.455
298.35	1.419
298.56	1.401
298.77	1.484
298.99	1.476
299.20	1.453
299.41	1.433
299.62	1.419
299.83	1.417
300.04	1.368
300.25	1.358
300.46	1.393
300.67	1.372
300.88	1.328
301.10	1.323
301.31	1.372
301.52	1.333
301.73	1.290
301.94	1.292
302.15	1.310
302.36	1.277
302.57	1.227
302.78	1.230
302.99	1.262
303.20	1.278
303.41	1.213
303.63	1.202
303.84	1.213
304.05	1.211
304.26	1.161
304.47	1.168
304.68	1.178
304.89	1.171
305.10	1.136
305.31	1.127
305.52	1.159
305.73	1.153
305.94	1.120
306.15	1.114
306.37	1.134
306.58	1.141
306.79	1.112
307.00	1.125
307.21	1.158
307.42	1.152
307.63	1.121
307.84	1.097
308.05	1.128
308.26	1.127
308.47	1.102
308.68	1.097
308.89	1.100
309.10	1.098
309.31	1.064
309.52	1.058
309.73	1.071
309.95	1.067
310.16	1.044
310.37	1.039
310.58	1.054
310.79	1.055
311.00	1.049
311.21	1.052
311.42	1.055
311.63	1.053
311.84	1.036
312.05	1.035
312.26	1.056
312.47	1.065
312.68	1.041
312.89	1.030
313.10	1.041
313.31	1.018
313.52	1.014
313.73	1.015
313.94	1.019
314.15	1.006
314.36	0.988
314.57	0.982
314.78	0.972
314.99	0.969
315.21	0.956
315.42	0.957
315.63	0.972
315.84	0.955
316.05	0.941
316.26	0.948
316.47	0.965
316.68	0.960
316.89	0.943
317.10	0.961
317.31	0.966
317.52	0.966
317.73	0.948
317.94	0.947
318.15	0.990
318.36	0.990
318.57	0.972
318.78	0.963
318.99	0.994
319.20	0.992
319.41	0.961
319.62	0.962
319.83	0.973
320.04	0.968
320.25	0.953
320.46	0.921
320.67	0.926
320.88	0.922
321.09	0.908
321.30	0.896
321.51	0.910
321.72	0.908
321.93	0.894
322.14	0.889
322.35	0.914
322.56	0.917
322.77	0.904
322.98	0.914
323.19	0.923
323.40	0.929
323.61	0.908
323.82	0.905
324.03	0.911
324.24	0.908
324.45	0.895
324.66	0.879
324.87	0.877
325.08	0.877
325.29	0.857
325.50	0.852
325.71	0.858
325.92	0.865
326.13	0.852
326.34	0.853
326.55	0.861
326.76	0.861
326.97	0.852
327.18	0.847
327.39	0.870
327.60	0.871
327.80	0.868
328.01	0.867
328.22	0.868
328.43	0.871
328.64	0.859
328.85	0.863
329.06	0.867
329.27	0.866
329.48	0.861
329.69	0.845
329.90	0.855
330.11	0.849
330.32	0.843
330.53	0.837
330.74	0.839
330.95	0.839
331.16	0.825
331.37	0.830
331.58	0.831
331.79	0.831
332.00	0.822
332.21	0.816
332.42	0.821
332.63	0.814
332.83	0.808
333.04	0.809
333.25	0.821
333.46	0.819
333.67	0.807
333.88	0.811
334.09	0.819
334.30	0.817
334.51	0.808
334.72	0.804
334.93	0.808
335.14	0.808
335.35	0.801
335.56	0.797
335.77	0.806
335.98	0.804
336.18	0.796
336.39	0.791
336.60	0.796
336.81	0.794
337.02	0.792
337.23	0.796
337.44	0.800
337.65	0.801
337.86	0.791
338.07	0.788
338.28	0.794
338.49	0.791
338.70	0.783
338.91	0.788
339.11	0.797
339.32	0.795
339.53	0.783
339.74	0.780
339.95	0.778
340.16	0.777
340.37	0.769
340.58	0.767
340.79	0.773
341.00	0.774
341.21	0.763
341.41	0.763
341.62	0.765
341.83	0.767
342.04	0.762
342.25	0.772
342.46	0.776
342.67	0.774
342.88	0.767
343.09	0.767
343.30	0.775
343.50	0.778
343.71	0.768
343.92	0.766
344.13	0.771
344.34	0.771
344.55	0.756
344.76	0.754
344.97	0.761
345.18	0.760
345.38	0.756
345.59	0.750
345.80	0.751
346.01	0.749
346.22	0.744
346.43	0.739
346.64	0.747
346.85	0.747
347.06	0.741
347.26	0.740
347.47	0.746
347.68	0.742
347.89	0.738
348.10	0.733
348.31	0.741
348.52	0.741
348.73	0.738
348.93	0.734
349.14	0.737
349.35	0.737
349.56	0.731
349.77	0.727
349.98	0.733
350.19	0.732
350.39	0.727
350.60	0.723
350.81	0.739
351.02	0.737
351.23	0.734
351.44	0.736
351.65	0.740
351.86	0.737
352.06	0.735
352.27	0.734
352.48	0.736
352.69	0.736
352.90	0.731
353.11	0.719
353.31	0.726
353.52	0.722
353.73	0.715
353.94	0.716
354.15	0.723
354.36	0.722
354.57	0.714
354.77	0.717
354.98	0.717
355.19	0.717
355.40	0.715
355.61	0.720
355.82	0.725
356.02	0.725
356.23	0.718
356.44	0.719
356.65	0.724
356.86	0.725
357.07	0.719
357.27	0.723
357.48	0.726
357.69	0.722
357.90	0.708
358.11	0.706
358.32	0.711
358.52	0.714
358.73	0.704
358.94	0.707
359.15	0.711
359.36	0.712
359.56	0.706
359.77	0.704
359.98	0.711
360.19	0.710
360.40	0.706
360.61	0.706
360.81	0.706
361.02	0.706
361.23	0.698
361.44	0.698
361.65	0.699
361.85	0.699
362.06	0.696
362.27	0.698
362.48	0.699
362.69	0.701
362.89	0.695
363.10	0.695
363.31	0.701
363.52	0.704
363.73	0.698
363.93	0.699
364.14	0.702
364.35	0.704
364.56	0.694
364.77	0.696
364.97	0.700
365.18	0.700
365.39	0.695
365.60	0.692
365.81	0.693
366.01	0.692
366.22	0.688
366.43	0.688
366.64	0.691
366.84	0.697
367.05	0.693
367.26	0.693
367.47	0.695
367.68	0.696
367.88	0.692
368.09	0.692
368.30	0.695
368.51	0.695
368.71	0.694
368.92	0.697
369.13	0.695
369.34	0.695
369.55	0.694
369.75	0.694
369.96	0.701
370.17	0.702
370.38	0.697
370.58	0.696
370.79	0.703
371.00	0.702
371.21	0.693
371.41	0.699
371.62	0.703
371.83	0.698
372.04	0.695
372.24	0.688
372.45	0.689
372.66	0.690
372.87	0.686
373.07	0.684
373.28	0.685
373.49	0.688
373.70	0.678
373.90	0.677
374.11	0.687
374.32	0.686
374.53	0.685
374.73	0.686
374.94	0.689
375.15	0.690
375.36	0.686
375.56	0.694
375.77	0.695
375.98	0.696
376.19	0.693
376.39	0.686
376.60	0.691
376.81	0.691
377.02	0.687
377.22	0.686
377.43	0.686
377.64	0.686
377.84	0.678
378.05	0.682
378.26	0.688
378.47	0.686
378.67	0.683
378.88	0.680
379.09	0.682
379.30	0.682
379.50	0.679
379.71	0.681
379.92	0.685
380.12	0.683
380.33	0.675
380.54	0.671
380.75	0.679
380.95	0.680
381.16	0.676
381.37	0.677
381.57	0.679
381.78	0.679
381.99	0.678
382.20	0.678
382.40	0.682
382.61	0.682
382.82	0.678
383.02	0.671
383.23	0.675
383.44	0.675
383.64	0.672
383.85	0.674
384.06	0.677
384.27	0.675
384.47	0.672
384.68	0.673
384.89	0.679
385.09	0.679
385.30	0.677
385.51	0.676
385.71	0.680
385.92	0.681
386.13	0.679
386.33	0.681
386.54	0.682
386.75	0.680
386.95	0.675
387.16	0.671
387.37	0.674
387.58	0.674
387.78	0.672
387.99	0.670
388.20	0.673
388.40	0.670
388.61	0.666
388.82	0.669
389.02	0.672
389.23	0.672
389.44	0.669
389.64	0.669
389.85	0.679
390.06	0.678
390.26	0.678
390.47	0.676
390.68	0.679
390.88	0.676
391.09	0.672
391.30	0.671
391.50	0.671
391.71	0.672
391.92	0.668
392.12	0.662
392.33	0.663
392.53	0.662
392.74	0.662
392.95	0.662
393.15	0.665
393.36	0.666
393.57	0.664
393.77	0.667
393.98	0.668
394.19	0.668
394.39	0.667
394.60	0.667
394.81	0.669
395.01	0.667
395.22	0.664
395.43	0.665
395.63	0.669
395.84	0.670
396.04	0.665
396.25	0.667
396.46	0.670
396.66	0.668
396.87	0.664
397.08	0.661
397.28	0.663
397.49	0.665
397.69	0.661
397.90	0.656
398.11	0.658
398.31	0.659
398.52	0.655
398.73	0.655
398.93	0.655
399.14	0.654
399.34	0.653
399.55	0.655
399.76	0.655
399.96	0.657
400.17	0.654
400.37	0.653
400.58	0.659
400.79	0.660
400.99	0.658
401.20	0.663
401.41	0.666
401.61	0.667
401.82	0.670
402.02	0.669
402.23	0.670
402.44	0.670
402.64	0.669
402.85	0.664
403.05	0.664
403.26	0.663
403.47	0.656
403.67	0.655
403.88	0.656
404.08	0.650
404.29	0.648
404.50	0.647
404.70	0.648
404.91	0.647
405.11	0.643
405.32	0.643
405.52	0.644
405.73	0.643
405.94	0.641
406.14	0.643
406.35	0.646
406.55	0.646
406.76	0.643
406.97	0.644
407.17	0.647
407.38	0.647
407.58	0.644
407.79	0.647
407.99	0.650
408.20	0.651
408.41	0.647
408.61	0.645
408.82	0.646
409.02	0.646
409.23	0.643
409.43	0.642
409.64	0.643
409.84	0.643
410.05	0.639
410.26	0.638
410.46	0.637
410.67	0.637
410.87	0.637
411.08	0.639
411.28	0.641
411.49	0.642
411.69	0.640
411.90	0.641
412.11	0.643
412.31	0.644
412.52	0.642
412.72	0.643
412.93	0.644
413.13	0.643
413.34	0.640
413.54	0.641
413.75	0.643
413.95	0.643
414.16	0.640
414.37	0.642
414.57	0.643
414.78	0.646
414.98	0.643
415.19	0.644
415.39	0.642
415.60	0.644
415.80	0.643
416.01	0.641
416.21	0.644
416.42	0.644
416.62	0.639
416.83	0.640
417.03	0.640
417.24	0.640
417.44	0.638
417.65	0.637
417.86	0.638
418.06	0.636
418.27	0.633
418.47	0.635
418.68	0.636
418.88	0.637
419.09	0.634
419.29	0.635
419.50	0.636
419.70	0.635
419.91	0.633
420.11	0.631
420.32	0.634
420.52	0.634
420.73	0.632
420.93	0.633
421.14	0.634
421.34	0.633
421.55	0.630
421.75	0.630
421.96	0.632
422.16	0.633
422.37	0.632
422.57	0.629
422.78	0.632
422.98	0.629
423.19	0.626
423.39	0.626
423.60	0.630
423.80	0.631
424.01	0.630
424.21	0.632
424.42	0.633
424.62	0.633
424.83	0.632
425.03	0.632
425.23	0.635
425.44	0.635
425.64	0.635
425.85	0.634
426.05	0.635
426.26	0.636
426.46	0.633
426.67	0.632
426.87	0.637
427.08	0.637
427.28	0.634
427.49	0.635
427.69	0.637
427.90	0.636
428.10	0.633
428.31	0.633
428.51	0.634
428.71	0.634
428.92	0.635
429.12	0.633
429.33	0.633
429.53	0.637
429.74	0.640
429.94	0.640
430.15	0.640
430.35	0.640
430.56	0.637
430.76	0.637
430.96	0.638
431.17	0.635
431.37	0.632
431.58	0.631
431.78	0.629
431.99	0.623
432.19	0.624
432.40	0.626
432.60	0.627
432.80	0.629
433.01	0.627
433.21	0.628
433.42	0.631
433.62	0.631
433.83	0.631
434.03	0.633
434.23	0.637
434.44	0.636
434.64	0.634
434.85	0.639
435.05	0.640
435.26	0.641
435.46	0.638
435.66	0.637
435.87	0.638
436.07	0.638
436.28	0.633
436.48	0.631
436.69	0.631
436.89	0.631
437.09	0.625
437.30	0.624
437.50	0.624
437.71	0.636
437.91	0.635
438.11	0.637
438.32	0.641
438.52	0.642
438.73	0.640
438.93	0.638
439.13	0.639
439.34	0.642
439.54	0.640
439.75	0.640
439.95	0.631
440.15	0.636
440.36	0.634
440.56	0.632
440.77	0.633
440.97	0.633
441.17	0.632
441.38	0.633
441.58	0.631
441.79	0.631
441.99	0.629
442.19	0.629
442.40	0.627
442.60	0.627
442.81	0.625
443.01	0.625
443.21	0.626
443.42	0.625
443.62	0.624
443.82	0.624
444.03	0.626
444.23	0.626
444.44	0.625
444.64	0.624
444.84	0.626
445.05	0.626
445.25	0.624
445.45	0.624
445.66	0.628
445.86	0.627
446.06	0.627
446.27	0.627
446.47	0.630
446.68	0.629
446.88	0.628
447.08	0.627
447.29	0.629
447.49	0.629
447.69	0.628
447.90	0.627
448.10	0.631
448.30	0.629
448.51	0.630
448.71	0.627
448.91	0.630
449.12	0.629
449.32	0.630
449.52	0.629
449.73	0.633
449.93	0.633
450.14	0.633
450.34	0.633
450.54	0.636
450.75	0.633
450.95	0.633
451.15	0.633
451.36	0.636
451.56	0.633
451.76	0.631
451.97	0.629
452.17	0.629
452.37	0.628
452.58	0.624
452.78	0.624
452.98	0.626
453.19	0.626
453.39	0.626
453.59	0.625
453.79	0.626
454.00	0.626
454.20	0.625
454.40	0.625
454.61	0.628
454.81	0.628
455.01	0.626
455.22	0.627
455.42	0.630
455.62	0.628
455.83	0.627
456.03	0.631
456.23	0.633
456.44	0.634
456.64	0.632
456.84	0.632
457.04	0.634
457.25	0.633
457.45	0.630
457.65	0.628
457.86	0.630
458.06	0.627
458.26	0.622
458.47	0.621
458.67	0.623
458.87	0.622
459.07	0.620
459.28	0.622
459.48	0.625
459.68	0.626
459.89	0.624
460.09	0.624
460.29	0.627
460.49	0.629
460.70	0.628
460.90	0.628
461.10	0.629
461.31	0.628
461.51	0.625
461.71	0.626
461.91	0.629
462.12	0.629
462.32	0.626
462.52	0.627
462.72	0.630
462.93	0.630
463.13	0.628
463.33	0.629
463.53	0.631
463.74	0.630
463.94	0.626
464.14	0.626
464.35	0.628
464.55	0.628
464.75	0.626
464.95	0.624
465.16	0.626
465.36	0.625
465.56	0.624
465.76	0.623
465.97	0.625
466.17	0.626
466.37	0.623
466.57	0.624
466.78	0.626
466.98	0.626
467.18	0.623
467.38	0.622
467.59	0.625
467.79	0.626
467.99	0.625
468.19	0.625
468.39	0.629
468.60	0.629
468.80	0.627
469.00	0.629
469.20	0.630
469.41	0.630
469.61	0.629
469.81	0.629
470.01	0.629
470.22	0.629
470.42	0.627
470.62	0.625
470.82	0.627
471.02	0.626
471.23	0.624
471.43	0.626
471.63	0.628
471.83	0.628
472.04	0.626
472.24	0.625
472.44	0.630
472.64	0.630
472.84	0.628
473.05	0.627
473.25	0.630
473.45	0.629
473.65	0.626
473.85	0.627
474.06	0.628
474.26	0.628
474.46	0.628
474.66	0.625
474.86	0.627
475.07	0.627
475.27	0.624
475.47	0.622
475.67	0.623
475.87	0.625
476.08	0.622
476.28	0.623
476.48	0.624
476.68	0.623
476.88	0.621
477.09	0.622
477.29	0.624
477.49	0.624
477.69	0.623
477.89	0.624
478.09	0.624
478.30	0.626
478.50	0.623
478.70	0.623
478.90	0.623
479.10	0.626
479.31	0.627
479.51	0.625
479.71	0.625
479.91	0.626
480.11	0.624
480.31	0.624
480.52	0.624
480.72	0.624
480.92	0.622
481.12	0.622
481.32	0.620
481.52	0.618
481.72	0.618
481.93	0.621
482.13	0.622
482.33	0.622
482.53	0.620
482.73	0.620
482.93	0.622
483.14	0.621
483.34	0.620
483.54	0.620
483.74	0.620
483.94	0.619
484.14	0.614
484.34	0.614
484.55	0.615
484.75	0.615
484.95	0.613
485.15	0.613
485.35	0.613
485.55	0.613
485.75	0.611
485.96	0.612
486.16	0.614
486.36	0.614
486.56	0.612
486.76	0.612
486.96	0.613
487.16	0.613
487.36	0.611
487.57	0.611
487.77	0.612
487.97	0.613
488.17	0.611
488.37	0.610
488.57	0.611
488.77	0.611
488.97	0.609
489.18	0.608
489.38	0.611
489.58	0.612
489.78	0.611
489.98	0.610
490.18	0.611
490.38	0.612
490.58	0.610
490.78	0.610
490.98	0.613
491.19	0.613
491.39	0.612
491.59	0.610
491.79	0.613
491.99	0.614
492.19	0.613
492.39	0.616
492.59	0.616
492.79	0.618
492.99	0.618
493.20	0.618
493.40	0.619
493.60	0.620
493.80	0.618
494.00	0.616
494.20	0.617
494.40	0.617
494.60	0.614
494.80	0.618
495.00	0.618
495.20	0.617
495.40	0.615
495.61	0.617
495.81	0.617
496.01	0.621
496.21	0.622
496.41	0.620
496.61	0.621
496.81	0.621
497.01	0.616
497.21	0.615
497.41	0.616
497.61	0.616
497.81	0.613
498.01	0.613
498.21	0.611
498.41	0.609
498.61	0.609
498.82	0.610
499.02	0.613
499.22	0.613
499.42	0.612
499.62	0.613
499.82	0.614
500.02	0.616
500.22	0.614
500.42	0.616
500.62	0.617
500.82	0.617
501.02	0.615
501.22	0.615
501.42	0.615
501.62	0.618
501.82	0.616
502.02	0.617
502.22	0.617
502.42	0.619
502.62	0.616
502.82	0.616
503.02	0.617
503.22	0.617
503.42	0.616
503.63	0.616
503.83	0.614
504.03	0.613
504.23	0.611
504.43	0.612
504.63	0.613
504.83	0.613
505.03	0.612
505.23	0.614
505.43	0.616
505.63	0.616
505.83	0.616
506.03	0.618
506.23	0.620
506.43	0.621
506.63	0.619
506.83	0.618
507.03	0.619
507.23	0.620
507.43	0.617
507.63	0.617
507.83	0.618
508.03	0.618
508.23	0.616
508.43	0.615
508.63	0.617
508.83	0.618
509.03	0.618
509.23	0.618
509.43	0.619
509.63	0.620
509.83	0.618
510.03	0.620
510.23	0.623
510.43	0.623
510.63	0.623
510.83	0.624
511.03	0.626
511.23	0.623
511.43	0.622
511.63	0.623
511.83	0.626
512.03	0.626
512.22	0.623
512.42	0.622
512.62	0.624
512.82	0.623
513.02	0.622
513.22	0.621
513.42	0.624
513.62	0.626
513.82	0.624
514.02	0.623
514.22	0.625
514.42	0.625
514.62	0.625
514.82	0.625
515.02	0.628
515.22	0.631
515.42	0.629
515.62	0.632
515.82	0.631
516.02	0.633
516.22	0.632
516.42	0.634
516.62	0.636
516.82	0.637
517.01	0.635
517.21	0.634
517.41	0.638
517.61	0.638
517.81	0.634
518.01	0.633
518.21	0.633
518.41	0.632
518.61	0.631
518.81	0.631
519.01	0.633
519.21	0.633
519.41	0.632
519.61	0.627
519.81	0.630
520.00	0.631
520.20	0.631
520.40	0.633
520.60	0.634
520.80	0.633
521.00	0.633
521.20	0.634
521.40	0.640
521.60	0.640
521.80	0.639
522.00	0.639
522.20	0.642
522.39	0.641
522.59	0.638
522.79	0.640
522.99	0.642
523.19	0.640
523.39	0.637
523.59	0.635
523.79	0.638
523.99	0.641
524.19	0.639
524.38	0.637
524.58	0.639
524.78	0.639
524.98	0.638
525.18	0.640
525.38	0.641
525.58	0.642
525.78	0.639
525.98	0.637
526.18	0.638
526.37	0.637
526.57	0.640
526.77	0.639
526.97	0.640
527.17	0.640
527.37	0.636
527.57	0.638
527.77	0.641
527.96	0.641
528.16	0.639
528.36	0.640
528.56	0.642
528.76	0.639
528.96	0.638
529.16	0.639
529.36	0.642
529.55	0.643
529.75	0.639
529.95	0.639
530.15	0.641
530.35	0.644
530.55	0.641
530.75	0.642
530.94	0.645
531.14	0.646
531.34	0.644
531.54	0.642
531.74	0.645
531.94	0.648
532.13	0.645
532.33	0.647
532.53	0.646
532.73	0.646
532.93	0.643
533.13	0.644
533.33	0.644
533.52	0.644
533.72	0.647
533.92	0.645
534.12	0.644
534.32	0.644
534.52	0.643
534.71	0.644
534.91	0.648
535.11	0.650
535.31	0.648
535.51	0.650
535.71	0.652
535.90	0.649
536.10	0.650
536.30	0.653
536.50	0.654
536.70	0.654
536.89	0.651
537.09	0.650
537.29	0.652
537.49	0.652
537.69	0.650
537.89	0.650
538.08	0.650
538.28	0.648
538.48	0.648
538.68	0.650
538.88	0.652
539.07	0.652
539.27	0.650
539.47	0.649
539.67	0.650
539.87	0.652
540.06	0.649
540.26	0.650
540.46	0.653
540.66	0.651
540.86	0.647
541.05	0.648
541.25	0.650
541.45	0.650
541.65	0.648
541.84	0.650
542.04	0.651
542.24	0.651
542.44	0.650
542.64	0.650
542.83	0.653
543.03	0.654
543.23	0.651
543.43	0.652
543.62	0.654
543.82	0.655
544.02	0.653
544.22	0.653
544.42	0.657
544.61	0.657
544.81	0.654
545.01	0.653
545.21	0.655
545.40	0.656
545.60	0.654
545.80	0.656
546.00	0.657
546.19	0.656
546.39	0.654
546.59	0.652
546.79	0.654
546.98	0.654
547.18	0.654
547.38	0.655
547.58	0.658
547.77	0.658
547.97	0.654
548.17	0.656
548.37	0.657
548.56	0.657
548.76	0.656
548.96	0.658
549.16	0.662
549.35	0.661
549.55	0.658
549.75	0.660
549.95	0.664
550.14	0.664
550.34	0.662
550.54	0.666
550.73	0.671
550.93	0.671
551.13	0.667
551.33	0.666
551.52	0.667
551.72	0.667
551.92	0.664
552.12	0.664
552.31	0.665
552.51	0.665
552.71	0.660
552.90	0.660
553.10	0.661
553.30	0.661
553.50	0.659
553.69	0.662
553.89	0.663
554.09	0.664
554.28	0.660
554.48	0.662
554.68	0.665
554.87	0.665
555.07	0.661
555.27	0.661
555.47	0.664
555.66	0.665
555.86	0.663
556.06	0.665
556.25	0.667
556.45	0.675
556.65	0.672
556.84	0.675
557.04	0.679
557.24	0.680
557.43	0.679
557.63	0.681
557.83	0.682
558.02	0.682
558.22	0.686
558.42	0.687
558.61	0.680
558.81	0.681
559.01	0.676
559.21	0.676
559.40	0.678
559.60	0.677
559.80	0.673
559.99	0.675
560.19	0.678
560.39	0.672
560.58	0.669
560.78	0.669
560.97	0.673
561.17	0.672
561.37	0.669
561.56	0.670
561.76	0.672
561.96	0.672
562.15	0.668
562.35	0.671
562.55	0.673
562.74	0.673
562.94	0.671
563.14	0.669
563.33	0.671
563.53	0.671
563.73	0.667
563.92	0.669
564.12	0.672
564.31	0.674
564.51	0.672
564.71	0.673
564.90	0.677
565.10	0.677
565.30	0.679
565.49	0.679
565.69	0.682
565.89	0.683
566.08	0.679
566.28	0.681
566.47	0.684
566.67	0.681
566.87	0.678
567.06	0.679
567.26	0.685
567.46	0.680
567.65	0.679
567.85	0.681
568.04	0.684
568.24	0.683
568.44	0.680
568.63	0.678
568.83	0.680
569.02	0.678
569.22	0.673
569.42	0.670
569.61	0.673
569.81	0.672
570.00	0.669
570.20	0.670
570.40	0.671
570.59	0.671
570.79	0.668
570.98	0.667
571.18	0.669
571.38	0.669
571.57	0.666
571.77	0.663
571.96	0.668
572.16	0.665
572.35	0.660
572.55	0.661
572.75	0.660
572.94	0.660
573.14	0.658
573.33	0.658
573.53	0.659
573.73	0.659
573.92	0.656
574.12	0.655
574.31	0.658
574.51	0.659
574.70	0.655
574.90	0.656
575.09	0.659
575.29	0.659
575.49	0.657
575.68	0.657
575.88	0.659
576.07	0.660
576.27	0.658
576.46	0.656
576.66	0.656
576.86	0.656
577.05	0.653
577.25	0.650
577.44	0.653
577.64	0.652
577.83	0.650
578.03	0.651
578.22	0.650
578.42	0.649
578.61	0.648
578.81	0.649
579.00	0.650
579.20	0.650
579.40	0.648
579.59	0.647
579.79	0.648
579.98	0.648
580.18	0.647
580.37	0.648
580.57	0.650
580.76	0.654
580.96	0.652
581.15	0.653
581.35	0.655
581.54	0.655
581.74	0.654
581.93	0.655
582.13	0.657
582.32	0.655
582.52	0.653
582.71	0.653
582.91	0.650
583.10	0.650
583.30	0.649
583.49	0.648
583.69	0.653
583.88	0.654
584.08	0.653
584.27	0.655
584.47	0.658
584.66	0.658
584.86	0.657
585.05	0.658
585.25	0.660
585.44	0.659
585.64	0.657
585.83	0.654
586.03	0.655
586.22	0.654
586.42	0.651
586.61	0.653
586.81	0.656
587.00	0.656
587.20	0.654
587.39	0.655
587.59	0.658
587.78	0.659
587.98	0.660
588.17	0.660
588.37	0.663
588.56	0.665
588.76	0.660
588.95	0.660
589.15	0.663
589.34	0.665
589.54	0.663
589.73	0.663
589.92	0.666
590.12	0.665
590.31	0.662
590.51	0.666
590.70	0.668
590.90	0.669
591.09	0.667
591.29	0.666
591.48	0.666
591.68	0.667
591.87	0.665
592.06	0.665
592.26	0.668
592.45	0.668
592.65	0.661
592.84	0.661
593.04	0.665
593.23	0.667
593.43	0.664
593.62	0.664
593.81	0.665
594.01	0.665
594.20	0.662
594.40	0.661
594.59	0.664
594.79	0.665
594.98	0.663
595.17	0.662
595.37	0.663
595.56	0.664
595.76	0.663
595.95	0.664
596.14	0.667
596.34	0.667
596.53	0.665
596.73	0.666
596.92	0.667
597.12	0.670
597.31	0.669
597.50	0.668
597.70	0.671
597.89	0.670
598.09	0.667
598.28	0.668
598.47	0.670
598.67	0.669
598.86	0.665
599.06	0.667
599.25	0.668
599.44	0.666
599.64	0.663
599.83	0.661
600.03	0.665
600.22	0.666
600.41	0.666
600.61	0.664
600.80	0.668
601.00	0.669
601.19	0.664
601.38	0.663
601.58	0.666
601.77	0.668
601.96	0.669
602.16	0.669
602.35	0.679
602.55	0.676
602.74	0.676
602.93	0.677
603.13	0.682
603.32	0.683
603.51	0.682
603.71	0.685
603.90	0.686
604.09	0.686
604.29	0.683
604.48	0.677
604.68	0.678
604.87	0.677
605.06	0.672
605.26	0.669
605.45	0.671
605.64	0.671
605.84	0.665
606.03	0.664
606.22	0.664
606.42	0.664
606.61	0.660
606.80	0.661
607.00	0.663
607.19	0.664
607.38	0.662
607.58	0.663
607.77	0.667
607.96	0.667
608.16	0.665
608.35	0.670
608.54	0.673
608.74	0.677
608.93	0.681
609.12	0.684
609.32	0.687
609.51	0.690
609.70	0.689
609.90	0.690
610.09	0.695
610.28	0.700
610.48	0.693
610.67	0.694
610.86	0.695
611.06	0.690
611.25	0.688
611.44	0.688
611.64	0.688
611.83	0.690
612.02	0.685
612.21	0.684
612.41	0.684
612.60	0.683
612.79	0.678
612.99	0.678
613.18	0.680
613.37	0.677
613.57	0.674
613.76	0.676
613.95	0.675
614.14	0.675
614.34	0.671
614.53	0.673
614.72	0.677
614.92	0.678
615.11	0.675
615.30	0.673
615.49	0.675
615.69	0.678
615.88	0.675
616.07	0.676
616.26	0.680
616.46	0.681
616.65	0.677
616.84	0.675
617.04	0.677
617.23	0.681
617.42	0.680
617.61	0.683
617.81	0.685
618.00	0.687
618.19	0.685
618.38	0.688
618.58	0.692
618.77	0.693
618.96	0.691
619.15	0.694
619.35	0.696
619.54	0.696
619.73	0.691
619.92	0.693
620.12	0.697
620.31	0.697
620.50	0.691
620.69	0.691
620.89	0.695
621.08	0.695
621.27	0.694
621.46	0.693
621.66	0.699
621.85	0.699
622.04	0.694
622.23	0.694
622.43	0.697
622.62	0.696
622.81	0.695
623.00	0.696
623.19	0.700
623.39	0.699
623.58	0.695
623.77	0.693
623.96	0.697
624.16	0.698
624.35	0.693
624.54	0.695
624.73	0.701
624.92	0.698
625.12	0.695
625.31	0.696
625.50	0.700
625.69	0.701
625.88	0.696
626.08	0.696
626.27	0.698
626.46	0.699
626.65	0.695
626.84	0.695
627.04	0.700
627.23	0.700
627.42	0.694
627.61	0.695
627.80	0.700
628.00	0.700
628.19	0.698
628.38	0.702
628.57	0.706
628.76	0.705
628.96	0.700
629.15	0.702
629.34	0.706
629.53	0.707
629.72	0.701
629.91	0.702
630.11	0.709
630.30	0.710
630.49	0.711
630.68	0.712
630.87	0.717
631.06	0.720
631.26	0.714
631.45	0.717
631.64	0.725
631.83	0.728
632.02	0.724
632.21	0.721
632.41	0.730
632.60	0.724
632.79	0.721
632.98	0.720
633.17	0.722
633.36	0.723
633.55	0.717
633.75	0.714
633.94	0.718
634.13	0.718
634.32	0.714
634.51	0.707
634.70	0.711
634.89	0.711
635.09	0.706
635.28	0.707
635.47	0.710
635.66	0.714
635.85	0.708
636.04	0.710
636.23	0.716
636.43	0.718
636.62	0.716
636.81	0.715
637.00	0.719
637.19	0.723
637.38	0.718
637.57	0.718
637.76	0.722
637.95	0.724
638.15	0.718
638.34	0.715
638.53	0.720
638.72	0.722
638.91	0.717
639.10	0.715
639.29	0.716
639.48	0.716
639.67	0.714
639.87	0.711
640.06	0.717
640.25	0.717
640.44	0.716
640.63	0.715
640.82	0.718
641.01	0.718
641.20	0.717
641.39	0.719
641.58	0.723
641.78	0.722
641.97	0.717
642.16	0.731
642.35	0.734
642.54	0.732
642.73	0.725
642.92	0.724
643.11	0.730
643.30	0.729
643.49	0.722
643.68	0.725
643.87	0.728
644.06	0.729
644.25	0.707
644.45	0.709
644.64	0.713
644.83	0.714
645.02	0.709
645.21	0.708
645.40	0.712
645.59	0.711
645.78	0.704
645.97	0.706
646.16	0.708
646.35	0.707
646.54	0.703
646.73	0.705
646.92	0.707
647.11	0.707
647.30	0.701
647.49	0.703
647.68	0.704
647.88	0.702
648.07	0.693
648.26	0.696
648.45	0.699
648.64	0.696
648.83	0.691
649.02	0.694
649.21	0.705
649.40	0.705
649.59	0.699
649.78	0.701
649.97	0.717
650.16	0.717
650.35	0.710
650.54	0.711
650.73	0.720
650.92	0.717
651.11	0.710
651.30	0.708
651.49	0.712
651.68	0.713
651.87	0.707
652.06	0.696
652.25	0.700
652.44	0.701
652.63	0.695
652.82	0.692
653.01	0.692
653.20	0.689
653.39	0.675
653.58	0.672
653.77	0.672
653.96	0.667
654.15	0.659
654.34	0.657
654.53	0.655
654.72	0.651
654.91	0.642
655.10	0.639
655.29	0.639
655.48	0.637
655.67	0.632
655.86	0.630
656.05	0.629
656.24	0.629
656.43	0.623
656.62	0.623
656.81	0.625
657.00	0.625
657.19	0.623
657.38	0.624
657.57	0.625
657.76	0.628
657.95	0.626
658.14	0.631
658.33	0.635
658.51	0.641
658.70	0.641
658.89	0.642
659.08	0.649
659.27	0.656
659.46	0.654
659.65	0.659
659.84	0.662
660.03	0.666
660.22	0.666
660.41	0.670
660.60	0.670
660.79	0.671
660.98	0.676
661.17	0.675
661.36	0.674
661.55	0.674
661.74	0.671
661.92	0.675
662.11	0.679
662.30	0.677
662.49	0.669
662.68	0.668
662.87	0.672
663.06	0.666
663.25	0.667
663.44	0.668
663.63	0.670
663.82	0.668
664.01	0.661
664.20	0.659
664.38	0.662
664.57	0.663
664.76	0.662
664.95	0.663
665.14	0.668
665.33	0.663
665.52	0.669
665.71	0.674
665.90	0.675
666.09	0.676
666.28	0.672
666.46	0.671
666.65	0.673
666.84	0.670
667.03	0.663
667.22	0.662
667.41	0.665
667.60	0.655
667.79	0.647
667.98	0.647
668.16	0.649
668.35	0.649
668.54	0.644
668.73	0.645
668.92	0.646
669.11	0.645
669.30	0.638
669.49	0.634
669.67	0.637
669.86	0.640
670.05	0.636
670.24	0.634
670.43	0.632
670.62	0.631
670.81	0.625
671.00	0.627
671.18	0.627
671.37	0.627
671.56	0.625
671.75	0.624
671.94	0.621
672.13	0.619
672.32	0.614
672.50	0.614
672.69	0.616
672.88	0.617
673.07	0.611
673.26	0.615
673.45	0.616
673.63	0.616
673.82	0.611
674.01	0.613
674.20	0.613
674.39	0.613
674.58	0.610
674.76	0.609
674.95	0.608
675.14	0.607
675.33	0.601
675.52	0.600
675.71	0.600
675.89	0.599
676.08	0.594
676.27	0.594
676.46	0.595
676.65	0.595
676.84	0.594
677.02	0.596
677.21	0.599
677.40	0.598
677.59	0.595
677.78	0.597
677.96	0.600
678.15	0.600
678.34	0.597
678.53	0.598
678.72	0.599
678.90	0.596
679.09	0.591
679.28	0.588
679.47	0.589
679.66	0.588
679.84	0.584
680.03	0.582
680.22	0.581
680.41	0.583
680.60	0.579
680.78	0.578
680.97	0.581
681.16	0.581
681.35	0.580
681.53	0.578
681.72	0.580
681.91	0.582
682.10	0.579
682.29	0.582
682.47	0.579
682.66	0.579
682.85	0.576
683.04	0.574
683.22	0.575
683.41	0.576
683.60	0.575
683.79	0.576
683.97	0.575
684.16	0.575
684.35	0.570
684.54	0.572
684.72	0.573
684.91	0.574
685.10	0.571
685.29	0.573
685.47	0.570
685.66	0.569
685.85	0.565
686.04	0.565
686.22	0.568
686.41	0.569
686.60	0.566
686.79	0.569
686.97	0.571
687.16	0.573
687.35	0.569
687.54	0.573
687.72	0.578
687.91	0.578
688.10	0.579
688.29	0.579
688.47	0.578
688.66	0.577
688.85	0.573
689.03	0.571
689.22	0.576
689.41	0.577
689.60	0.571
689.78	0.567
689.97	0.568
690.16	0.565
690.34	0.561
690.53	0.561
690.72	0.562
690.91	0.559
691.09	0.557
691.28	0.551
691.47	0.549
691.65	0.549
691.84	0.546
692.03	0.545
692.21	0.544
692.40	0.544
692.59	0.541
692.77	0.539
692.96	0.542
693.15	0.543
693.34	0.540
693.52	0.541
693.71	0.542
693.90	0.543
694.08	0.543
694.27	0.544
694.46	0.553
694.64	0.554
694.83	0.553
695.02	0.552
695.20	0.552
695.39	0.551
695.58	0.551
695.76	0.551
695.95	0.551
696.14	0.550
696.32	0.547
696.51	0.537
696.70	0.538
696.88	0.539
697.07	0.537
697.26	0.539
697.44	0.541
697.63	0.539
697.81	0.537
698.00	0.537
698.19	0.538
698.37	0.538
698.56	0.538
698.75	0.537
698.93	0.538
699.12	0.537
699.31	0.535
699.49	0.535
699.68	0.536
699.87	0.538
700.05	0.538
700.24	0.536
700.42	0.537
700.61	0.536
700.80	0.534
700.98	0.534
701.17	0.536
701.36	0.535
701.54	0.534
701.73	0.535
701.91	0.533
702.10	0.533
702.29	0.531
702.47	0.530
702.66	0.532
702.84	0.533
703.03	0.531
703.22	0.532
703.40	0.533
703.59	0.535
703.77	0.534
703.96	0.534
704.15	0.535
704.33	0.535
704.52	0.533
704.70	0.533
704.89	0.534
705.08	0.532
705.26	0.527
705.45	0.527
705.63	0.527
705.82	0.524
706.00	0.522
706.19	0.521
706.38	0.522
706.56	0.521
706.75	0.518
706.93	0.517
707.12	0.519
707.30	0.519
707.49	0.516
707.68	0.514
707.86	0.515
708.05	0.515
708.23	0.512
708.42	0.513
708.60	0.516
708.79	0.517
708.98	0.515
709.16	0.514
709.35	0.516
709.53	0.520
709.72	0.518
709.90	0.521
710.09	0.523
710.27	0.525
710.46	0.528
710.64	0.525
710.83	0.527
711.02	0.529
711.20	0.526
711.39	0.524
711.57	0.523
711.76	0.524
711.94	0.521
712.13	0.522
712.31	0.522
712.50	0.517
712.68	0.514
712.87	0.515
713.05	0.516
713.24	0.517
713.42	0.515
713.61	0.516
713.79	0.516
713.98	0.516
714.16	0.517
714.35	0.517
714.54	0.518
714.72	0.519
714.91	0.515
715.09	0.521
715.28	0.525
715.46	0.525
715.65	0.522
715.83	0.522
716.02	0.525
716.20	0.521
716.39	0.520
716.57	0.521
716.76	0.524
716.94	0.524
717.12	0.516
717.31	0.517
717.49	0.520
717.68	0.523
717.86	0.521
718.05	0.524
718.23	0.527
718.42	0.529
718.60	0.530
718.79	0.538
718.97	0.541
719.16	0.542
719.34	0.539
719.53	0.540
719.71	0.540
719.90	0.541
720.08	0.537
720.27	0.538
720.45	0.539
720.63	0.537
720.82	0.531
721.00	0.534
721.19	0.538
721.37	0.537
721.56	0.536
721.74	0.539
721.93	0.548
722.11	0.554
722.30	0.552
722.48	0.557
722.66	0.559
722.85	0.558
723.03	0.557
723.22	0.555
723.40	0.560
723.59	0.559
723.77	0.563
723.95	0.556
724.14	0.560
724.32	0.561
724.51	0.560
724.69	0.561
724.88	0.562
725.06	0.560
725.24	0.560
725.43	0.562
725.61	0.566
725.80	0.560
725.98	0.556
726.16	0.552
726.35	0.559
726.53	0.558
726.72	0.556
726.90	0.566
727.09	0.567
727.27	0.573
727.45	0.570
727.64	0.579
727.82	0.589
728.01	0.593
728.19	0.589
728.37	0.595
728.56	0.600
728.74	0.606
728.92	0.593
729.11	0.596
729.29	0.595
729.48	0.596
729.66	0.583
729.84	0.582
730.03	0.588
730.21	0.590
730.40	0.579
730.58	0.580
730.76	0.580
730.95	0.584
731.13	0.582
731.31	0.595
731.50	0.607
731.68	0.611
731.86	0.606
732.05	0.620
732.23	0.624
732.42	0.627
732.60	0.629
732.78	0.635
732.97	0.656
733.15	0.663
733.33	0.649
733.52	0.657
733.70	0.670
733.88	0.680
734.07	0.663
734.25	0.690
734.43	0.701
734.62	0.704
734.80	0.696
734.98	0.685
735.17	0.693
735.35	0.702
735.53	0.688
735.72	0.691
735.90	0.717
736.08	0.735
736.27	0.708
736.45	0.719
736.63	0.734
736.82	0.747
737.00	0.745
737.18	0.756
737.37	0.791
737.55	0.816
737.73	0.809
737.92	0.810
738.10	0.812
738.28	0.833
738.46	0.815
738.65	0.829
738.83	0.856
739.01	0.916
739.20	0.904
739.38	0.886
739.56	0.881
739.75	0.883
739.93	0.845
740.11	0.871
740.29	0.883
740.48	0.895
740.66	0.866
740.84	0.862
741.03	0.830
741.21	0.840
741.39	0.818
741.57	0.830
741.76	0.856
741.94	0.860
742.12	0.818
742.31	0.820
742.49	0.845
742.67	0.867
742.85	0.878
743.04	0.876
743.22	0.893
743.40	0.949
743.58	0.923
743.77	0.941
743.95	0.988
744.13	1.051
744.31	1.025
744.50	1.018
744.68	1.035
744.86	1.004
745.04	1.020
745.23	1.097
745.41	1.091
745.59	1.101
745.77	1.046
745.96	1.029
746.14	1.044
746.32	1.040
746.50	1.023
746.69	1.001
746.87	1.024
747.05	1.004
747.23	0.915
747.42	0.897
747.60	0.939
747.78	0.946
747.96	0.977
748.14	0.924
748.33	0.966
748.51	0.962
748.69	0.945
748.87	0.975
749.06	0.978
749.24	0.976
749.42	0.950
749.60	0.927
749.78	0.943
749.97	0.892
750.15	0.880
750.33	0.878
750.51	0.911
750.69	0.919
750.88	0.918
751.06	0.928
751.24	0.964
751.42	0.954
751.60	0.940
751.79	1.029
751.97	1.096
752.15	1.094
752.33	1.051
752.51	1.130
752.69	1.167
752.88	1.122
753.06	1.173
753.24	1.131
753.42	1.187
753.60	1.438
753.78	1.195
753.97	1.212
754.15	1.254
754.33	1.279
754.51	1.102
754.69	1.088
754.87	1.132
755.06	1.045
755.24	1.045
755.42	1.050
755.60	0.940
755.78	0.951
755.96	0.886
756.15	0.884
756.33	0.901
756.51	0.926
756.69	0.899
756.87	0.861
757.05	0.888
757.23	0.865
757.42	0.829
757.60	0.825
757.78	0.816
757.96	0.814
758.14	0.792
758.32	0.773
758.50	0.790
758.69	0.791
758.87	0.779
759.05	0.781
759.23	0.800
759.41	0.798
759.59	0.787
759.77	0.815
759.95	0.849
760.13	0.906
760.32	0.901
760.50	0.896
760.68	0.927
760.86	0.927
761.04	0.891
761.22	0.894
761.40	0.955
761.58	0.958
761.76	0.921
761.95	0.900
762.13	0.855
762.31	0.859
762.49	0.820
762.67	0.836
762.85	0.857
763.03	0.851
763.21	0.827
763.39	0.810
763.57	0.815
763.75	0.809
763.94	0.787
764.12	0.784
764.30	0.811
764.48	0.814
764.66	0.774
764.84	0.771
765.02	0.817
765.20	0.822
765.38	0.795
765.56	0.801
765.74	0.849
765.92	0.855
766.10	0.862
766.28	0.853
766.46	0.892
766.65	0.894
766.83	0.876
767.01	0.859
767.19	0.873
767.37	0.874
767.55	0.855
767.73	0.834
767.91	0.840
768.09	0.826
768.27	0.810
768.45	0.799
768.63	0.805
768.81	0.807
768.99	0.774
769.17	0.801
769.35	0.821
769.53	0.819
769.71	0.793
769.89	0.802
770.07	0.815
770.25	0.798
770.43	0.770
770.61	0.798
770.79	0.809
770.97	0.820
771.15	0.783
771.33	0.785
771.51	0.792
771.69	0.805
771.87	0.809
772.05	0.816
772.24	0.828
772.42	0.840
772.60	0.811
772.78	0.877
772.96	0.916
773.14	0.909
773.32	0.880
773.49	0.888
773.67	0.889
773.85	0.866
774.03	0.848
774.21	0.884
774.39	0.904
774.57	0.930
774.75	0.843
774.93	0.838
775.11	0.871
775.29	0.877
775.47	0.872
775.65	0.885
775.83	0.913
776.01	0.936
776.19	0.876
776.37	0.875
776.55	0.880
776.73	0.879
776.91	0.863
777.09	0.843
777.27	0.844
777.45	0.836
777.63	0.808
777.81	0.800
777.99	0.792
778.17	0.790
778.35	0.764
778.53	0.753
778.71	0.762
778.89	0.748
779.07	0.733
779.24	0.740
779.42	0.744
779.60	0.763
779.78	0.757
779.96	0.764
780.14	0.779
780.32	0.799
780.50	0.775
780.68	0.772
780.86	0.768
781.04	0.788
781.22	0.789
781.40	0.802
781.58	0.795
781.75	0.787
781.93	0.763
782.11	0.763
782.29	0.750
782.47	0.753
782.65	0.737
782.83	0.770
783.01	0.764
783.19	0.754
783.37	0.733
783.55	0.737
783.72	0.760
783.90	0.772
784.08	0.758
784.26	0.771
784.44	0.792
784.62	0.795
784.80	0.754
784.98	0.762
785.16	0.773
785.33	0.789
785.51	0.767
785.69	0.751
785.87	0.749
786.05	0.762
786.23	0.754
786.41	0.752
786.59	0.763
786.77	0.761
786.94	0.743
787.12	0.747
787.30	0.749
787.48	0.748
787.66	0.734
787.84	0.735
788.02	0.725
788.19	0.726
788.37	0.708
788.55	0.710
788.73	0.714
788.91	0.708
789.09	0.687
789.27	0.677
789.44	0.689
789.62	0.693
789.80	0.703
789.98	0.732
790.16	0.718
790.34	0.713
790.51	0.698
790.69	0.719
790.87	0.728
791.05	0.724
791.23	0.713
791.41	0.718
791.58	0.729
791.76	0.705
791.94	0.669
792.12	0.680
792.30	0.686
792.48	0.681
792.65	0.671
792.83	0.678
793.01	0.689
793.19	0.689
793.37	0.669
793.54	0.667
793.72	0.681
793.90	0.680
794.08	0.664
794.26	0.667
794.43	0.681
794.61	0.664
794.79	0.650
794.97	0.648
795.15	0.654
795.32	0.660
795.50	0.647
795.68	0.641
795.86	0.648
796.04	0.651
796.21	0.644
796.39	0.641
796.57	0.659
796.75	0.668
796.92	0.667
797.10	0.673
797.28	0.676
797.46	0.679
797.64	0.679
797.81	0.686
797.99	0.692
798.17	0.693
798.35	0.685
798.52	0.690
798.70	0.687
798.88	0.696
799.06	0.692
799.23	0.696
799.41	0.709
799.59	0.701
799.77	0.687
799.94	0.698
800.12	0.713
800.30	0.731
800.48	0.725
800.65	0.726
800.83	0.718
801.01	0.710
801.19	0.705
801.36	0.701
801.54	0.707
801.72	0.717
801.90	0.700
802.07	0.693
802.25	0.682
802.43	0.666
802.60	0.658
802.78	0.666
802.96	0.675
803.14	0.669
803.31	0.664
803.49	0.662
803.67	0.662
803.84	0.665
804.02	0.654
804.20	0.657
804.38	0.663
804.55	0.663
804.73	0.644
804.91	0.643
805.08	0.659
805.26	0.655
805.44	0.716
805.61	0.719
805.79	0.721
805.97	0.720
806.15	0.707
806.32	0.704
806.50	0.713
806.68	0.713
806.85	0.702
807.03	0.692
807.21	0.714
807.38	0.648
807.56	0.635
807.74	0.645
807.91	0.656
808.09	0.660
808.27	0.677
808.44	0.703
808.62	0.718
808.80	0.719
808.97	0.710
809.15	0.703
809.33	0.724
809.50	0.732
809.68	0.713
809.86	0.720
810.03	0.760
810.21	0.734
810.39	0.713
810.56	0.719
810.74	0.749
810.91	0.831
811.09	0.815
811.27	0.836
811.44	0.848
811.62	0.852
811.80	0.831
811.97	0.795
812.15	0.800
812.33	0.793
812.50	0.772
812.68	0.759
812.85	0.700
813.03	0.704
813.21	0.667
813.38	0.660
813.56	0.665
813.74	0.675
813.91	0.682
814.09	0.715
814.26	0.712
814.44	0.716
814.62	0.702
814.79	0.706
814.97	0.715
815.14	0.720
815.32	0.727
815.50	0.744
815.67	0.752
815.85	0.742
816.02	0.729
816.20	0.739
816.38	0.759
816.55	0.766
816.73	0.761
816.90	0.772
817.08	0.810
817.26	0.813
817.43	0.788
817.61	0.813
817.78	0.839
817.96	0.815
818.13	0.797
818.31	0.801
818.49	0.822
818.66	0.812
818.84	0.792
819.01	0.769
819.19	0.778
819.36	0.780
819.54	0.746
819.71	0.794
819.89	0.814
820.07	0.828
820.24	0.814
820.42	0.814
820.59	0.841
820.77	0.868
820.94	0.853
821.12	0.875
821.29	0.896
821.47	0.894
821.64	0.813
821.82	0.828
822.00	0.829
822.17	0.828
822.35	0.816
822.52	0.822
822.70	0.812
822.87	0.823
823.05	0.793
823.22	0.808
823.40	0.849
823.57	0.875
823.75	0.847
823.92	0.878
824.10	0.908
824.27	0.957
824.45	0.929
824.62	1.008
824.80	1.042
824.97	1.063
825.15	1.039
825.32	1.057
825.50	1.079
825.67	1.098
825.85	1.063
826.02	1.087
826.20	1.136
826.37	1.360
826.55	1.213
826.72	1.594
826.90	1.906
827.07	2.326
827.25	1.841
827.42	-0.000
827.60	-0.000
827.77	-0.000
827.95	-0.000
828.12	-0.000
828.30	-0.000
828.47	-0.000
828.65	1.798
828.82	2.167
829.00	-0.000
829.17	-0.000
829.34	-0.000
829.52	-0.000
829.69	-0.000
829.87	-0.000
830.04	-0.000
830.22	-0.000
830.39	-0.000
830.57	-0.000
830.74	-0.000
830.92	-0.000
831.09	-0.000
831.26	-0.000
831.44	-0.000
831.61	-0.000
831.79	-0.000
831.96	-0.000
832.14	-0.000
832.31	-0.000
832.49	-0.000
832.66	-0.000
832.83	-0.000
833.01	-0.000
833.18	-0.000
833.36	-0.000
833.53	-0.000
833.70	-0.000
833.88	-0.000
834.05	-0.000
834.23	-0.000
834.40	-0.000
834.58	-0.000
834.75	-0.000
834.92	-0.000
835.10	-0.000
835.27	-0.000
835.45	-0.000
835.62	-0.000
835.79	-0.000
835.97	-0.000
836.14	-0.000
836.32	-0.000
836.49	-0.000
836.66	-0.000
836.84	-0.000
837.01	-0.000
837.18	-0.000
837.36	-0.000
837.53	-0.000
837.71	-0.000
837.88	-0.000
838.05	-0.000
838.23	-0.000
838.40	-0.000
838.58	-0.000
838.75	-0.000
838.92	-0.000
839.10	-0.000
839.27	-0.000
839.44	-0.000
839.62	-0.000
839.79	-0.000
839.96	-0.000
840.14	-0.000
840.31	-0.000
840.48	-0.000
840.66	-0.000
840.83	-0.000
841.01	-0.000
841.18	-0.000
841.35	-0.000
841.53	-0.000
841.70	-0.000
841.87	-0.000
842.05	-0.000
842.22	-0.000
842.39	-0.000
842.57	-0.000
842.74	-0.000
842.91	-0.000
843.09	-0.000
843.26	-0.000
843.43	-0.000
843.60	-0.000
843.78	-0.000
843.95	-0.000
844.12	-0.000
844.30	-0.000
844.47	-0.000
844.64	-0.000
844.82	-0.000
844.99	-0.000
845.16	-0.000
845.34	-0.000
845.51	-0.000
845.68	-0.000
845.85	-0.000
846.03	-0.000
846.20	-0.000
846.37	-0.000
846.55	-0.000
846.72	-0.000
846.89	-0.000
847.06	-0.000
847.24	-0.000
847.41	-0.000
847.58	-0.000
847.76	-0.000
847.93	-0.000
848.10	-0.000
848.27	-0.000
848.45	-0.000
848.62	-0.000
848.79	-0.000
848.97	-0.000
849.14	-0.000
849.31	-0.000
849.48	-0.000
849.66	-0.000
849.83	-0.000
850.00	-0.000
850.17	-0.000
850.35	-0.000
850.52	-0.000
850.69	-0.000
850.86	-0.000
851.04	-0.000
851.21	-0.000
851.38	-0.000
851.55	-0.000
851.72	-0.000
851.90	-0.000
852.07	-0.000
852.24	-0.000
852.41	-0.000
852.59	-0.000
852.76	-0.000
852.93	-0.000
853.10	-0.000
853.28	-0.000
853.45	-0.000
853.62	-0.000
853.79	-0.000
853.96	-0.000
854.14	-0.000
854.31	-0.000
854.48	-0.000
854.65	-0.000
854.82	-0.000
855.00	-0.000
855.17	-0.000
855.34	-0.000
855.51	-0.000
855.68	-0.000
855.86	-0.000
856.03	-0.000
856.20	-0.000
856.37	-0.000
856.54	-0.000
856.72	-0.000
856.89	-0.000
857.06	-0.000
857.23	-0.000
857.40	-0.000
857.57	-0.000
857.75	-0.000
857.92	-0.000
858.09	-0.000
858.26	-0.000
858.43	-0.000
858.60	-0.000
858.78	-0.000
858.95	-0.000
859.12	-0.000
859.29	-0.000
859.46	-0.000
859.63	-0.000
859.81	-0.000
859.98	-0.000
860.15	-0.000
860.32	-0.000
860.49	-0.000
860.66	-0.000
860.83	-0.000
861.01	-0.000
861.18	-0.000
861.35	-0.000
861.52	-0.000
861.69	-0.000
861.86	-0.000
862.03	-0.000
862.21	-0.000
862.38	-0.000
862.55	-0.000
862.72	-0.000
862.89	-0.000
863.06	-0.000
863.23	-0.000
863.40	-0.000
863.58	-0.000
863.75	-0.000
863.92	-0.000
864.09	-0.000
864.26	-0.000
864.43	-0.000
864.60	-0.000
864.77	-0.000
864.94	-0.000
865.11	-0.000
865.29	-0.000
865.46	-0.000
865.63	-0.000
865.80	-0.000
865.97	-0.000
866.14	-0.000
866.31	-0.000
866.48	-0.000
866.65	-0.000
866.82	-0.000
866.99	-0.000
867.16	-0.000
867.34	-0.000
867.51	-0.000
867.68	-0.000
867.85	-0.000
868.02	-0.000
868.19	-0.000
868.36	-0.000
868.53	-0.000
868.70	-0.000
868.87	-0.000
869.04	-0.000
869.21	-0.000
869.38	-0.000
869.55	-0.000
869.72	-0.000
869.89	-0.000
870.06	-0.000
870.24	-0.000
870.41	-0.000
870.58	-0.000
870.75	-0.000
870.92	-0.000
871.09	-0.000
871.26	-0.000
871.43	-0.000
871.60	-0.000
871.77	-0.000
871.94	-0.000
872.11	-0.000
872.28	-0.000
872.45	-0.000
872.62	-0.000
872.79	-0.000
872.96	-0.000
873.13	-0.000
873.30	-0.000
873.47	-0.000
873.64	-0.000
873.81	-0.000
873.98	-0.000
874.15	-0.000
874.32	-0.000
874.49	-0.000
874.66	-0.000
874.83	-0.000
875.00	-0.000
875.17	-0.000
875.34	-0.000
875.51	-0.000
875.68	-0.000
875.85	-0.000
876.02	-0.000
876.19	-0.000
876.36	-0.000
876.53	-0.000
876.70	-0.000
876.87	-0.000
877.04	-0.000
877.21	-0.000
877.38	-0.000
877.55	-0.000
877.72	-0.000
877.89	-0.000
878.06	-0.000
878.23	-0.000
878.39	-0.000
878.56	-0.000
878.73	-0.000
878.90	-0.000
879.07	-0.000
879.24	-0.000
879.41	-0.000
879.58	-0.000
879.75	-0.000
879.92	-0.000
880.09	-0.000
880.26	-0.000
880.43	-0.000
880.60	-0.000
880.77	-0.000
880.94	-0.000
881.11	-0.000
881.27	-0.000
881.44	-0.000
881.61	-0.000
881.78	-0.000
881.95	-0.000
882.12	-0.000
882.29	-0.000
882.46	-0.000
882.63	-0.000
882.80	-0.000
882.97	-0.000
883.14	-0.000
883.30	-0.000
883.47	-0.000
883.64	-0.000
883.81	-0.000
883.98	-0.000
884.15	-0.000
884.32	-0.000
884.49	-0.000
884.66	-0.000
884.82	-0.000
884.99	-0.000
885.16	-0.000
885.33	-0.000
885.50	-0.000
885.67	-0.000
885.84	-0.000
886.01	-0.000
886.17	-0.000
886.34	-0.000
886.51	-0.000
886.68	-0.000
886.85	-0.000
887.02	-0.000
887.19	-0.000
887.36	-0.000
887.52	-0.000
887.69	-0.000
887.86	-0.000
888.03	-0.000
888.20	-0.000
888.37	-0.000
888.54	-0.000
888.70	-0.000
888.87	-0.000
889.04	-0.000
889.21	-0.000
889.38	-0.000
889.55	-0.000
889.71	-0.000
889.88	-0.000
890.05	-0.000
890.22	-0.000
890.39	-0.000
>>>>>End Processed Spectral Data<<<<<
