SpectraSuite Data File
++++++++++++++++++++++++++++++++++++
Date: Fri Jun 19 13:50:05 CEST 2015
User: introlabs
Dark Spectrum Present: Yes
Reference Spectrum Present: Yes
Number of Sampled Component Spectra: 1
Spectrometers: USB4H08886
Integration Time (usec): 745692 (USB4H08886)
Spectra Averaged: 5 (USB4H08886)
Boxcar Smoothing: 5 (USB4H08886)
Correct for Electrical Dark: Yes (USB4H08886)
Strobe/Lamp Enabled: No (USB4H08886)
Correct for Detector Non-linearity: Yes (USB4H08886)
Correct for Stray Light: Yes (USB4H08886)
Number of Pixels in Processed Spectrum: 3648
>>>>>Begin Processed Spectral Data<<<<<
178.14	-0.000
178.36	-0.000
178.57	-0.000
178.79	-0.000
179.01	-0.000
179.22	-0.000
179.44	-0.000
179.65	-0.000
179.87	-0.000
180.08	-0.000
180.30	-0.000
180.52	-0.000
180.73	-0.000
180.95	-0.000
181.16	-0.000
181.38	-0.000
181.59	-0.000
181.81	-0.000
182.03	-0.000
182.24	-0.000
182.46	-0.000
182.67	-0.000
182.89	-0.000
183.10	-0.000
183.32	-0.000
183.54	-0.000
183.75	-0.000
183.97	-0.000
184.18	-0.000
184.40	-0.000
184.61	-0.000
184.83	-0.000
185.04	-0.000
185.26	-0.000
185.48	-0.000
185.69	-0.000
185.91	-0.000
186.12	-0.000
186.34	-0.000
186.55	-0.000
186.77	-0.000
186.98	-0.000
187.20	-0.000
187.42	-0.000
187.63	-0.000
187.85	-0.000
188.06	-0.000
188.28	-0.000
188.49	-0.000
188.71	-0.000
188.92	-0.000
189.14	-0.000
189.36	-0.000
189.57	-0.000
189.79	-0.000
190.00	-0.000
190.22	-0.000
190.43	-0.000
190.65	-0.000
190.86	-0.000
191.08	-0.000
191.29	-0.000
191.51	-0.000
191.72	-0.000
191.94	-0.000
192.16	-0.000
192.37	-0.000
192.59	-0.000
192.80	-0.000
193.02	-0.000
193.23	-0.000
193.45	-0.000
193.66	-0.000
193.88	-0.000
194.09	-0.000
194.31	-0.000
194.52	-0.000
194.74	-0.000
194.95	-0.000
195.17	-0.000
195.38	-0.000
195.60	-0.000
195.81	-0.000
196.03	-0.000
196.25	-0.000
196.46	-0.000
196.68	-0.000
196.89	-0.000
197.11	-0.000
197.32	-0.000
197.54	-0.000
197.75	-0.000
197.97	-0.000
198.18	-0.000
198.40	-0.000
198.61	-0.000
198.83	-0.000
199.04	-0.000
199.26	-0.000
199.47	-0.000
199.69	-0.000
199.90	-0.000
200.12	-0.000
200.33	-0.000
200.55	-0.000
200.76	-0.000
200.98	-0.000
201.19	-0.000
201.41	-0.000
201.62	-0.000
201.84	-0.000
202.05	-0.000
202.27	-0.000
202.48	-0.000
202.70	-0.000
202.91	-0.000
203.13	-0.000
203.34	-0.000
203.56	-0.000
203.77	-0.000
203.99	-0.000
204.20	-0.000
204.42	-0.000
204.63	-0.000
204.85	-0.000
205.06	-0.000
205.28	-0.000
205.49	-0.000
205.71	-0.000
205.92	-0.000
206.14	-0.000
206.35	-0.000
206.56	-0.000
206.78	-0.000
206.99	-0.000
207.21	-0.000
207.42	-0.000
207.64	-0.000
207.85	-0.000
208.07	-0.000
208.28	-0.000
208.50	-0.000
208.71	-0.000
208.93	-0.000
209.14	-0.000
209.36	-0.000
209.57	-0.000
209.79	-0.000
210.00	-0.000
210.22	-0.000
210.43	-0.000
210.64	-0.000
210.86	-0.000
211.07	-0.000
211.29	-0.000
211.50	-0.000
211.72	-0.000
211.93	-0.000
212.15	-0.000
212.36	-0.000
212.58	-0.000
212.79	-0.000
213.01	-0.000
213.22	-0.000
213.43	-0.000
213.65	-0.000
213.86	-0.000
214.08	-0.000
214.29	-0.000
214.51	-0.000
214.72	-0.000
214.94	-0.000
215.15	-0.000
215.36	-0.000
215.58	-0.000
215.79	-0.000
216.01	-0.000
216.22	-0.000
216.44	-0.000
216.65	-0.000
216.87	-0.000
217.08	-0.000
217.29	-0.000
217.51	-0.000
217.72	-0.000
217.94	-0.000
218.15	-0.000
218.37	-0.000
218.58	-0.000
218.80	-0.000
219.01	-0.000
219.22	-0.000
219.44	-0.000
219.65	-0.000
219.87	-0.000
220.08	-0.000
220.30	-0.000
220.51	-0.000
220.72	-0.000
220.94	-0.000
221.15	-0.000
221.37	-0.000
221.58	-0.000
221.79	-0.000
222.01	-0.000
222.22	-0.000
222.44	-0.000
222.65	-0.000
222.87	-0.000
223.08	-0.000
223.29	-0.000
223.51	-0.000
223.72	-0.000
223.94	-0.000
224.15	-0.000
224.36	-0.000
224.58	-0.000
224.79	-0.000
225.01	-0.000
225.22	-0.000
225.44	-0.000
225.65	-0.000
225.86	-0.000
226.08	-0.000
226.29	-0.000
226.51	-0.000
226.72	-0.000
226.93	-0.000
227.15	-0.000
227.36	-0.000
227.58	-0.000
227.79	-0.000
228.00	-0.000
228.22	-0.000
228.43	-0.000
228.65	-0.000
228.86	-0.000
229.07	-0.000
229.29	-0.000
229.50	-0.000
229.72	-0.000
229.93	-0.000
230.14	-0.000
230.36	-0.000
230.57	-0.000
230.78	-0.000
231.00	-0.000
231.21	-0.000
231.43	-0.000
231.64	-0.000
231.85	-0.000
232.07	-0.000
232.28	-0.000
232.50	-0.000
232.71	-0.000
232.92	-0.000
233.14	-0.000
233.35	-0.000
233.56	-0.000
233.78	-0.000
233.99	-0.000
234.21	-0.000
234.42	-0.000
234.63	-0.000
234.85	-0.000
235.06	-0.000
235.27	-0.000
235.49	-0.000
235.70	-0.000
235.91	-0.000
236.13	-0.000
236.34	-0.000
236.56	-0.000
236.77	-0.000
236.98	-0.000
237.20	-0.000
237.41	-0.000
237.62	-0.000
237.84	-0.000
238.05	-0.000
238.26	-0.000
238.48	-0.000
238.69	-0.000
238.91	-0.000
239.12	-0.000
239.33	-0.000
239.55	-0.000
239.76	-0.000
239.97	-0.000
240.19	-0.000
240.40	-0.000
240.61	-0.000
240.83	-0.000
241.04	-0.000
241.25	-0.000
241.47	-0.000
241.68	-0.000
241.89	-0.000
242.11	-0.000
242.32	-0.000
242.53	-0.000
242.75	-0.000
242.96	-0.000
243.17	-0.000
243.39	-0.000
243.60	-0.000
243.81	-0.000
244.03	-0.000
244.24	-0.000
244.45	-0.000
244.67	-0.000
244.88	-0.000
245.09	-0.000
245.31	-0.000
245.52	-0.000
245.73	-0.000
245.95	-0.000
246.16	-0.000
246.37	-0.000
246.59	-0.000
246.80	-0.000
247.01	-0.000
247.23	-0.000
247.44	-0.000
247.65	-0.000
247.87	-0.000
248.08	-0.000
248.29	-0.000
248.51	-0.000
248.72	-0.000
248.93	-0.000
249.15	-0.000
249.36	-0.000
249.57	-0.000
249.78	-0.000
250.00	-0.000
250.21	-0.000
250.42	-0.000
250.64	-0.000
250.85	-0.000
251.06	-0.000
251.28	-0.000
251.49	-0.000
251.70	-0.000
251.92	-0.000
252.13	-0.000
252.34	-0.000
252.55	-0.000
252.77	-0.000
252.98	-0.000
253.19	-0.000
253.41	-0.000
253.62	-0.000
253.83	-0.000
254.05	-0.000
254.26	-0.000
254.47	-0.000
254.68	-0.000
254.90	-0.000
255.11	-0.000
255.32	-0.000
255.54	-0.000
255.75	-0.000
255.96	-0.000
256.17	-0.000
256.39	-0.000
256.60	-0.000
256.81	-0.000
257.03	-0.000
257.24	-0.000
257.45	-0.000
257.66	-0.000
257.88	-0.000
258.09	-0.000
258.30	-0.000
258.51	-0.000
258.73	-0.000
258.94	-0.000
259.15	-0.000
259.37	-0.000
259.58	-0.000
259.79	-0.000
260.00	-0.000
260.22	-0.000
260.43	-0.000
260.64	-0.000
260.85	-0.000
261.07	-0.000
261.28	-0.000
261.49	-0.000
261.71	-0.000
261.92	-0.000
262.13	-0.000
262.34	-0.000
262.56	-0.000
262.77	-0.000
262.98	-0.000
263.19	-0.000
263.41	-0.000
263.62	-0.000
263.83	-0.000
264.04	-0.000
264.26	-0.000
264.47	-0.000
264.68	-0.000
264.89	-0.000
265.11	-0.000
265.32	-0.000
265.53	-0.000
265.74	-0.000
265.96	-0.000
266.17	-0.000
266.38	-0.000
266.59	-0.000
266.81	-0.000
267.02	-0.000
267.23	-0.000
267.44	-0.000
267.65	-0.000
267.87	-0.000
268.08	-0.000
268.29	-0.000
268.50	-0.000
268.72	-0.000
268.93	-0.000
269.14	-0.000
269.35	-0.000
269.57	-0.000
269.78	-0.000
269.99	-0.000
270.20	-0.000
270.41	-0.000
270.63	-0.000
270.84	-0.000
271.05	-0.000
271.26	-0.000
271.48	-0.000
271.69	-0.000
271.90	-0.000
272.11	-0.000
272.32	-0.000
272.54	-0.000
272.75	-0.000
272.96	-0.000
273.17	-0.000
273.39	-0.000
273.60	-0.000
273.81	-0.000
274.02	-0.000
274.23	-0.000
274.45	-0.000
274.66	-0.000
274.87	-0.000
275.08	-0.000
275.29	-0.000
275.51	-0.000
275.72	-0.000
275.93	-0.000
276.14	-0.000
276.35	-0.000
276.57	-0.000
276.78	-0.000
276.99	-0.000
277.20	-0.000
277.41	-0.000
277.63	-0.000
277.84	-0.000
278.05	-0.000
278.26	-0.000
278.47	-0.000
278.69	-0.000
278.90	-0.000
279.11	-0.000
279.32	-0.000
279.53	-0.000
279.74	-0.000
279.96	-0.000
280.17	-0.000
280.38	-0.000
280.59	-0.000
280.80	-0.000
281.02	-0.000
281.23	-0.000
281.44	-0.000
281.65	-0.000
281.86	-0.000
282.07	-0.000
282.29	-0.000
282.50	-0.000
282.71	-0.000
282.92	-0.000
283.13	-0.000
283.35	-0.000
283.56	-0.000
283.77	-0.000
283.98	-0.000
284.19	-0.000
284.40	-0.000
284.62	-0.000
284.83	-0.000
285.04	-0.000
285.25	-0.000
285.46	-0.000
285.67	-0.000
285.88	-0.000
286.10	-0.000
286.31	-0.000
286.52	-0.000
286.73	-0.000
286.94	-0.000
287.15	-0.000
287.37	-0.000
287.58	-0.000
287.79	-0.000
288.00	-0.000
288.21	-0.000
288.42	-0.000
288.63	-0.000
288.85	-0.000
289.06	-0.000
289.27	-0.000
289.48	-0.000
289.69	-0.000
289.90	-0.000
290.11	-0.000
290.33	-0.000
290.54	-0.000
290.75	-0.000
290.96	-0.000
291.17	-0.000
291.38	-0.000
291.59	-0.000
291.81	-0.000
292.02	-0.000
292.23	-0.000
292.44	-0.000
292.65	-0.000
292.86	-0.000
293.07	-0.000
293.28	-0.000
293.50	-0.000
293.71	-0.000
293.92	-0.000
294.13	-0.000
294.34	-0.000
294.55	-0.000
294.76	-0.000
294.97	-0.000
295.19	-0.000
295.40	-0.000
295.61	-0.000
295.82	-0.000
296.03	-0.000
296.24	-0.000
296.45	-0.000
296.66	2.912
296.87	3.429
297.09	-0.000
297.30	-0.000
297.51	2.409
297.72	2.287
297.93	3.023
298.14	2.525
298.35	2.268
298.56	2.188
298.77	3.147
298.99	2.704
299.20	2.452
299.41	2.267
299.62	2.138
299.83	2.084
300.04	1.912
300.25	1.883
300.46	1.972
300.67	1.922
300.88	1.803
301.10	1.808
301.31	1.978
301.52	1.834
301.73	1.726
301.94	1.730
302.15	1.762
302.36	1.679
302.57	1.581
302.78	1.598
302.99	1.659
303.20	1.688
303.41	1.544
303.63	1.513
303.84	1.524
304.05	1.525
304.26	1.438
304.47	1.441
304.68	1.451
304.89	1.439
305.10	1.379
305.31	1.364
305.52	1.416
305.73	1.405
305.94	1.356
306.15	1.346
306.37	1.373
306.58	1.381
306.79	1.341
307.00	1.363
307.21	1.413
307.42	1.403
307.63	1.357
307.84	1.320
308.05	1.362
308.26	1.361
308.47	1.333
308.68	1.326
308.89	1.328
309.10	1.324
309.31	1.277
309.52	1.267
309.73	1.289
309.95	1.280
310.16	1.244
310.37	1.232
310.58	1.255
310.79	1.253
311.00	1.247
311.21	1.248
311.42	1.253
311.63	1.244
311.84	1.220
312.05	1.215
312.26	1.242
312.47	1.257
312.68	1.229
312.89	1.209
313.10	1.216
313.31	1.184
313.52	1.185
313.73	1.188
313.94	1.193
314.15	1.173
314.36	1.147
314.57	1.141
314.78	1.126
314.99	1.118
315.21	1.103
315.42	1.108
315.63	1.123
315.84	1.099
316.05	1.081
316.26	1.088
316.47	1.108
316.68	1.104
316.89	1.082
317.10	1.102
317.31	1.111
317.52	1.111
317.73	1.087
317.94	1.088
318.15	1.137
318.36	1.136
318.57	1.119
318.78	1.108
318.99	1.147
319.20	1.142
319.41	1.104
319.62	1.104
319.83	1.121
320.04	1.116
320.25	1.098
320.46	1.061
320.67	1.066
320.88	1.059
321.09	1.043
321.30	1.029
321.51	1.046
321.72	1.044
321.93	1.026
322.14	1.017
322.35	1.046
322.56	1.046
322.77	1.032
322.98	1.042
323.19	1.051
323.40	1.057
323.61	1.034
323.82	1.028
324.03	1.034
324.24	1.031
324.45	1.016
324.66	0.995
324.87	0.993
325.08	0.993
325.29	0.973
325.50	0.966
325.71	0.972
325.92	0.978
326.13	0.964
326.34	0.965
326.55	0.975
326.76	0.974
326.97	0.963
327.18	0.957
327.39	0.984
327.60	0.986
327.80	0.985
328.01	0.984
328.22	0.984
328.43	0.987
328.64	0.973
328.85	0.977
329.06	0.980
329.27	0.980
329.48	0.975
329.69	0.953
329.90	0.963
330.11	0.956
330.32	0.949
330.53	0.943
330.74	0.944
330.95	0.942
331.16	0.926
331.37	0.934
331.58	0.932
331.79	0.932
332.00	0.923
332.21	0.918
332.42	0.922
332.63	0.913
332.83	0.907
333.04	0.908
333.25	0.921
333.46	0.919
333.67	0.904
333.88	0.908
334.09	0.919
334.30	0.916
334.51	0.906
334.72	0.903
334.93	0.905
335.14	0.905
335.35	0.897
335.56	0.892
335.77	0.901
335.98	0.901
336.18	0.893
336.39	0.886
336.60	0.892
336.81	0.890
337.02	0.887
337.23	0.891
337.44	0.894
337.65	0.897
337.86	0.887
338.07	0.881
338.28	0.886
338.49	0.884
338.70	0.876
338.91	0.882
339.11	0.889
339.32	0.886
339.53	0.874
339.74	0.871
339.95	0.868
340.16	0.865
340.37	0.857
340.58	0.855
340.79	0.859
341.00	0.860
341.21	0.849
341.41	0.849
341.62	0.851
341.83	0.852
342.04	0.847
342.25	0.857
342.46	0.861
342.67	0.861
342.88	0.854
343.09	0.854
343.30	0.860
343.50	0.862
343.71	0.852
343.92	0.851
344.13	0.856
344.34	0.856
344.55	0.839
344.76	0.839
344.97	0.843
345.18	0.841
345.38	0.838
345.59	0.832
345.80	0.832
346.01	0.829
346.22	0.823
346.43	0.818
346.64	0.827
346.85	0.827
347.06	0.819
347.26	0.819
347.47	0.824
347.68	0.819
347.89	0.815
348.10	0.810
348.31	0.818
348.52	0.817
348.73	0.814
348.93	0.810
349.14	0.812
349.35	0.812
349.56	0.806
349.77	0.801
349.98	0.808
350.19	0.805
350.39	0.800
350.60	0.795
350.81	0.812
351.02	0.811
351.23	0.805
351.44	0.806
351.65	0.810
351.86	0.808
352.06	0.806
352.27	0.805
352.48	0.807
352.69	0.807
352.90	0.802
353.11	0.788
353.31	0.794
353.52	0.791
353.73	0.784
353.94	0.786
354.15	0.792
354.36	0.791
354.57	0.781
354.77	0.784
354.98	0.783
355.19	0.783
355.40	0.782
355.61	0.788
355.82	0.792
356.02	0.791
356.23	0.783
356.44	0.785
356.65	0.790
356.86	0.791
357.07	0.784
357.27	0.787
357.48	0.790
357.69	0.786
357.90	0.769
358.11	0.767
358.32	0.771
358.52	0.774
358.73	0.764
358.94	0.767
359.15	0.771
359.36	0.771
359.56	0.766
359.77	0.763
359.98	0.770
360.19	0.770
360.40	0.767
360.61	0.767
360.81	0.766
361.02	0.767
361.23	0.758
361.44	0.757
361.65	0.758
361.85	0.758
362.06	0.756
362.27	0.758
362.48	0.758
362.69	0.760
362.89	0.753
363.10	0.754
363.31	0.759
363.52	0.762
363.73	0.756
363.93	0.757
364.14	0.760
364.35	0.760
364.56	0.750
364.77	0.753
364.97	0.755
365.18	0.756
365.39	0.750
365.60	0.747
365.81	0.748
366.01	0.749
366.22	0.744
366.43	0.743
366.64	0.745
366.84	0.751
367.05	0.747
367.26	0.747
367.47	0.749
367.68	0.750
367.88	0.746
368.09	0.743
368.30	0.746
368.51	0.746
368.71	0.745
368.92	0.750
369.13	0.748
369.34	0.748
369.55	0.746
369.75	0.745
369.96	0.752
370.17	0.752
370.38	0.749
370.58	0.749
370.79	0.754
371.00	0.753
371.21	0.743
371.41	0.747
371.62	0.751
371.83	0.748
372.04	0.746
372.24	0.740
372.45	0.741
372.66	0.741
372.87	0.737
373.07	0.734
373.28	0.735
373.49	0.739
373.70	0.730
373.90	0.728
374.11	0.737
374.32	0.736
374.53	0.734
374.73	0.735
374.94	0.737
375.15	0.737
375.36	0.735
375.56	0.744
375.77	0.744
375.98	0.745
376.19	0.742
376.39	0.736
376.60	0.740
376.81	0.741
377.02	0.739
377.22	0.739
377.43	0.738
377.64	0.738
377.84	0.729
378.05	0.733
378.26	0.739
378.47	0.739
378.67	0.735
378.88	0.731
379.09	0.732
379.30	0.732
379.50	0.729
379.71	0.732
379.92	0.734
380.12	0.734
380.33	0.725
380.54	0.721
380.75	0.728
380.95	0.728
381.16	0.725
381.37	0.726
381.57	0.728
381.78	0.729
381.99	0.728
382.20	0.727
382.40	0.730
382.61	0.731
382.82	0.727
383.02	0.721
383.23	0.724
383.44	0.725
383.64	0.722
383.85	0.724
384.06	0.726
384.27	0.724
384.47	0.722
384.68	0.722
384.89	0.728
385.09	0.728
385.30	0.726
385.51	0.725
385.71	0.729
385.92	0.730
386.13	0.728
386.33	0.730
386.54	0.732
386.75	0.731
386.95	0.726
387.16	0.721
387.37	0.724
387.58	0.725
387.78	0.723
387.99	0.720
388.20	0.722
388.40	0.719
388.61	0.714
388.82	0.717
389.02	0.719
389.23	0.719
389.44	0.717
389.64	0.717
389.85	0.728
390.06	0.727
390.26	0.728
390.47	0.727
390.68	0.729
390.88	0.728
391.09	0.723
391.30	0.722
391.50	0.722
391.71	0.722
391.92	0.719
392.12	0.711
392.33	0.712
392.53	0.711
392.74	0.711
392.95	0.710
393.15	0.713
393.36	0.715
393.57	0.713
393.77	0.716
393.98	0.718
394.19	0.718
394.39	0.718
394.60	0.719
394.81	0.721
395.01	0.718
395.22	0.717
395.43	0.718
395.63	0.723
395.84	0.724
396.04	0.720
396.25	0.721
396.46	0.723
396.66	0.722
396.87	0.719
397.08	0.716
397.28	0.718
397.49	0.719
397.69	0.715
397.90	0.710
398.11	0.711
398.31	0.712
398.52	0.708
398.73	0.709
398.93	0.708
399.14	0.707
399.34	0.706
399.55	0.707
399.76	0.708
399.96	0.709
400.17	0.707
400.37	0.705
400.58	0.712
400.79	0.714
400.99	0.711
401.20	0.716
401.41	0.719
401.61	0.720
401.82	0.724
402.02	0.724
402.23	0.725
402.44	0.724
402.64	0.724
402.85	0.718
403.05	0.717
403.26	0.716
403.47	0.710
403.67	0.709
403.88	0.710
404.08	0.704
404.29	0.702
404.50	0.702
404.70	0.702
404.91	0.701
405.11	0.699
405.32	0.699
405.52	0.699
405.73	0.699
405.94	0.697
406.14	0.700
406.35	0.701
406.55	0.701
406.76	0.699
406.97	0.700
407.17	0.702
407.38	0.701
407.58	0.700
407.79	0.703
407.99	0.705
408.20	0.706
408.41	0.702
408.61	0.700
408.82	0.701
409.02	0.701
409.23	0.698
409.43	0.697
409.64	0.699
409.84	0.699
410.05	0.695
410.26	0.693
410.46	0.693
410.67	0.692
410.87	0.693
411.08	0.695
411.28	0.696
411.49	0.698
411.69	0.695
411.90	0.697
412.11	0.698
412.31	0.699
412.52	0.698
412.72	0.699
412.93	0.700
413.13	0.699
413.34	0.695
413.54	0.696
413.75	0.698
413.95	0.697
414.16	0.693
414.37	0.696
414.57	0.697
414.78	0.699
414.98	0.696
415.19	0.698
415.39	0.695
415.60	0.697
415.80	0.697
416.01	0.695
416.21	0.697
416.42	0.698
416.62	0.693
416.83	0.693
417.03	0.692
417.24	0.693
417.44	0.690
417.65	0.689
417.86	0.690
418.06	0.688
418.27	0.686
418.47	0.689
418.68	0.690
418.88	0.690
419.09	0.688
419.29	0.689
419.50	0.690
419.70	0.690
419.91	0.689
420.11	0.687
420.32	0.689
420.52	0.688
420.73	0.687
420.93	0.687
421.14	0.690
421.34	0.688
421.55	0.684
421.75	0.684
421.96	0.685
422.16	0.685
422.37	0.684
422.57	0.681
422.78	0.682
422.98	0.679
423.19	0.677
423.39	0.675
423.60	0.679
423.80	0.681
424.01	0.679
424.21	0.681
424.42	0.682
424.62	0.682
424.83	0.682
425.03	0.682
425.23	0.685
425.44	0.685
425.64	0.686
425.85	0.684
426.05	0.685
426.26	0.686
426.46	0.683
426.67	0.682
426.87	0.686
427.08	0.686
427.28	0.684
427.49	0.684
427.69	0.685
427.90	0.684
428.10	0.680
428.31	0.680
428.51	0.682
428.71	0.681
428.92	0.682
429.12	0.679
429.33	0.681
429.53	0.685
429.74	0.689
429.94	0.689
430.15	0.688
430.35	0.688
430.56	0.685
430.76	0.684
430.96	0.685
431.17	0.683
431.37	0.680
431.58	0.678
431.78	0.676
431.99	0.668
432.19	0.670
432.40	0.672
432.60	0.673
432.80	0.676
433.01	0.675
433.21	0.674
433.42	0.677
433.62	0.677
433.83	0.676
434.03	0.678
434.23	0.682
434.44	0.680
434.64	0.678
434.85	0.682
435.05	0.683
435.26	0.683
435.46	0.681
435.66	0.680
435.87	0.681
436.07	0.681
436.28	0.677
436.48	0.674
436.69	0.674
436.89	0.675
437.09	0.669
437.30	0.668
437.50	0.668
437.71	0.680
437.91	0.679
438.11	0.680
438.32	0.685
438.52	0.685
438.73	0.684
438.93	0.682
439.13	0.682
439.34	0.685
439.54	0.683
439.75	0.683
439.95	0.673
440.15	0.678
440.36	0.676
440.56	0.674
440.77	0.675
440.97	0.675
441.17	0.674
441.38	0.675
441.58	0.673
441.79	0.673
441.99	0.671
442.19	0.670
442.40	0.667
442.60	0.668
442.81	0.665
443.01	0.665
443.21	0.666
443.42	0.665
443.62	0.663
443.82	0.662
444.03	0.664
444.23	0.665
444.44	0.665
444.64	0.664
444.84	0.665
445.05	0.665
445.25	0.662
445.45	0.663
445.66	0.666
445.86	0.666
446.06	0.667
446.27	0.666
446.47	0.669
446.68	0.667
446.88	0.666
447.08	0.666
447.29	0.668
447.49	0.668
447.69	0.667
447.90	0.665
448.10	0.669
448.30	0.666
448.51	0.667
448.71	0.665
448.91	0.668
449.12	0.667
449.32	0.668
449.52	0.668
449.73	0.672
449.93	0.671
450.14	0.672
450.34	0.671
450.54	0.673
450.75	0.670
450.95	0.669
451.15	0.668
451.36	0.671
451.56	0.667
451.76	0.666
451.97	0.663
452.17	0.663
452.37	0.661
452.58	0.658
452.78	0.657
452.98	0.661
453.19	0.660
453.39	0.660
453.59	0.659
453.79	0.661
454.00	0.662
454.20	0.660
454.40	0.661
454.61	0.663
454.81	0.664
455.01	0.662
455.22	0.663
455.42	0.665
455.62	0.663
455.83	0.662
456.03	0.665
456.23	0.666
456.44	0.666
456.64	0.664
456.84	0.664
457.04	0.665
457.25	0.664
457.45	0.660
457.65	0.659
457.86	0.660
458.06	0.659
458.26	0.655
458.47	0.654
458.67	0.656
458.87	0.657
459.07	0.655
459.28	0.658
459.48	0.660
459.68	0.661
459.89	0.659
460.09	0.659
460.29	0.660
460.49	0.662
460.70	0.660
460.90	0.660
461.10	0.661
461.31	0.660
461.51	0.656
461.71	0.657
461.91	0.659
462.12	0.659
462.32	0.658
462.52	0.658
462.72	0.661
462.93	0.661
463.13	0.660
463.33	0.660
463.53	0.662
463.74	0.662
463.94	0.658
464.14	0.658
464.35	0.659
464.55	0.659
464.75	0.657
464.95	0.654
465.16	0.657
465.36	0.656
465.56	0.656
465.76	0.655
465.97	0.655
466.17	0.656
466.37	0.654
466.57	0.655
466.78	0.656
466.98	0.656
467.18	0.654
467.38	0.652
467.59	0.654
467.79	0.654
467.99	0.653
468.19	0.655
468.39	0.658
468.60	0.658
468.80	0.656
469.00	0.658
469.20	0.658
469.41	0.659
469.61	0.658
469.81	0.659
470.01	0.659
470.22	0.659
470.42	0.657
470.62	0.655
470.82	0.657
471.02	0.657
471.23	0.654
471.43	0.655
471.63	0.658
471.83	0.657
472.04	0.656
472.24	0.655
472.44	0.659
472.64	0.659
472.84	0.657
473.05	0.657
473.25	0.659
473.45	0.658
473.65	0.656
473.85	0.656
474.06	0.658
474.26	0.658
474.46	0.658
474.66	0.655
474.86	0.656
475.07	0.656
475.27	0.653
475.47	0.651
475.67	0.652
475.87	0.655
476.08	0.651
476.28	0.652
476.48	0.654
476.68	0.652
476.88	0.650
477.09	0.650
477.29	0.653
477.49	0.653
477.69	0.652
477.89	0.651
478.09	0.651
478.30	0.652
478.50	0.649
478.70	0.649
478.90	0.650
479.10	0.653
479.31	0.654
479.51	0.652
479.71	0.653
479.91	0.653
480.11	0.652
480.31	0.653
480.52	0.652
480.72	0.652
480.92	0.651
481.12	0.649
481.32	0.647
481.52	0.644
481.72	0.644
481.93	0.648
482.13	0.649
482.33	0.649
482.53	0.646
482.73	0.647
482.93	0.648
483.14	0.648
483.34	0.647
483.54	0.647
483.74	0.647
483.94	0.646
484.14	0.642
484.34	0.641
484.55	0.642
484.75	0.642
484.95	0.640
485.15	0.639
485.35	0.639
485.55	0.639
485.75	0.637
485.96	0.638
486.16	0.639
486.36	0.638
486.56	0.637
486.76	0.637
486.96	0.638
487.16	0.637
487.36	0.636
487.57	0.635
487.77	0.636
487.97	0.637
488.17	0.634
488.37	0.634
488.57	0.634
488.77	0.634
488.97	0.632
489.18	0.632
489.38	0.635
489.58	0.635
489.78	0.634
489.98	0.634
490.18	0.634
490.38	0.635
490.58	0.634
490.78	0.634
490.98	0.637
491.19	0.637
491.39	0.636
491.59	0.635
491.79	0.638
491.99	0.638
492.19	0.638
492.39	0.641
492.59	0.641
492.79	0.643
492.99	0.643
493.20	0.643
493.40	0.643
493.60	0.645
493.80	0.643
494.00	0.641
494.20	0.642
494.40	0.642
494.60	0.639
494.80	0.643
495.00	0.642
495.20	0.641
495.40	0.640
495.61	0.642
495.81	0.641
496.01	0.645
496.21	0.645
496.41	0.644
496.61	0.645
496.81	0.644
497.01	0.638
497.21	0.638
497.41	0.638
497.61	0.638
497.81	0.635
498.01	0.636
498.21	0.633
498.41	0.631
498.61	0.631
498.82	0.633
499.02	0.635
499.22	0.636
499.42	0.635
499.62	0.637
499.82	0.638
500.02	0.639
500.22	0.637
500.42	0.639
500.62	0.640
500.82	0.641
501.02	0.638
501.22	0.639
501.42	0.638
501.62	0.641
501.82	0.640
502.02	0.639
502.22	0.639
502.42	0.641
502.62	0.638
502.82	0.638
503.02	0.639
503.22	0.639
503.42	0.637
503.63	0.637
503.83	0.635
504.03	0.634
504.23	0.633
504.43	0.634
504.63	0.635
504.83	0.635
505.03	0.633
505.23	0.635
505.43	0.637
505.63	0.637
505.83	0.638
506.03	0.639
506.23	0.641
506.43	0.641
506.63	0.640
506.83	0.640
507.03	0.642
507.23	0.642
507.43	0.639
507.63	0.640
507.83	0.640
508.03	0.640
508.23	0.640
508.43	0.638
508.63	0.640
508.83	0.640
509.03	0.641
509.23	0.640
509.43	0.641
509.63	0.641
509.83	0.640
510.03	0.642
510.23	0.643
510.43	0.644
510.63	0.645
510.83	0.644
511.03	0.646
511.23	0.643
511.43	0.643
511.63	0.644
511.83	0.646
512.03	0.646
512.22	0.643
512.42	0.643
512.62	0.644
512.82	0.643
513.02	0.643
513.22	0.643
513.42	0.645
513.62	0.648
513.82	0.646
514.02	0.645
514.22	0.646
514.42	0.646
514.62	0.646
514.82	0.646
515.02	0.649
515.22	0.652
515.42	0.651
515.62	0.653
515.82	0.652
516.02	0.654
516.22	0.654
516.42	0.655
516.62	0.658
516.82	0.659
517.01	0.657
517.21	0.656
517.41	0.659
517.61	0.660
517.81	0.656
518.01	0.655
518.21	0.655
518.41	0.654
518.61	0.652
518.81	0.652
519.01	0.654
519.21	0.654
519.41	0.653
519.61	0.647
519.81	0.650
520.00	0.650
520.20	0.651
520.40	0.654
520.60	0.655
520.80	0.654
521.00	0.654
521.20	0.654
521.40	0.659
521.60	0.659
521.80	0.658
522.00	0.658
522.20	0.661
522.39	0.659
522.59	0.656
522.79	0.658
522.99	0.660
523.19	0.658
523.39	0.655
523.59	0.654
523.79	0.657
523.99	0.660
524.19	0.659
524.38	0.658
524.58	0.660
524.78	0.660
524.98	0.658
525.18	0.661
525.38	0.662
525.58	0.663
525.78	0.661
525.98	0.660
526.18	0.660
526.37	0.659
526.57	0.661
526.77	0.660
526.97	0.661
527.17	0.661
527.37	0.657
527.57	0.660
527.77	0.661
527.96	0.661
528.16	0.659
528.36	0.660
528.56	0.662
528.76	0.660
528.96	0.659
529.16	0.660
529.36	0.663
529.55	0.663
529.75	0.660
529.95	0.660
530.15	0.662
530.35	0.664
530.55	0.662
530.75	0.662
530.94	0.664
531.14	0.664
531.34	0.662
531.54	0.660
531.74	0.663
531.94	0.666
532.13	0.664
532.33	0.666
532.53	0.664
532.73	0.663
532.93	0.661
533.13	0.662
533.33	0.663
533.52	0.663
533.72	0.666
533.92	0.665
534.12	0.663
534.32	0.663
534.52	0.661
534.71	0.664
534.91	0.667
535.11	0.669
535.31	0.667
535.51	0.669
535.71	0.670
535.90	0.668
536.10	0.669
536.30	0.671
536.50	0.672
536.70	0.672
536.89	0.670
537.09	0.669
537.29	0.671
537.49	0.672
537.69	0.670
537.89	0.670
538.08	0.670
538.28	0.668
538.48	0.668
538.68	0.670
538.88	0.672
539.07	0.672
539.27	0.670
539.47	0.670
539.67	0.670
539.87	0.670
540.06	0.668
540.26	0.668
540.46	0.671
540.66	0.668
540.86	0.665
541.05	0.665
541.25	0.666
541.45	0.666
541.65	0.664
541.84	0.666
542.04	0.667
542.24	0.667
542.44	0.667
542.64	0.669
542.83	0.672
543.03	0.672
543.23	0.670
543.43	0.671
543.62	0.673
543.82	0.673
544.02	0.672
544.22	0.672
544.42	0.676
544.61	0.676
544.81	0.672
545.01	0.671
545.21	0.673
545.40	0.673
545.60	0.671
545.80	0.675
546.00	0.675
546.19	0.675
546.39	0.673
546.59	0.671
546.79	0.673
546.98	0.674
547.18	0.673
547.38	0.674
547.58	0.677
547.77	0.677
547.97	0.673
548.17	0.674
548.37	0.675
548.56	0.675
548.76	0.674
548.96	0.676
549.16	0.679
549.35	0.679
549.55	0.676
549.75	0.676
549.95	0.680
550.14	0.680
550.34	0.678
550.54	0.683
550.73	0.688
550.93	0.688
551.13	0.684
551.33	0.682
551.52	0.683
551.72	0.684
551.92	0.681
552.12	0.682
552.31	0.683
552.51	0.683
552.71	0.678
552.90	0.678
553.10	0.679
553.30	0.679
553.50	0.679
553.69	0.680
553.89	0.681
554.09	0.682
554.28	0.678
554.48	0.680
554.68	0.682
554.87	0.683
555.07	0.680
555.27	0.679
555.47	0.681
555.66	0.681
555.86	0.680
556.06	0.682
556.25	0.683
556.45	0.691
556.65	0.688
556.84	0.690
557.04	0.693
557.24	0.695
557.43	0.695
557.63	0.698
557.83	0.699
558.02	0.700
558.22	0.703
558.42	0.704
558.61	0.697
558.81	0.698
559.01	0.694
559.21	0.693
559.40	0.695
559.60	0.695
559.80	0.691
559.99	0.693
560.19	0.695
560.39	0.688
560.58	0.686
560.78	0.687
560.97	0.690
561.17	0.689
561.37	0.687
561.56	0.687
561.76	0.689
561.96	0.689
562.15	0.686
562.35	0.688
562.55	0.690
562.74	0.689
562.94	0.687
563.14	0.685
563.33	0.687
563.53	0.687
563.73	0.685
563.92	0.686
564.12	0.688
564.31	0.691
564.51	0.689
564.71	0.690
564.90	0.694
565.10	0.695
565.30	0.698
565.49	0.698
565.69	0.701
565.89	0.701
566.08	0.698
566.28	0.699
566.47	0.701
566.67	0.699
566.87	0.696
567.06	0.698
567.26	0.704
567.46	0.699
567.65	0.698
567.85	0.699
568.04	0.702
568.24	0.700
568.44	0.697
568.63	0.696
568.83	0.697
569.02	0.695
569.22	0.690
569.42	0.687
569.61	0.690
569.81	0.689
570.00	0.686
570.20	0.688
570.40	0.689
570.59	0.689
570.79	0.686
570.98	0.684
571.18	0.686
571.38	0.686
571.57	0.683
571.77	0.680
571.96	0.684
572.16	0.681
572.35	0.676
572.55	0.677
572.75	0.676
572.94	0.675
573.14	0.674
573.33	0.674
573.53	0.675
573.73	0.674
573.92	0.672
574.12	0.670
574.31	0.672
574.51	0.673
574.70	0.670
574.90	0.672
575.09	0.674
575.29	0.674
575.49	0.671
575.68	0.672
575.88	0.674
576.07	0.675
576.27	0.673
576.46	0.671
576.66	0.670
576.86	0.670
577.05	0.667
577.25	0.666
577.44	0.668
577.64	0.667
577.83	0.665
578.03	0.666
578.22	0.666
578.42	0.666
578.61	0.664
578.81	0.665
579.00	0.665
579.20	0.664
579.40	0.663
579.59	0.662
579.79	0.663
579.98	0.662
580.18	0.661
580.37	0.662
580.57	0.664
580.76	0.668
580.96	0.667
581.15	0.667
581.35	0.670
581.54	0.669
581.74	0.668
581.93	0.670
582.13	0.671
582.32	0.668
582.52	0.666
582.71	0.666
582.91	0.662
583.10	0.662
583.30	0.661
583.49	0.660
583.69	0.664
583.88	0.665
584.08	0.664
584.27	0.665
584.47	0.669
584.66	0.670
584.86	0.669
585.05	0.671
585.25	0.674
585.44	0.673
585.64	0.671
585.83	0.669
586.03	0.670
586.22	0.669
586.42	0.665
586.61	0.666
586.81	0.669
587.00	0.668
587.20	0.666
587.39	0.666
587.59	0.668
587.78	0.670
587.98	0.670
588.17	0.671
588.37	0.673
588.56	0.675
588.76	0.671
588.95	0.671
589.15	0.675
589.34	0.678
589.54	0.676
589.73	0.677
589.92	0.680
590.12	0.679
590.31	0.677
590.51	0.682
590.70	0.684
590.90	0.685
591.09	0.682
591.29	0.681
591.48	0.681
591.68	0.681
591.87	0.679
592.06	0.679
592.26	0.681
592.45	0.681
592.65	0.674
592.84	0.674
593.04	0.677
593.23	0.679
593.43	0.676
593.62	0.676
593.81	0.676
594.01	0.676
594.20	0.674
594.40	0.673
594.59	0.675
594.79	0.676
594.98	0.674
595.17	0.673
595.37	0.674
595.56	0.677
595.76	0.676
595.95	0.678
596.14	0.681
596.34	0.683
596.53	0.681
596.73	0.683
596.92	0.684
597.12	0.687
597.31	0.686
597.50	0.684
597.70	0.687
597.89	0.686
598.09	0.682
598.28	0.684
598.47	0.686
598.67	0.685
598.86	0.681
599.06	0.682
599.25	0.683
599.44	0.681
599.64	0.678
599.83	0.676
600.03	0.679
600.22	0.679
600.41	0.679
600.61	0.677
600.80	0.680
601.00	0.680
601.19	0.676
601.38	0.675
601.58	0.678
601.77	0.679
601.96	0.682
602.16	0.682
602.35	0.691
602.55	0.688
602.74	0.688
602.93	0.689
603.13	0.695
603.32	0.696
603.51	0.695
603.71	0.698
603.90	0.700
604.09	0.700
604.29	0.698
604.48	0.692
604.68	0.694
604.87	0.692
605.06	0.689
605.26	0.685
605.45	0.687
605.64	0.686
605.84	0.681
606.03	0.680
606.22	0.679
606.42	0.678
606.61	0.675
606.80	0.675
607.00	0.677
607.19	0.677
607.38	0.676
607.58	0.677
607.77	0.679
607.96	0.679
608.16	0.678
608.35	0.682
608.54	0.686
608.74	0.689
608.93	0.694
609.12	0.697
609.32	0.699
609.51	0.702
609.70	0.701
609.90	0.703
610.09	0.708
610.28	0.713
610.48	0.707
610.67	0.708
610.86	0.709
611.06	0.702
611.25	0.700
611.44	0.701
611.64	0.701
611.83	0.704
612.02	0.699
612.21	0.698
612.41	0.696
612.60	0.696
612.79	0.691
612.99	0.692
613.18	0.695
613.37	0.692
613.57	0.690
613.76	0.692
613.95	0.690
614.14	0.690
614.34	0.687
614.53	0.688
614.72	0.692
614.92	0.692
615.11	0.689
615.30	0.686
615.49	0.688
615.69	0.691
615.88	0.687
616.07	0.688
616.26	0.690
616.46	0.691
616.65	0.688
616.84	0.686
617.04	0.688
617.23	0.691
617.42	0.691
617.61	0.695
617.81	0.696
618.00	0.698
618.19	0.696
618.38	0.701
618.58	0.705
618.77	0.706
618.96	0.706
619.15	0.708
619.35	0.709
619.54	0.710
619.73	0.705
619.92	0.707
620.12	0.712
620.31	0.712
620.50	0.706
620.69	0.706
620.89	0.710
621.08	0.710
621.27	0.709
621.46	0.708
621.66	0.713
621.85	0.713
622.04	0.709
622.23	0.710
622.43	0.711
622.62	0.711
622.81	0.710
623.00	0.709
623.19	0.714
623.39	0.713
623.58	0.709
623.77	0.707
623.96	0.710
624.16	0.709
624.35	0.703
624.54	0.706
624.73	0.710
624.92	0.707
625.12	0.705
625.31	0.705
625.50	0.708
625.69	0.710
625.88	0.706
626.08	0.706
626.27	0.709
626.46	0.710
626.65	0.707
626.84	0.707
627.04	0.713
627.23	0.713
627.42	0.707
627.61	0.710
627.80	0.712
628.00	0.713
628.19	0.712
628.38	0.714
628.57	0.717
628.76	0.716
628.96	0.713
629.15	0.714
629.34	0.717
629.53	0.718
629.72	0.711
629.91	0.713
630.11	0.717
630.30	0.718
630.49	0.719
630.68	0.720
630.87	0.725
631.06	0.726
631.26	0.720
631.45	0.722
631.64	0.731
631.83	0.734
632.02	0.730
632.21	0.729
632.41	0.737
632.60	0.731
632.79	0.728
632.98	0.729
633.17	0.730
633.36	0.733
633.55	0.729
633.75	0.725
633.94	0.726
634.13	0.727
634.32	0.723
634.51	0.717
634.70	0.720
634.89	0.720
635.09	0.715
635.28	0.715
635.47	0.717
635.66	0.720
635.85	0.716
636.04	0.717
636.23	0.722
636.43	0.724
636.62	0.722
636.81	0.721
637.00	0.724
637.19	0.727
637.38	0.724
637.57	0.723
637.76	0.725
637.95	0.727
638.15	0.723
638.34	0.720
638.53	0.724
638.72	0.725
638.91	0.722
639.10	0.720
639.29	0.721
639.48	0.723
639.67	0.722
639.87	0.720
640.06	0.726
640.25	0.725
640.44	0.727
640.63	0.727
640.82	0.730
641.01	0.729
641.20	0.730
641.39	0.731
641.58	0.732
641.78	0.731
641.97	0.727
642.16	0.742
642.35	0.743
642.54	0.741
642.73	0.735
642.92	0.734
643.11	0.738
643.30	0.737
643.49	0.731
643.68	0.734
643.87	0.736
644.06	0.736
644.25	0.713
644.45	0.716
644.64	0.719
644.83	0.718
645.02	0.716
645.21	0.715
645.40	0.717
645.59	0.717
645.78	0.711
645.97	0.712
646.16	0.714
646.35	0.715
646.54	0.713
646.73	0.714
646.92	0.717
647.11	0.716
647.30	0.711
647.49	0.712
647.68	0.712
647.88	0.711
648.07	0.704
648.26	0.707
648.45	0.708
648.64	0.704
648.83	0.700
649.02	0.703
649.21	0.714
649.40	0.713
649.59	0.707
649.78	0.709
649.97	0.723
650.16	0.723
650.35	0.716
650.54	0.719
650.73	0.728
650.92	0.725
651.11	0.718
651.30	0.714
651.49	0.719
651.68	0.720
651.87	0.716
652.06	0.706
652.25	0.709
652.44	0.712
652.63	0.708
652.82	0.707
653.01	0.708
653.20	0.704
653.39	0.693
653.58	0.690
653.77	0.690
653.96	0.685
654.15	0.677
654.34	0.675
654.53	0.670
654.72	0.664
654.91	0.655
655.10	0.650
655.29	0.649
655.48	0.647
655.67	0.641
655.86	0.638
656.05	0.637
656.24	0.637
656.43	0.631
656.62	0.631
656.81	0.631
657.00	0.629
657.19	0.627
657.38	0.627
657.57	0.626
657.76	0.629
657.95	0.627
658.14	0.631
658.33	0.635
658.51	0.640
658.70	0.640
658.89	0.642
659.08	0.651
659.27	0.659
659.46	0.659
659.65	0.666
659.84	0.670
660.03	0.674
660.22	0.675
660.41	0.679
660.60	0.678
660.79	0.680
660.98	0.685
661.17	0.685
661.36	0.684
661.55	0.685
661.74	0.681
661.92	0.684
662.11	0.687
662.30	0.685
662.49	0.678
662.68	0.677
662.87	0.681
663.06	0.675
663.25	0.675
663.44	0.676
663.63	0.677
663.82	0.676
664.01	0.670
664.20	0.668
664.38	0.670
664.57	0.671
664.76	0.671
664.95	0.671
665.14	0.677
665.33	0.671
665.52	0.678
665.71	0.682
665.90	0.682
666.09	0.684
666.28	0.681
666.46	0.681
666.65	0.682
666.84	0.680
667.03	0.674
667.22	0.672
667.41	0.675
667.60	0.664
667.79	0.657
667.98	0.658
668.16	0.659
668.35	0.659
668.54	0.653
668.73	0.655
668.92	0.656
669.11	0.655
669.30	0.649
669.49	0.645
669.67	0.648
669.86	0.650
670.05	0.647
670.24	0.645
670.43	0.643
670.62	0.642
670.81	0.636
671.00	0.637
671.18	0.637
671.37	0.636
671.56	0.634
671.75	0.633
671.94	0.630
672.13	0.628
672.32	0.623
672.50	0.622
672.69	0.622
672.88	0.623
673.07	0.618
673.26	0.620
673.45	0.621
673.63	0.622
673.82	0.618
674.01	0.619
674.20	0.619
674.39	0.619
674.58	0.618
674.76	0.619
674.95	0.618
675.14	0.617
675.33	0.613
675.52	0.612
675.71	0.612
675.89	0.611
676.08	0.607
676.27	0.607
676.46	0.608
676.65	0.607
676.84	0.606
677.02	0.607
677.21	0.610
677.40	0.608
677.59	0.606
677.78	0.606
677.96	0.609
678.15	0.608
678.34	0.605
678.53	0.606
678.72	0.606
678.90	0.602
679.09	0.598
679.28	0.594
679.47	0.594
679.66	0.594
679.84	0.590
680.03	0.587
680.22	0.587
680.41	0.589
680.60	0.586
680.78	0.585
680.97	0.588
681.16	0.589
681.35	0.587
681.53	0.587
681.72	0.588
681.91	0.590
682.10	0.588
682.29	0.591
682.47	0.588
682.66	0.587
682.85	0.586
683.04	0.584
683.22	0.584
683.41	0.586
683.60	0.584
683.79	0.585
683.97	0.585
684.16	0.583
684.35	0.579
684.54	0.580
684.72	0.581
684.91	0.582
685.10	0.580
685.29	0.581
685.47	0.578
685.66	0.577
685.85	0.573
686.04	0.573
686.22	0.576
686.41	0.578
686.60	0.575
686.79	0.578
686.97	0.579
687.16	0.580
687.35	0.577
687.54	0.581
687.72	0.586
687.91	0.586
688.10	0.587
688.29	0.586
688.47	0.584
688.66	0.584
688.85	0.580
689.03	0.578
689.22	0.583
689.41	0.584
689.60	0.579
689.78	0.575
689.97	0.576
690.16	0.574
690.34	0.570
690.53	0.569
690.72	0.570
690.91	0.568
691.09	0.565
691.28	0.560
691.47	0.557
691.65	0.556
691.84	0.553
692.03	0.553
692.21	0.550
692.40	0.550
692.59	0.548
692.77	0.547
692.96	0.549
693.15	0.549
693.34	0.547
693.52	0.548
693.71	0.549
693.90	0.550
694.08	0.551
694.27	0.552
694.46	0.562
694.64	0.563
694.83	0.562
695.02	0.560
695.20	0.560
695.39	0.559
695.58	0.559
695.76	0.559
695.95	0.559
696.14	0.558
696.32	0.556
696.51	0.547
696.70	0.547
696.88	0.547
697.07	0.546
697.26	0.547
697.44	0.549
697.63	0.547
697.81	0.545
698.00	0.544
698.19	0.544
698.37	0.543
698.56	0.543
698.75	0.543
698.93	0.543
699.12	0.542
699.31	0.540
699.49	0.540
699.68	0.541
699.87	0.544
700.05	0.543
700.24	0.542
700.42	0.544
700.61	0.543
700.80	0.541
700.98	0.541
701.17	0.543
701.36	0.543
701.54	0.542
701.73	0.544
701.91	0.542
702.10	0.542
702.29	0.540
702.47	0.539
702.66	0.541
702.84	0.543
703.03	0.540
703.22	0.542
703.40	0.542
703.59	0.543
703.77	0.542
703.96	0.541
704.15	0.542
704.33	0.541
704.52	0.540
704.70	0.539
704.89	0.539
705.08	0.538
705.26	0.534
705.45	0.534
705.63	0.533
705.82	0.529
706.00	0.528
706.19	0.528
706.38	0.528
706.56	0.528
706.75	0.526
706.93	0.524
707.12	0.525
707.30	0.525
707.49	0.523
707.68	0.521
707.86	0.522
708.05	0.522
708.23	0.519
708.42	0.519
708.60	0.522
708.79	0.522
708.98	0.521
709.16	0.520
709.35	0.523
709.53	0.527
709.72	0.525
709.90	0.527
710.09	0.529
710.27	0.532
710.46	0.535
710.64	0.534
710.83	0.536
711.02	0.537
711.20	0.536
711.39	0.534
711.57	0.532
711.76	0.533
711.94	0.530
712.13	0.532
712.31	0.531
712.50	0.527
712.68	0.524
712.87	0.524
713.05	0.525
713.24	0.525
713.42	0.524
713.61	0.525
713.79	0.525
713.98	0.526
714.16	0.526
714.35	0.525
714.54	0.526
714.72	0.527
714.91	0.525
715.09	0.531
715.28	0.535
715.46	0.535
715.65	0.532
715.83	0.532
716.02	0.534
716.20	0.530
716.39	0.530
716.57	0.531
716.76	0.533
716.94	0.533
717.12	0.524
717.31	0.526
717.49	0.530
717.68	0.532
717.86	0.532
718.05	0.534
718.23	0.537
718.42	0.539
718.60	0.540
718.79	0.548
718.97	0.552
719.16	0.552
719.34	0.549
719.53	0.549
719.71	0.549
719.90	0.551
720.08	0.547
720.27	0.548
720.45	0.548
720.63	0.547
720.82	0.541
721.00	0.544
721.19	0.548
721.37	0.546
721.56	0.547
721.74	0.550
721.93	0.558
722.11	0.566
722.30	0.564
722.48	0.569
722.66	0.571
722.85	0.570
723.03	0.570
723.22	0.568
723.40	0.572
723.59	0.572
723.77	0.576
723.95	0.570
724.14	0.571
724.32	0.573
724.51	0.573
724.69	0.574
724.88	0.574
725.06	0.573
725.24	0.573
725.43	0.576
725.61	0.579
725.80	0.573
725.98	0.569
726.16	0.566
726.35	0.572
726.53	0.570
726.72	0.568
726.90	0.580
727.09	0.580
727.27	0.586
727.45	0.582
727.64	0.593
727.82	0.601
728.01	0.606
728.19	0.604
728.37	0.609
728.56	0.614
728.74	0.621
728.92	0.608
729.11	0.611
729.29	0.611
729.48	0.614
729.66	0.601
729.84	0.602
730.03	0.605
730.21	0.606
730.40	0.596
730.58	0.598
730.76	0.599
730.95	0.602
731.13	0.600
731.31	0.613
731.50	0.624
731.68	0.628
731.86	0.624
732.05	0.639
732.23	0.643
732.42	0.646
732.60	0.648
732.78	0.652
732.97	0.672
733.15	0.680
733.33	0.667
733.52	0.673
733.70	0.686
733.88	0.695
734.07	0.680
734.25	0.709
734.43	0.720
734.62	0.724
734.80	0.720
734.98	0.709
735.17	0.718
735.35	0.725
735.53	0.714
735.72	0.716
735.90	0.741
736.08	0.762
736.27	0.736
736.45	0.743
736.63	0.759
736.82	0.771
737.00	0.772
737.18	0.786
737.37	0.824
737.55	0.848
737.73	0.840
737.92	0.844
738.10	0.844
738.28	0.868
738.46	0.856
738.65	0.872
738.83	0.894
739.01	0.955
739.20	0.940
739.38	0.920
739.56	0.910
739.75	0.917
739.93	0.876
740.11	0.903
740.29	0.905
740.48	0.913
740.66	0.887
740.84	0.886
741.03	0.849
741.21	0.863
741.39	0.841
741.57	0.857
741.76	0.874
741.94	0.881
742.12	0.842
742.31	0.850
742.49	0.874
742.67	0.897
742.85	0.909
743.04	0.914
743.22	0.923
743.40	0.984
743.58	0.965
743.77	0.988
743.95	1.030
744.13	1.087
744.31	1.063
744.50	1.055
744.68	1.066
744.86	1.036
745.04	1.045
745.23	1.123
745.41	1.106
745.59	1.106
745.77	1.058
745.96	1.045
746.14	1.060
746.32	1.053
746.50	1.044
746.69	1.021
746.87	1.037
747.05	1.022
747.23	0.934
747.42	0.921
747.60	0.953
747.78	0.961
747.96	0.993
748.14	0.944
748.33	0.983
748.51	0.974
748.69	0.964
748.87	0.996
749.06	0.997
749.24	1.001
749.42	0.972
749.60	0.956
749.78	0.965
749.97	0.914
750.15	0.905
750.33	0.907
750.51	0.944
750.69	0.950
750.88	0.951
751.06	0.962
751.24	0.996
751.42	0.990
751.60	0.972
751.79	1.056
751.97	1.120
752.15	1.113
752.33	1.063
752.51	1.136
752.69	1.160
752.88	1.121
753.06	1.171
753.24	1.134
753.42	1.185
753.60	1.446
753.78	1.233
753.97	1.257
754.15	1.293
754.33	1.337
754.51	1.157
754.69	1.135
754.87	1.175
755.06	1.086
755.24	1.084
755.42	1.094
755.60	0.970
755.78	0.979
755.96	0.913
756.15	0.909
756.33	0.917
756.51	0.938
756.69	0.924
756.87	0.885
757.05	0.908
757.23	0.893
757.42	0.850
757.60	0.847
757.78	0.835
757.96	0.833
758.14	0.813
758.32	0.795
758.50	0.810
758.69	0.804
758.87	0.793
759.05	0.796
759.23	0.806
759.41	0.809
759.59	0.800
759.77	0.822
759.95	0.851
760.13	0.907
760.32	0.906
760.50	0.898
760.68	0.931
760.86	0.939
761.04	0.907
761.22	0.907
761.40	0.969
761.58	0.971
761.76	0.941
761.95	0.922
762.13	0.872
762.31	0.873
762.49	0.839
762.67	0.855
762.85	0.869
763.03	0.861
763.21	0.842
763.39	0.817
763.57	0.823
763.75	0.817
763.94	0.798
764.12	0.800
764.30	0.825
764.48	0.830
764.66	0.789
764.84	0.786
765.02	0.828
765.20	0.834
765.38	0.810
765.56	0.815
765.74	0.859
765.92	0.861
766.10	0.865
766.28	0.858
766.46	0.890
766.65	0.890
766.83	0.877
767.01	0.860
767.19	0.870
767.37	0.874
767.55	0.855
767.73	0.834
767.91	0.840
768.09	0.831
768.27	0.819
768.45	0.806
768.63	0.813
768.81	0.815
768.99	0.789
769.17	0.814
769.35	0.829
769.53	0.829
769.71	0.805
769.89	0.814
770.07	0.818
770.25	0.799
770.43	0.776
770.61	0.802
770.79	0.809
770.97	0.817
771.15	0.787
771.33	0.790
771.51	0.794
771.69	0.806
771.87	0.813
772.05	0.821
772.24	0.834
772.42	0.842
772.60	0.817
772.78	0.887
772.96	0.920
773.14	0.913
773.32	0.888
773.49	0.898
773.67	0.896
773.85	0.871
774.03	0.854
774.21	0.890
774.39	0.906
774.57	0.936
774.75	0.849
774.93	0.846
775.11	0.871
775.29	0.877
775.47	0.873
775.65	0.885
775.83	0.907
776.01	0.935
776.19	0.874
776.37	0.876
776.55	0.875
776.73	0.867
776.91	0.858
777.09	0.838
777.27	0.837
777.45	0.827
777.63	0.802
777.81	0.800
777.99	0.789
778.17	0.791
778.35	0.769
778.53	0.757
778.71	0.765
778.89	0.752
779.07	0.741
779.24	0.749
779.42	0.749
779.60	0.767
779.78	0.759
779.96	0.762
780.14	0.769
780.32	0.788
780.50	0.768
780.68	0.768
780.86	0.761
781.04	0.780
781.22	0.782
781.40	0.797
781.58	0.788
781.75	0.780
781.93	0.761
782.11	0.764
782.29	0.749
782.47	0.751
782.65	0.737
782.83	0.767
783.01	0.761
783.19	0.751
783.37	0.734
783.55	0.739
783.72	0.760
783.90	0.774
784.08	0.763
784.26	0.775
784.44	0.795
784.62	0.798
784.80	0.761
784.98	0.768
785.16	0.778
785.33	0.793
785.51	0.775
785.69	0.760
785.87	0.759
786.05	0.772
786.23	0.765
786.41	0.763
786.59	0.772
786.77	0.770
786.94	0.754
787.12	0.756
787.30	0.757
787.48	0.753
787.66	0.740
787.84	0.740
788.02	0.730
788.19	0.729
788.37	0.712
788.55	0.712
788.73	0.712
788.91	0.705
789.09	0.687
789.27	0.675
789.44	0.689
789.62	0.694
789.80	0.702
789.98	0.727
790.16	0.714
790.34	0.710
790.51	0.697
790.69	0.718
790.87	0.728
791.05	0.727
791.23	0.722
791.41	0.724
791.58	0.733
791.76	0.711
791.94	0.679
792.12	0.688
792.30	0.693
792.48	0.690
792.65	0.684
792.83	0.690
793.01	0.700
793.19	0.697
793.37	0.677
793.54	0.674
793.72	0.686
793.90	0.683
794.08	0.671
794.26	0.671
794.43	0.682
794.61	0.664
794.79	0.650
794.97	0.647
795.15	0.652
795.32	0.658
795.50	0.646
795.68	0.641
795.86	0.646
796.04	0.649
796.21	0.642
796.39	0.639
796.57	0.654
796.75	0.662
796.92	0.661
797.10	0.666
797.28	0.670
797.46	0.673
797.64	0.674
797.81	0.684
797.99	0.688
798.17	0.692
798.35	0.686
798.52	0.690
798.70	0.688
798.88	0.698
799.06	0.697
799.23	0.699
799.41	0.709
799.59	0.702
799.77	0.688
799.94	0.695
800.12	0.706
800.30	0.724
800.48	0.722
800.65	0.721
800.83	0.712
801.01	0.704
801.19	0.706
801.36	0.701
801.54	0.705
801.72	0.716
801.90	0.703
802.07	0.700
802.25	0.684
802.43	0.666
802.60	0.662
802.78	0.668
802.96	0.676
803.14	0.668
803.31	0.665
803.49	0.665
803.67	0.663
803.84	0.666
804.02	0.656
804.20	0.659
804.38	0.667
804.55	0.664
804.73	0.649
804.91	0.648
805.08	0.660
805.26	0.656
805.44	0.726
805.61	0.729
805.79	0.728
805.97	0.726
806.15	0.718
806.32	0.711
806.50	0.719
806.68	0.717
806.85	0.704
807.03	0.696
807.21	0.715
807.38	0.644
807.56	0.634
807.74	0.644
807.91	0.653
808.09	0.656
808.27	0.675
808.44	0.706
808.62	0.720
808.80	0.722
808.97	0.716
809.15	0.711
809.33	0.730
809.50	0.737
809.68	0.722
809.86	0.732
810.03	0.767
810.21	0.745
810.39	0.722
810.56	0.727
810.74	0.753
810.91	0.834
811.09	0.818
811.27	0.843
811.44	0.849
811.62	0.849
811.80	0.825
811.97	0.792
812.15	0.791
812.33	0.787
812.50	0.769
812.68	0.759
812.85	0.698
813.03	0.702
813.21	0.665
813.38	0.658
813.56	0.663
813.74	0.675
813.91	0.684
814.09	0.718
814.26	0.711
814.44	0.715
814.62	0.703
814.79	0.708
814.97	0.713
815.14	0.721
815.32	0.725
815.50	0.743
815.67	0.746
815.85	0.735
816.02	0.721
816.20	0.728
816.38	0.747
816.55	0.754
816.73	0.751
816.90	0.764
817.08	0.794
817.26	0.802
817.43	0.778
817.61	0.807
817.78	0.829
817.96	0.808
818.13	0.797
818.31	0.796
818.49	0.811
818.66	0.801
818.84	0.783
819.01	0.763
819.19	0.769
819.36	0.771
819.54	0.739
819.71	0.787
819.89	0.804
820.07	0.817
820.24	0.811
820.42	0.814
820.59	0.838
820.77	0.865
820.94	0.854
821.12	0.877
821.29	0.897
821.47	0.895
821.64	0.818
821.82	0.835
822.00	0.835
822.17	0.833
822.35	0.820
822.52	0.824
822.70	0.811
822.87	0.821
823.05	0.799
823.22	0.817
823.40	0.852
823.57	0.884
823.75	0.859
823.92	0.894
824.10	0.921
824.27	0.976
824.45	0.962
824.62	1.047
824.80	1.071
824.97	1.087
825.15	1.064
825.32	1.083
825.50	1.085
825.67	1.099
825.85	1.057
826.02	1.078
826.20	1.113
826.37	1.292
826.55	1.176
826.72	1.521
826.90	1.752
827.07	1.974
827.25	1.750
827.42	-0.000
827.60	-0.000
827.77	-0.000
827.95	-0.000
828.12	-0.000
828.30	-0.000
828.47	-0.000
828.65	1.921
828.82	2.435
829.00	-0.000
829.17	-0.000
829.34	-0.000
829.52	-0.000
829.69	-0.000
829.87	-0.000
830.04	-0.000
830.22	-0.000
830.39	-0.000
830.57	-0.000
830.74	-0.000
830.92	-0.000
831.09	-0.000
831.26	-0.000
831.44	-0.000
831.61	-0.000
831.79	-0.000
831.96	-0.000
832.14	-0.000
832.31	-0.000
832.49	-0.000
832.66	-0.000
832.83	-0.000
833.01	-0.000
833.18	-0.000
833.36	-0.000
833.53	-0.000
833.70	-0.000
833.88	-0.000
834.05	-0.000
834.23	-0.000
834.40	-0.000
834.58	-0.000
834.75	-0.000
834.92	-0.000
835.10	-0.000
835.27	-0.000
835.45	-0.000
835.62	-0.000
835.79	-0.000
835.97	-0.000
836.14	-0.000
836.32	-0.000
836.49	-0.000
836.66	-0.000
836.84	-0.000
837.01	-0.000
837.18	-0.000
837.36	-0.000
837.53	-0.000
837.71	-0.000
837.88	-0.000
838.05	-0.000
838.23	-0.000
838.40	-0.000
838.58	-0.000
838.75	-0.000
838.92	-0.000
839.10	-0.000
839.27	-0.000
839.44	-0.000
839.62	-0.000
839.79	-0.000
839.96	-0.000
840.14	-0.000
840.31	-0.000
840.48	-0.000
840.66	-0.000
840.83	-0.000
841.01	-0.000
841.18	-0.000
841.35	-0.000
841.53	-0.000
841.70	-0.000
841.87	-0.000
842.05	-0.000
842.22	-0.000
842.39	-0.000
842.57	-0.000
842.74	-0.000
842.91	-0.000
843.09	-0.000
843.26	-0.000
843.43	-0.000
843.60	-0.000
843.78	-0.000
843.95	-0.000
844.12	-0.000
844.30	-0.000
844.47	-0.000
844.64	-0.000
844.82	-0.000
844.99	-0.000
845.16	-0.000
845.34	-0.000
845.51	-0.000
845.68	-0.000
845.85	-0.000
846.03	-0.000
846.20	-0.000
846.37	-0.000
846.55	-0.000
846.72	-0.000
846.89	-0.000
847.06	-0.000
847.24	-0.000
847.41	-0.000
847.58	-0.000
847.76	-0.000
847.93	-0.000
848.10	-0.000
848.27	-0.000
848.45	-0.000
848.62	-0.000
848.79	-0.000
848.97	-0.000
849.14	-0.000
849.31	-0.000
849.48	-0.000
849.66	-0.000
849.83	-0.000
850.00	-0.000
850.17	-0.000
850.35	-0.000
850.52	-0.000
850.69	-0.000
850.86	-0.000
851.04	-0.000
851.21	-0.000
851.38	-0.000
851.55	-0.000
851.72	-0.000
851.90	-0.000
852.07	-0.000
852.24	-0.000
852.41	-0.000
852.59	-0.000
852.76	-0.000
852.93	-0.000
853.10	-0.000
853.28	-0.000
853.45	-0.000
853.62	-0.000
853.79	-0.000
853.96	-0.000
854.14	-0.000
854.31	-0.000
854.48	-0.000
854.65	-0.000
854.82	-0.000
855.00	-0.000
855.17	-0.000
855.34	-0.000
855.51	-0.000
855.68	-0.000
855.86	-0.000
856.03	-0.000
856.20	-0.000
856.37	-0.000
856.54	-0.000
856.72	-0.000
856.89	-0.000
857.06	-0.000
857.23	-0.000
857.40	-0.000
857.57	-0.000
857.75	-0.000
857.92	-0.000
858.09	-0.000
858.26	-0.000
858.43	-0.000
858.60	-0.000
858.78	-0.000
858.95	-0.000
859.12	-0.000
859.29	-0.000
859.46	-0.000
859.63	-0.000
859.81	-0.000
859.98	-0.000
860.15	-0.000
860.32	-0.000
860.49	-0.000
860.66	-0.000
860.83	-0.000
861.01	-0.000
861.18	-0.000
861.35	-0.000
861.52	-0.000
861.69	-0.000
861.86	-0.000
862.03	-0.000
862.21	-0.000
862.38	-0.000
862.55	-0.000
862.72	-0.000
862.89	-0.000
863.06	-0.000
863.23	-0.000
863.40	-0.000
863.58	-0.000
863.75	-0.000
863.92	-0.000
864.09	-0.000
864.26	-0.000
864.43	-0.000
864.60	-0.000
864.77	-0.000
864.94	-0.000
865.11	-0.000
865.29	-0.000
865.46	-0.000
865.63	-0.000
865.80	-0.000
865.97	-0.000
866.14	-0.000
866.31	-0.000
866.48	-0.000
866.65	-0.000
866.82	-0.000
866.99	-0.000
867.16	-0.000
867.34	-0.000
867.51	-0.000
867.68	-0.000
867.85	-0.000
868.02	-0.000
868.19	-0.000
868.36	-0.000
868.53	-0.000
868.70	-0.000
868.87	-0.000
869.04	-0.000
869.21	-0.000
869.38	-0.000
869.55	-0.000
869.72	-0.000
869.89	-0.000
870.06	-0.000
870.24	-0.000
870.41	-0.000
870.58	-0.000
870.75	-0.000
870.92	-0.000
871.09	-0.000
871.26	-0.000
871.43	-0.000
871.60	-0.000
871.77	-0.000
871.94	-0.000
872.11	-0.000
872.28	-0.000
872.45	-0.000
872.62	-0.000
872.79	-0.000
872.96	-0.000
873.13	-0.000
873.30	-0.000
873.47	-0.000
873.64	-0.000
873.81	-0.000
873.98	-0.000
874.15	-0.000
874.32	-0.000
874.49	-0.000
874.66	-0.000
874.83	-0.000
875.00	-0.000
875.17	-0.000
875.34	-0.000
875.51	-0.000
875.68	-0.000
875.85	-0.000
876.02	-0.000
876.19	-0.000
876.36	-0.000
876.53	-0.000
876.70	-0.000
876.87	-0.000
877.04	-0.000
877.21	-0.000
877.38	-0.000
877.55	-0.000
877.72	-0.000
877.89	-0.000
878.06	-0.000
878.23	-0.000
878.39	-0.000
878.56	-0.000
878.73	-0.000
878.90	-0.000
879.07	-0.000
879.24	-0.000
879.41	-0.000
879.58	-0.000
879.75	-0.000
879.92	-0.000
880.09	-0.000
880.26	-0.000
880.43	-0.000
880.60	-0.000
880.77	-0.000
880.94	-0.000
881.11	-0.000
881.27	-0.000
881.44	-0.000
881.61	-0.000
881.78	-0.000
881.95	-0.000
882.12	-0.000
882.29	-0.000
882.46	-0.000
882.63	-0.000
882.80	-0.000
882.97	-0.000
883.14	-0.000
883.30	-0.000
883.47	-0.000
883.64	-0.000
883.81	-0.000
883.98	-0.000
884.15	-0.000
884.32	-0.000
884.49	-0.000
884.66	-0.000
884.82	-0.000
884.99	-0.000
885.16	-0.000
885.33	-0.000
885.50	-0.000
885.67	-0.000
885.84	-0.000
886.01	-0.000
886.17	-0.000
886.34	-0.000
886.51	-0.000
886.68	-0.000
886.85	-0.000
887.02	-0.000
887.19	-0.000
887.36	-0.000
887.52	-0.000
887.69	-0.000
887.86	-0.000
888.03	-0.000
888.20	-0.000
888.37	-0.000
888.54	-0.000
888.70	-0.000
888.87	-0.000
889.04	-0.000
889.21	-0.000
889.38	-0.000
889.55	-0.000
889.71	-0.000
889.88	-0.000
890.05	-0.000
890.22	-0.000
890.39	-0.000
>>>>>End Processed Spectral Data<<<<<
