SpectraSuite Data File
++++++++++++++++++++++++++++++++++++
Date: Fri Jun 19 13:43:06 CEST 2015
User: introlabs
Dark Spectrum Present: Yes
Reference Spectrum Present: Yes
Number of Sampled Component Spectra: 1
Spectrometers: USB4H08886
Integration Time (usec): 745692 (USB4H08886)
Spectra Averaged: 5 (USB4H08886)
Boxcar Smoothing: 5 (USB4H08886)
Correct for Electrical Dark: Yes (USB4H08886)
Strobe/Lamp Enabled: No (USB4H08886)
Correct for Detector Non-linearity: Yes (USB4H08886)
Correct for Stray Light: Yes (USB4H08886)
Number of Pixels in Processed Spectrum: 3648
>>>>>Begin Processed Spectral Data<<<<<
178.14	-0.000
178.36	-0.000
178.57	-0.000
178.79	-0.000
179.01	-0.000
179.22	-0.000
179.44	-0.000
179.65	-0.000
179.87	-0.000
180.08	-0.000
180.30	-0.000
180.52	-0.000
180.73	-0.000
180.95	-0.000
181.16	-0.000
181.38	-0.000
181.59	-0.000
181.81	-0.000
182.03	-0.000
182.24	-0.000
182.46	-0.000
182.67	-0.000
182.89	-0.000
183.10	-0.000
183.32	-0.000
183.54	-0.000
183.75	-0.000
183.97	-0.000
184.18	-0.000
184.40	-0.000
184.61	-0.000
184.83	-0.000
185.04	-0.000
185.26	-0.000
185.48	-0.000
185.69	-0.000
185.91	-0.000
186.12	-0.000
186.34	-0.000
186.55	-0.000
186.77	-0.000
186.98	-0.000
187.20	-0.000
187.42	-0.000
187.63	-0.000
187.85	-0.000
188.06	-0.000
188.28	-0.000
188.49	-0.000
188.71	-0.000
188.92	-0.000
189.14	-0.000
189.36	-0.000
189.57	-0.000
189.79	-0.000
190.00	-0.000
190.22	-0.000
190.43	-0.000
190.65	-0.000
190.86	-0.000
191.08	-0.000
191.29	-0.000
191.51	-0.000
191.72	-0.000
191.94	-0.000
192.16	-0.000
192.37	-0.000
192.59	-0.000
192.80	-0.000
193.02	-0.000
193.23	-0.000
193.45	-0.000
193.66	-0.000
193.88	-0.000
194.09	-0.000
194.31	-0.000
194.52	-0.000
194.74	-0.000
194.95	-0.000
195.17	-0.000
195.38	-0.000
195.60	-0.000
195.81	-0.000
196.03	-0.000
196.25	-0.000
196.46	-0.000
196.68	-0.000
196.89	-0.000
197.11	-0.000
197.32	-0.000
197.54	-0.000
197.75	-0.000
197.97	-0.000
198.18	-0.000
198.40	-0.000
198.61	-0.000
198.83	-0.000
199.04	-0.000
199.26	-0.000
199.47	-0.000
199.69	-0.000
199.90	-0.000
200.12	-0.000
200.33	-0.000
200.55	-0.000
200.76	-0.000
200.98	-0.000
201.19	-0.000
201.41	-0.000
201.62	-0.000
201.84	-0.000
202.05	-0.000
202.27	-0.000
202.48	-0.000
202.70	-0.000
202.91	-0.000
203.13	-0.000
203.34	-0.000
203.56	-0.000
203.77	-0.000
203.99	-0.000
204.20	-0.000
204.42	-0.000
204.63	-0.000
204.85	-0.000
205.06	-0.000
205.28	-0.000
205.49	-0.000
205.71	-0.000
205.92	-0.000
206.14	-0.000
206.35	-0.000
206.56	-0.000
206.78	-0.000
206.99	-0.000
207.21	-0.000
207.42	-0.000
207.64	-0.000
207.85	-0.000
208.07	-0.000
208.28	-0.000
208.50	-0.000
208.71	-0.000
208.93	-0.000
209.14	-0.000
209.36	-0.000
209.57	-0.000
209.79	-0.000
210.00	-0.000
210.22	-0.000
210.43	-0.000
210.64	-0.000
210.86	-0.000
211.07	-0.000
211.29	-0.000
211.50	-0.000
211.72	-0.000
211.93	-0.000
212.15	-0.000
212.36	-0.000
212.58	-0.000
212.79	-0.000
213.01	-0.000
213.22	-0.000
213.43	-0.000
213.65	-0.000
213.86	-0.000
214.08	-0.000
214.29	-0.000
214.51	-0.000
214.72	-0.000
214.94	-0.000
215.15	-0.000
215.36	-0.000
215.58	-0.000
215.79	-0.000
216.01	-0.000
216.22	-0.000
216.44	-0.000
216.65	-0.000
216.87	-0.000
217.08	-0.000
217.29	-0.000
217.51	-0.000
217.72	-0.000
217.94	-0.000
218.15	-0.000
218.37	-0.000
218.58	-0.000
218.80	-0.000
219.01	-0.000
219.22	-0.000
219.44	-0.000
219.65	-0.000
219.87	-0.000
220.08	-0.000
220.30	-0.000
220.51	-0.000
220.72	-0.000
220.94	-0.000
221.15	-0.000
221.37	-0.000
221.58	-0.000
221.79	-0.000
222.01	-0.000
222.22	-0.000
222.44	-0.000
222.65	-0.000
222.87	-0.000
223.08	-0.000
223.29	-0.000
223.51	-0.000
223.72	-0.000
223.94	-0.000
224.15	-0.000
224.36	-0.000
224.58	-0.000
224.79	-0.000
225.01	-0.000
225.22	-0.000
225.44	-0.000
225.65	-0.000
225.86	-0.000
226.08	-0.000
226.29	-0.000
226.51	-0.000
226.72	-0.000
226.93	-0.000
227.15	-0.000
227.36	-0.000
227.58	-0.000
227.79	-0.000
228.00	-0.000
228.22	-0.000
228.43	-0.000
228.65	-0.000
228.86	-0.000
229.07	-0.000
229.29	-0.000
229.50	-0.000
229.72	-0.000
229.93	-0.000
230.14	-0.000
230.36	-0.000
230.57	-0.000
230.78	-0.000
231.00	-0.000
231.21	-0.000
231.43	-0.000
231.64	-0.000
231.85	-0.000
232.07	-0.000
232.28	-0.000
232.50	-0.000
232.71	-0.000
232.92	-0.000
233.14	-0.000
233.35	-0.000
233.56	-0.000
233.78	-0.000
233.99	-0.000
234.21	-0.000
234.42	-0.000
234.63	-0.000
234.85	-0.000
235.06	-0.000
235.27	-0.000
235.49	-0.000
235.70	-0.000
235.91	-0.000
236.13	-0.000
236.34	-0.000
236.56	-0.000
236.77	-0.000
236.98	-0.000
237.20	-0.000
237.41	-0.000
237.62	-0.000
237.84	-0.000
238.05	-0.000
238.26	-0.000
238.48	-0.000
238.69	-0.000
238.91	-0.000
239.12	-0.000
239.33	-0.000
239.55	-0.000
239.76	-0.000
239.97	-0.000
240.19	-0.000
240.40	-0.000
240.61	-0.000
240.83	-0.000
241.04	-0.000
241.25	-0.000
241.47	-0.000
241.68	-0.000
241.89	-0.000
242.11	-0.000
242.32	-0.000
242.53	-0.000
242.75	-0.000
242.96	-0.000
243.17	-0.000
243.39	-0.000
243.60	-0.000
243.81	-0.000
244.03	-0.000
244.24	-0.000
244.45	-0.000
244.67	-0.000
244.88	-0.000
245.09	-0.000
245.31	-0.000
245.52	-0.000
245.73	-0.000
245.95	-0.000
246.16	-0.000
246.37	-0.000
246.59	-0.000
246.80	-0.000
247.01	-0.000
247.23	-0.000
247.44	-0.000
247.65	-0.000
247.87	-0.000
248.08	-0.000
248.29	-0.000
248.51	-0.000
248.72	-0.000
248.93	-0.000
249.15	-0.000
249.36	-0.000
249.57	-0.000
249.78	-0.000
250.00	-0.000
250.21	-0.000
250.42	-0.000
250.64	-0.000
250.85	-0.000
251.06	-0.000
251.28	-0.000
251.49	-0.000
251.70	-0.000
251.92	-0.000
252.13	-0.000
252.34	-0.000
252.55	-0.000
252.77	-0.000
252.98	-0.000
253.19	-0.000
253.41	-0.000
253.62	-0.000
253.83	-0.000
254.05	-0.000
254.26	-0.000
254.47	-0.000
254.68	-0.000
254.90	-0.000
255.11	-0.000
255.32	-0.000
255.54	-0.000
255.75	-0.000
255.96	-0.000
256.17	-0.000
256.39	-0.000
256.60	-0.000
256.81	-0.000
257.03	-0.000
257.24	-0.000
257.45	-0.000
257.66	-0.000
257.88	-0.000
258.09	-0.000
258.30	-0.000
258.51	-0.000
258.73	-0.000
258.94	-0.000
259.15	-0.000
259.37	-0.000
259.58	-0.000
259.79	-0.000
260.00	-0.000
260.22	-0.000
260.43	-0.000
260.64	-0.000
260.85	-0.000
261.07	-0.000
261.28	-0.000
261.49	-0.000
261.71	-0.000
261.92	-0.000
262.13	-0.000
262.34	-0.000
262.56	-0.000
262.77	-0.000
262.98	-0.000
263.19	-0.000
263.41	-0.000
263.62	-0.000
263.83	-0.000
264.04	-0.000
264.26	-0.000
264.47	-0.000
264.68	-0.000
264.89	-0.000
265.11	-0.000
265.32	-0.000
265.53	-0.000
265.74	-0.000
265.96	-0.000
266.17	-0.000
266.38	-0.000
266.59	-0.000
266.81	-0.000
267.02	-0.000
267.23	-0.000
267.44	-0.000
267.65	-0.000
267.87	-0.000
268.08	-0.000
268.29	-0.000
268.50	-0.000
268.72	-0.000
268.93	-0.000
269.14	-0.000
269.35	-0.000
269.57	-0.000
269.78	-0.000
269.99	-0.000
270.20	-0.000
270.41	-0.000
270.63	-0.000
270.84	-0.000
271.05	-0.000
271.26	-0.000
271.48	-0.000
271.69	-0.000
271.90	-0.000
272.11	-0.000
272.32	-0.000
272.54	-0.000
272.75	-0.000
272.96	-0.000
273.17	-0.000
273.39	-0.000
273.60	-0.000
273.81	-0.000
274.02	-0.000
274.23	-0.000
274.45	-0.000
274.66	-0.000
274.87	-0.000
275.08	-0.000
275.29	-0.000
275.51	-0.000
275.72	-0.000
275.93	-0.000
276.14	-0.000
276.35	-0.000
276.57	-0.000
276.78	-0.000
276.99	-0.000
277.20	-0.000
277.41	-0.000
277.63	-0.000
277.84	-0.000
278.05	-0.000
278.26	-0.000
278.47	-0.000
278.69	-0.000
278.90	-0.000
279.11	-0.000
279.32	-0.000
279.53	-0.000
279.74	-0.000
279.96	-0.000
280.17	-0.000
280.38	-0.000
280.59	-0.000
280.80	-0.000
281.02	-0.000
281.23	-0.000
281.44	-0.000
281.65	-0.000
281.86	-0.000
282.07	-0.000
282.29	-0.000
282.50	-0.000
282.71	-0.000
282.92	-0.000
283.13	-0.000
283.35	-0.000
283.56	-0.000
283.77	-0.000
283.98	-0.000
284.19	-0.000
284.40	-0.000
284.62	-0.000
284.83	-0.000
285.04	-0.000
285.25	-0.000
285.46	-0.000
285.67	-0.000
285.88	-0.000
286.10	-0.000
286.31	-0.000
286.52	-0.000
286.73	-0.000
286.94	-0.000
287.15	-0.000
287.37	-0.000
287.58	-0.000
287.79	-0.000
288.00	-0.000
288.21	-0.000
288.42	-0.000
288.63	-0.000
288.85	-0.000
289.06	-0.000
289.27	-0.000
289.48	-0.000
289.69	-0.000
289.90	-0.000
290.11	-0.000
290.33	-0.000
290.54	-0.000
290.75	-0.000
290.96	-0.000
291.17	-0.000
291.38	-0.000
291.59	-0.000
291.81	-0.000
292.02	-0.000
292.23	-0.000
292.44	-0.000
292.65	-0.000
292.86	-0.000
293.07	-0.000
293.28	-0.000
293.50	-0.000
293.71	-0.000
293.92	-0.000
294.13	-0.000
294.34	-0.000
294.55	-0.000
294.76	-0.000
294.97	-0.000
295.19	-0.000
295.40	-0.000
295.61	-0.000
295.82	-0.000
296.03	-0.000
296.24	-0.000
296.45	-0.000
296.66	-0.000
296.87	-0.000
297.09	-0.000
297.30	-0.000
297.51	2.484
297.72	2.286
297.93	2.896
298.14	2.502
298.35	2.298
298.56	2.217
298.77	4.251
298.99	2.822
299.20	2.508
299.41	2.367
299.62	2.218
299.83	2.162
300.04	1.968
300.25	1.947
300.46	2.074
300.67	1.979
300.88	1.849
301.10	1.851
301.31	2.032
301.52	1.880
301.73	1.751
301.94	1.746
302.15	1.787
302.36	1.700
302.57	1.596
302.78	1.601
302.99	1.676
303.20	1.704
303.41	1.552
303.63	1.516
303.84	1.527
304.05	1.527
304.26	1.444
304.47	1.448
304.68	1.454
304.89	1.440
305.10	1.387
305.31	1.369
305.52	1.420
305.73	1.411
305.94	1.362
306.15	1.352
306.37	1.379
306.58	1.390
306.79	1.349
307.00	1.376
307.21	1.429
307.42	1.420
307.63	1.373
307.84	1.335
308.05	1.384
308.26	1.386
308.47	1.356
308.68	1.350
308.89	1.346
309.10	1.343
309.31	1.292
309.52	1.280
309.73	1.297
309.95	1.290
310.16	1.252
310.37	1.238
310.58	1.257
310.79	1.253
311.00	1.247
311.21	1.249
311.42	1.254
311.63	1.246
311.84	1.223
312.05	1.221
312.26	1.245
312.47	1.259
312.68	1.229
312.89	1.211
313.10	1.221
313.31	1.190
313.52	1.192
313.73	1.190
313.94	1.192
314.15	1.173
314.36	1.149
314.57	1.142
314.78	1.129
314.99	1.122
315.21	1.108
315.42	1.111
315.63	1.126
315.84	1.100
316.05	1.084
316.26	1.094
316.47	1.113
316.68	1.108
316.89	1.085
317.10	1.106
317.31	1.113
317.52	1.113
317.73	1.091
317.94	1.090
318.15	1.138
318.36	1.137
318.57	1.118
318.78	1.105
318.99	1.142
319.20	1.140
319.41	1.104
319.62	1.104
319.83	1.120
320.04	1.113
320.25	1.097
320.46	1.060
320.67	1.064
320.88	1.059
321.09	1.044
321.30	1.030
321.51	1.045
321.72	1.042
321.93	1.025
322.14	1.016
322.35	1.046
322.56	1.049
322.77	1.035
322.98	1.045
323.19	1.054
323.40	1.062
323.61	1.038
323.82	1.034
324.03	1.038
324.24	1.034
324.45	1.020
324.66	1.000
324.87	0.997
325.08	0.995
325.29	0.975
325.50	0.967
325.71	0.972
325.92	0.980
326.13	0.965
326.34	0.966
326.55	0.975
326.76	0.974
326.97	0.963
327.18	0.955
327.39	0.980
327.60	0.981
327.80	0.981
328.01	0.979
328.22	0.980
328.43	0.984
328.64	0.972
328.85	0.977
329.06	0.980
329.27	0.979
329.48	0.975
329.69	0.957
329.90	0.967
330.11	0.960
330.32	0.952
330.53	0.945
330.74	0.944
330.95	0.940
331.16	0.924
331.37	0.934
331.58	0.934
331.79	0.933
332.00	0.924
332.21	0.918
332.42	0.923
332.63	0.915
332.83	0.909
333.04	0.913
333.25	0.927
333.46	0.925
333.67	0.909
333.88	0.911
334.09	0.921
334.30	0.917
334.51	0.908
334.72	0.904
334.93	0.907
335.14	0.906
335.35	0.897
335.56	0.891
335.77	0.900
335.98	0.899
336.18	0.892
336.39	0.886
336.60	0.891
336.81	0.889
337.02	0.886
337.23	0.890
337.44	0.894
337.65	0.896
337.86	0.886
338.07	0.881
338.28	0.886
338.49	0.883
338.70	0.874
338.91	0.881
339.11	0.888
339.32	0.885
339.53	0.873
339.74	0.868
339.95	0.865
340.16	0.863
340.37	0.855
340.58	0.853
340.79	0.857
341.00	0.858
341.21	0.846
341.41	0.847
341.62	0.848
341.83	0.850
342.04	0.846
342.25	0.858
342.46	0.863
342.67	0.862
342.88	0.855
343.09	0.854
343.30	0.861
343.50	0.865
343.71	0.854
343.92	0.853
344.13	0.857
344.34	0.857
344.55	0.838
344.76	0.837
344.97	0.843
345.18	0.843
345.38	0.839
345.59	0.834
345.80	0.833
346.01	0.831
346.22	0.826
346.43	0.819
346.64	0.828
346.85	0.827
347.06	0.819
347.26	0.819
347.47	0.822
347.68	0.818
347.89	0.813
348.10	0.808
348.31	0.814
348.52	0.813
348.73	0.810
348.93	0.807
349.14	0.809
349.35	0.809
349.56	0.803
349.77	0.797
349.98	0.803
350.19	0.801
350.39	0.796
350.60	0.791
350.81	0.808
351.02	0.808
351.23	0.802
351.44	0.805
351.65	0.808
351.86	0.806
352.06	0.805
352.27	0.806
352.48	0.808
352.69	0.808
352.90	0.803
353.11	0.790
353.31	0.797
353.52	0.792
353.73	0.784
353.94	0.787
354.15	0.792
354.36	0.793
354.57	0.783
354.77	0.785
354.98	0.784
355.19	0.784
355.40	0.783
355.61	0.789
355.82	0.795
356.02	0.794
356.23	0.787
356.44	0.788
356.65	0.791
356.86	0.792
357.07	0.785
357.27	0.789
357.48	0.792
357.69	0.786
357.90	0.770
358.11	0.767
358.32	0.770
358.52	0.773
358.73	0.763
358.94	0.765
359.15	0.771
359.36	0.771
359.56	0.767
359.77	0.763
359.98	0.771
360.19	0.771
360.40	0.767
360.61	0.769
360.81	0.768
361.02	0.769
361.23	0.760
361.44	0.758
361.65	0.757
361.85	0.757
362.06	0.755
362.27	0.757
362.48	0.757
362.69	0.759
362.89	0.752
363.10	0.753
363.31	0.758
363.52	0.761
363.73	0.756
363.93	0.757
364.14	0.759
364.35	0.760
364.56	0.749
364.77	0.751
364.97	0.753
365.18	0.755
365.39	0.749
365.60	0.746
365.81	0.746
366.01	0.747
366.22	0.744
366.43	0.743
366.64	0.745
366.84	0.752
367.05	0.749
367.26	0.749
367.47	0.750
367.68	0.751
367.88	0.748
368.09	0.746
368.30	0.748
368.51	0.747
368.71	0.746
368.92	0.751
369.13	0.749
369.34	0.748
369.55	0.747
369.75	0.747
369.96	0.753
370.17	0.754
370.38	0.750
370.58	0.750
370.79	0.756
371.00	0.755
371.21	0.746
371.41	0.751
371.62	0.755
371.83	0.750
372.04	0.749
372.24	0.742
372.45	0.743
372.66	0.744
372.87	0.740
373.07	0.736
373.28	0.737
373.49	0.740
373.70	0.730
373.90	0.729
374.11	0.739
374.32	0.737
374.53	0.736
374.73	0.737
374.94	0.739
375.15	0.740
375.36	0.737
375.56	0.745
375.77	0.745
375.98	0.745
376.19	0.742
376.39	0.735
376.60	0.739
376.81	0.740
377.02	0.736
377.22	0.735
377.43	0.734
377.64	0.735
377.84	0.726
378.05	0.731
378.26	0.738
378.47	0.737
378.67	0.734
378.88	0.731
379.09	0.731
379.30	0.732
379.50	0.729
379.71	0.732
379.92	0.735
380.12	0.733
380.33	0.725
380.54	0.721
380.75	0.728
380.95	0.728
381.16	0.725
381.37	0.725
381.57	0.727
381.78	0.728
381.99	0.727
382.20	0.727
382.40	0.731
382.61	0.730
382.82	0.726
383.02	0.720
383.23	0.723
383.44	0.724
383.64	0.722
383.85	0.724
384.06	0.727
384.27	0.725
384.47	0.722
384.68	0.722
384.89	0.729
385.09	0.728
385.30	0.728
385.51	0.726
385.71	0.730
385.92	0.731
386.13	0.729
386.33	0.731
386.54	0.731
386.75	0.730
386.95	0.726
387.16	0.721
387.37	0.724
387.58	0.723
387.78	0.722
387.99	0.719
388.20	0.721
388.40	0.717
388.61	0.713
388.82	0.716
389.02	0.719
389.23	0.719
389.44	0.717
389.64	0.718
389.85	0.729
390.06	0.728
390.26	0.729
390.47	0.728
390.68	0.730
390.88	0.728
391.09	0.724
391.30	0.723
391.50	0.722
391.71	0.722
391.92	0.719
392.12	0.711
392.33	0.713
392.53	0.712
392.74	0.712
392.95	0.712
393.15	0.715
393.36	0.717
393.57	0.714
393.77	0.717
393.98	0.719
394.19	0.719
394.39	0.718
394.60	0.719
394.81	0.721
395.01	0.719
395.22	0.717
395.43	0.718
395.63	0.722
395.84	0.723
396.04	0.720
396.25	0.721
396.46	0.723
396.66	0.721
396.87	0.717
397.08	0.713
397.28	0.716
397.49	0.717
397.69	0.713
397.90	0.709
398.11	0.711
398.31	0.710
398.52	0.706
398.73	0.707
398.93	0.707
399.14	0.707
399.34	0.706
399.55	0.706
399.76	0.706
399.96	0.708
400.17	0.706
400.37	0.704
400.58	0.711
400.79	0.713
400.99	0.711
401.20	0.716
401.41	0.718
401.61	0.719
401.82	0.724
402.02	0.723
402.23	0.724
402.44	0.724
402.64	0.723
402.85	0.718
403.05	0.717
403.26	0.715
403.47	0.709
403.67	0.708
403.88	0.709
404.08	0.703
404.29	0.702
404.50	0.701
404.70	0.702
404.91	0.701
405.11	0.698
405.32	0.697
405.52	0.698
405.73	0.697
405.94	0.696
406.14	0.698
406.35	0.700
406.55	0.699
406.76	0.696
406.97	0.697
407.17	0.700
407.38	0.700
407.58	0.699
407.79	0.701
407.99	0.704
408.20	0.705
408.41	0.701
408.61	0.699
408.82	0.700
409.02	0.701
409.23	0.699
409.43	0.697
409.64	0.699
409.84	0.698
410.05	0.695
410.26	0.693
410.46	0.693
410.67	0.691
410.87	0.693
411.08	0.695
411.28	0.696
411.49	0.697
411.69	0.695
411.90	0.696
412.11	0.698
412.31	0.699
412.52	0.698
412.72	0.699
412.93	0.700
413.13	0.699
413.34	0.695
413.54	0.697
413.75	0.698
413.95	0.697
414.16	0.694
414.37	0.696
414.57	0.697
414.78	0.699
414.98	0.697
415.19	0.698
415.39	0.696
415.60	0.698
415.80	0.697
416.01	0.695
416.21	0.697
416.42	0.697
416.62	0.693
416.83	0.693
417.03	0.693
417.24	0.693
417.44	0.691
417.65	0.690
417.86	0.690
418.06	0.688
418.27	0.686
418.47	0.688
418.68	0.689
418.88	0.689
419.09	0.687
419.29	0.688
419.50	0.688
419.70	0.687
419.91	0.686
420.11	0.684
420.32	0.687
420.52	0.688
420.73	0.686
420.93	0.687
421.14	0.689
421.34	0.688
421.55	0.684
421.75	0.684
421.96	0.686
422.16	0.686
422.37	0.684
422.57	0.681
422.78	0.682
422.98	0.679
423.19	0.676
423.39	0.674
423.60	0.679
423.80	0.680
424.01	0.679
424.21	0.680
424.42	0.681
424.62	0.681
424.83	0.681
425.03	0.681
425.23	0.683
425.44	0.684
425.64	0.684
425.85	0.682
426.05	0.683
426.26	0.684
426.46	0.680
426.67	0.680
426.87	0.685
427.08	0.685
427.28	0.683
427.49	0.684
427.69	0.686
427.90	0.685
428.10	0.681
428.31	0.681
428.51	0.682
428.71	0.682
428.92	0.683
429.12	0.680
429.33	0.681
429.53	0.685
429.74	0.689
429.94	0.688
430.15	0.687
430.35	0.687
430.56	0.685
430.76	0.684
430.96	0.685
431.17	0.682
431.37	0.679
431.58	0.677
431.78	0.674
431.99	0.668
432.19	0.670
432.40	0.672
432.60	0.673
432.80	0.676
433.01	0.674
433.21	0.674
433.42	0.675
433.62	0.676
433.83	0.676
434.03	0.678
434.23	0.681
434.44	0.680
434.64	0.678
434.85	0.682
435.05	0.683
435.26	0.684
435.46	0.682
435.66	0.682
435.87	0.682
436.07	0.682
436.28	0.678
436.48	0.675
436.69	0.675
436.89	0.675
437.09	0.669
437.30	0.668
437.50	0.668
437.71	0.680
437.91	0.680
438.11	0.681
438.32	0.685
438.52	0.685
438.73	0.685
438.93	0.682
439.13	0.682
439.34	0.686
439.54	0.684
439.75	0.684
439.95	0.675
440.15	0.679
440.36	0.677
440.56	0.675
440.77	0.675
440.97	0.676
441.17	0.675
441.38	0.676
441.58	0.674
441.79	0.673
441.99	0.671
442.19	0.670
442.40	0.668
442.60	0.667
442.81	0.665
443.01	0.665
443.21	0.666
443.42	0.665
443.62	0.663
443.82	0.663
444.03	0.664
444.23	0.664
444.44	0.664
444.64	0.663
444.84	0.664
445.05	0.664
445.25	0.662
445.45	0.662
445.66	0.665
445.86	0.664
446.06	0.665
446.27	0.665
446.47	0.668
446.68	0.666
446.88	0.665
447.08	0.664
447.29	0.667
447.49	0.667
447.69	0.666
447.90	0.665
448.10	0.669
448.30	0.667
448.51	0.668
448.71	0.666
448.91	0.669
449.12	0.667
449.32	0.669
449.52	0.668
449.73	0.671
449.93	0.670
450.14	0.670
450.34	0.669
450.54	0.672
450.75	0.669
450.95	0.668
451.15	0.667
451.36	0.670
451.56	0.667
451.76	0.666
451.97	0.664
452.17	0.664
452.37	0.663
452.58	0.660
452.78	0.660
452.98	0.663
453.19	0.662
453.39	0.663
453.59	0.661
453.79	0.662
454.00	0.663
454.20	0.662
454.40	0.663
454.61	0.665
454.81	0.665
455.01	0.664
455.22	0.663
455.42	0.665
455.62	0.663
455.83	0.663
456.03	0.666
456.23	0.667
456.44	0.667
456.64	0.666
456.84	0.666
457.04	0.666
457.25	0.666
457.45	0.663
457.65	0.662
457.86	0.663
458.06	0.661
458.26	0.657
458.47	0.656
458.67	0.658
458.87	0.658
459.07	0.656
459.28	0.658
459.48	0.660
459.68	0.660
459.89	0.659
460.09	0.659
460.29	0.660
460.49	0.661
460.70	0.660
460.90	0.660
461.10	0.661
461.31	0.661
461.51	0.659
461.71	0.660
461.91	0.661
462.12	0.661
462.32	0.660
462.52	0.660
462.72	0.663
462.93	0.663
463.13	0.660
463.33	0.661
463.53	0.663
463.74	0.662
463.94	0.658
464.14	0.658
464.35	0.660
464.55	0.660
464.75	0.658
464.95	0.656
465.16	0.658
465.36	0.657
465.56	0.656
465.76	0.654
465.97	0.655
466.17	0.655
466.37	0.653
466.57	0.654
466.78	0.655
466.98	0.655
467.18	0.653
467.38	0.652
467.59	0.654
467.79	0.656
467.99	0.655
468.19	0.657
468.39	0.660
468.60	0.660
468.80	0.659
469.00	0.660
469.20	0.661
469.41	0.661
469.61	0.660
469.81	0.660
470.01	0.660
470.22	0.660
470.42	0.658
470.62	0.655
470.82	0.657
471.02	0.656
471.23	0.655
471.43	0.655
471.63	0.658
471.83	0.656
472.04	0.655
472.24	0.654
472.44	0.659
472.64	0.660
472.84	0.657
473.05	0.657
473.25	0.660
473.45	0.658
473.65	0.657
473.85	0.657
474.06	0.659
474.26	0.658
474.46	0.659
474.66	0.656
474.86	0.657
475.07	0.658
475.27	0.655
475.47	0.653
475.67	0.654
475.87	0.656
476.08	0.653
476.28	0.654
476.48	0.656
476.68	0.654
476.88	0.652
477.09	0.653
477.29	0.654
477.49	0.654
477.69	0.653
477.89	0.653
478.09	0.652
478.30	0.654
478.50	0.651
478.70	0.651
478.90	0.651
479.10	0.654
479.31	0.655
479.51	0.654
479.71	0.654
479.91	0.654
480.11	0.653
480.31	0.654
480.52	0.653
480.72	0.653
480.92	0.652
481.12	0.651
481.32	0.648
481.52	0.646
481.72	0.645
481.93	0.649
482.13	0.650
482.33	0.649
482.53	0.648
482.73	0.648
482.93	0.649
483.14	0.648
483.34	0.647
483.54	0.648
483.74	0.647
483.94	0.646
484.14	0.642
484.34	0.642
484.55	0.643
484.75	0.642
484.95	0.640
485.15	0.640
485.35	0.641
485.55	0.640
485.75	0.638
485.96	0.639
486.16	0.640
486.36	0.640
486.56	0.638
486.76	0.638
486.96	0.638
487.16	0.637
487.36	0.635
487.57	0.635
487.77	0.636
487.97	0.636
488.17	0.634
488.37	0.634
488.57	0.635
488.77	0.635
488.97	0.633
489.18	0.633
489.38	0.636
489.58	0.636
489.78	0.635
489.98	0.635
490.18	0.634
490.38	0.636
490.58	0.634
490.78	0.635
490.98	0.637
491.19	0.637
491.39	0.637
491.59	0.635
491.79	0.638
491.99	0.638
492.19	0.638
492.39	0.641
492.59	0.641
492.79	0.643
492.99	0.643
493.20	0.643
493.40	0.643
493.60	0.644
493.80	0.642
494.00	0.640
494.20	0.641
494.40	0.641
494.60	0.638
494.80	0.643
495.00	0.642
495.20	0.641
495.40	0.639
495.61	0.641
495.81	0.641
496.01	0.645
496.21	0.646
496.41	0.645
496.61	0.646
496.81	0.645
497.01	0.640
497.21	0.639
497.41	0.639
497.61	0.638
497.81	0.636
498.01	0.636
498.21	0.634
498.41	0.632
498.61	0.631
498.82	0.633
499.02	0.635
499.22	0.636
499.42	0.635
499.62	0.637
499.82	0.638
500.02	0.639
500.22	0.638
500.42	0.640
500.62	0.641
500.82	0.641
501.02	0.639
501.22	0.639
501.42	0.640
501.62	0.642
501.82	0.641
502.02	0.641
502.22	0.641
502.42	0.643
502.62	0.639
502.82	0.640
503.02	0.640
503.22	0.641
503.42	0.639
503.63	0.638
503.83	0.636
504.03	0.635
504.23	0.634
504.43	0.634
504.63	0.635
504.83	0.635
505.03	0.634
505.23	0.635
505.43	0.637
505.63	0.638
505.83	0.638
506.03	0.639
506.23	0.641
506.43	0.642
506.63	0.641
506.83	0.639
507.03	0.642
507.23	0.642
507.43	0.639
507.63	0.639
507.83	0.640
508.03	0.640
508.23	0.640
508.43	0.638
508.63	0.640
508.83	0.640
509.03	0.641
509.23	0.640
509.43	0.642
509.63	0.642
509.83	0.641
510.03	0.643
510.23	0.644
510.43	0.645
510.63	0.646
510.83	0.646
511.03	0.647
511.23	0.645
511.43	0.644
511.63	0.646
511.83	0.648
512.03	0.648
512.22	0.644
512.42	0.644
512.62	0.645
512.82	0.645
513.02	0.644
513.22	0.644
513.42	0.646
513.62	0.649
513.82	0.647
514.02	0.647
514.22	0.648
514.42	0.649
514.62	0.649
514.82	0.649
515.02	0.651
515.22	0.654
515.42	0.653
515.62	0.655
515.82	0.654
516.02	0.655
516.22	0.655
516.42	0.655
516.62	0.658
516.82	0.659
517.01	0.657
517.21	0.657
517.41	0.661
517.61	0.661
517.81	0.657
518.01	0.656
518.21	0.656
518.41	0.655
518.61	0.654
518.81	0.654
519.01	0.655
519.21	0.655
519.41	0.653
519.61	0.647
519.81	0.650
520.00	0.651
520.20	0.651
520.40	0.654
520.60	0.654
520.80	0.654
521.00	0.654
521.20	0.655
521.40	0.660
521.60	0.660
521.80	0.659
522.00	0.659
522.20	0.662
522.39	0.661
522.59	0.658
522.79	0.660
522.99	0.662
523.19	0.660
523.39	0.658
523.59	0.656
523.79	0.659
523.99	0.662
524.19	0.661
524.38	0.659
524.58	0.661
524.78	0.661
524.98	0.659
525.18	0.662
525.38	0.664
525.58	0.664
525.78	0.662
525.98	0.660
526.18	0.661
526.37	0.660
526.57	0.662
526.77	0.662
526.97	0.663
527.17	0.663
527.37	0.658
527.57	0.660
527.77	0.662
527.96	0.662
528.16	0.661
528.36	0.662
528.56	0.664
528.76	0.661
528.96	0.660
529.16	0.661
529.36	0.664
529.55	0.664
529.75	0.661
529.95	0.661
530.15	0.662
530.35	0.665
530.55	0.662
530.75	0.663
530.94	0.665
531.14	0.665
531.34	0.664
531.54	0.662
531.74	0.665
531.94	0.669
532.13	0.666
532.33	0.669
532.53	0.668
532.73	0.667
532.93	0.665
533.13	0.666
533.33	0.666
533.52	0.666
533.72	0.670
533.92	0.668
534.12	0.666
534.32	0.666
534.52	0.664
534.71	0.665
534.91	0.668
535.11	0.670
535.31	0.667
535.51	0.670
535.71	0.673
535.90	0.669
536.10	0.670
536.30	0.672
536.50	0.673
536.70	0.673
536.89	0.671
537.09	0.671
537.29	0.673
537.49	0.674
537.69	0.671
537.89	0.672
538.08	0.672
538.28	0.670
538.48	0.670
538.68	0.672
538.88	0.674
539.07	0.674
539.27	0.672
539.47	0.671
539.67	0.671
539.87	0.673
540.06	0.670
540.26	0.671
540.46	0.673
540.66	0.670
540.86	0.668
541.05	0.668
541.25	0.669
541.45	0.668
541.65	0.667
541.84	0.668
542.04	0.670
542.24	0.670
542.44	0.669
542.64	0.670
542.83	0.673
543.03	0.674
543.23	0.671
543.43	0.672
543.62	0.674
543.82	0.674
544.02	0.673
544.22	0.673
544.42	0.676
544.61	0.676
544.81	0.673
545.01	0.672
545.21	0.674
545.40	0.674
545.60	0.672
545.80	0.675
546.00	0.675
546.19	0.674
546.39	0.673
546.59	0.670
546.79	0.672
546.98	0.673
547.18	0.672
547.38	0.673
547.58	0.676
547.77	0.677
547.97	0.673
548.17	0.675
548.37	0.675
548.56	0.675
548.76	0.674
548.96	0.677
549.16	0.679
549.35	0.678
549.55	0.675
549.75	0.677
549.95	0.680
550.14	0.680
550.34	0.678
550.54	0.684
550.73	0.687
550.93	0.688
551.13	0.685
551.33	0.684
551.52	0.684
551.72	0.685
551.92	0.682
552.12	0.683
552.31	0.684
552.51	0.683
552.71	0.678
552.90	0.679
553.10	0.680
553.30	0.680
553.50	0.679
553.69	0.681
553.89	0.681
554.09	0.682
554.28	0.678
554.48	0.679
554.68	0.681
554.87	0.681
555.07	0.677
555.27	0.678
555.47	0.679
555.66	0.680
555.86	0.678
556.06	0.681
556.25	0.682
556.45	0.690
556.65	0.689
556.84	0.692
557.04	0.696
557.24	0.698
557.43	0.697
557.63	0.701
557.83	0.702
558.02	0.703
558.22	0.706
558.42	0.706
558.61	0.699
558.81	0.700
559.01	0.696
559.21	0.695
559.40	0.697
559.60	0.697
559.80	0.692
559.99	0.693
560.19	0.695
560.39	0.689
560.58	0.687
560.78	0.687
560.97	0.691
561.17	0.690
561.37	0.687
561.56	0.688
561.76	0.690
561.96	0.690
562.15	0.688
562.35	0.689
562.55	0.691
562.74	0.692
562.94	0.690
563.14	0.688
563.33	0.689
563.53	0.689
563.73	0.686
563.92	0.687
564.12	0.690
564.31	0.692
564.51	0.690
564.71	0.691
564.90	0.694
565.10	0.695
565.30	0.698
565.49	0.698
565.69	0.700
565.89	0.701
566.08	0.698
566.28	0.700
566.47	0.701
566.67	0.700
566.87	0.697
567.06	0.698
567.26	0.705
567.46	0.700
567.65	0.699
567.85	0.701
568.04	0.704
568.24	0.703
568.44	0.700
568.63	0.698
568.83	0.699
569.02	0.698
569.22	0.694
569.42	0.689
569.61	0.692
569.81	0.691
570.00	0.689
570.20	0.690
570.40	0.691
570.59	0.691
570.79	0.689
570.98	0.686
571.18	0.688
571.38	0.687
571.57	0.684
571.77	0.682
571.96	0.686
572.16	0.683
572.35	0.678
572.55	0.679
572.75	0.677
572.94	0.677
573.14	0.675
573.33	0.675
573.53	0.676
573.73	0.675
573.92	0.673
574.12	0.671
574.31	0.674
574.51	0.675
574.70	0.671
574.90	0.673
575.09	0.676
575.29	0.676
575.49	0.673
575.68	0.674
575.88	0.675
576.07	0.677
576.27	0.674
576.46	0.673
576.66	0.671
576.86	0.670
577.05	0.667
577.25	0.666
577.44	0.667
577.64	0.667
577.83	0.665
578.03	0.667
578.22	0.666
578.42	0.666
578.61	0.664
578.81	0.665
579.00	0.666
579.20	0.666
579.40	0.665
579.59	0.663
579.79	0.663
579.98	0.663
580.18	0.662
580.37	0.662
580.57	0.664
580.76	0.669
580.96	0.667
581.15	0.668
581.35	0.670
581.54	0.669
581.74	0.669
581.93	0.671
582.13	0.672
582.32	0.669
582.52	0.668
582.71	0.667
582.91	0.663
583.10	0.663
583.30	0.661
583.49	0.660
583.69	0.665
583.88	0.666
584.08	0.664
584.27	0.666
584.47	0.670
584.66	0.670
584.86	0.669
585.05	0.672
585.25	0.674
585.44	0.674
585.64	0.672
585.83	0.669
586.03	0.670
586.22	0.668
586.42	0.664
586.61	0.666
586.81	0.668
587.00	0.668
587.20	0.665
587.39	0.666
587.59	0.668
587.78	0.669
587.98	0.669
588.17	0.670
588.37	0.673
588.56	0.676
588.76	0.671
588.95	0.672
589.15	0.676
589.34	0.679
589.54	0.677
589.73	0.678
589.92	0.682
590.12	0.681
590.31	0.678
590.51	0.683
590.70	0.685
590.90	0.685
591.09	0.683
591.29	0.681
591.48	0.681
591.68	0.682
591.87	0.681
592.06	0.680
592.26	0.683
592.45	0.682
592.65	0.676
592.84	0.676
593.04	0.679
593.23	0.681
593.43	0.679
593.62	0.678
593.81	0.677
594.01	0.677
594.20	0.674
594.40	0.673
594.59	0.675
594.79	0.676
594.98	0.675
595.17	0.674
595.37	0.675
595.56	0.677
595.76	0.676
595.95	0.678
596.14	0.681
596.34	0.683
596.53	0.681
596.73	0.683
596.92	0.684
597.12	0.686
597.31	0.686
597.50	0.685
597.70	0.687
597.89	0.687
598.09	0.683
598.28	0.685
598.47	0.687
598.67	0.685
598.86	0.682
599.06	0.683
599.25	0.684
599.44	0.682
599.64	0.680
599.83	0.677
600.03	0.680
600.22	0.681
600.41	0.680
600.61	0.677
600.80	0.680
601.00	0.680
601.19	0.676
601.38	0.674
601.58	0.677
601.77	0.678
601.96	0.680
602.16	0.680
602.35	0.689
602.55	0.687
602.74	0.688
602.93	0.690
603.13	0.696
603.32	0.698
603.51	0.697
603.71	0.700
603.90	0.703
604.09	0.703
604.29	0.701
604.48	0.695
604.68	0.697
604.87	0.696
605.06	0.691
605.26	0.688
605.45	0.688
605.64	0.688
605.84	0.683
606.03	0.682
606.22	0.681
606.42	0.680
606.61	0.676
606.80	0.675
607.00	0.677
607.19	0.677
607.38	0.676
607.58	0.677
607.77	0.679
607.96	0.679
608.16	0.677
608.35	0.681
608.54	0.685
608.74	0.688
608.93	0.694
609.12	0.697
609.32	0.700
609.51	0.704
609.70	0.702
609.90	0.705
610.09	0.710
610.28	0.715
610.48	0.708
610.67	0.710
610.86	0.711
611.06	0.705
611.25	0.702
611.44	0.702
611.64	0.702
611.83	0.705
612.02	0.701
612.21	0.699
612.41	0.697
612.60	0.697
612.79	0.693
612.99	0.693
613.18	0.695
613.37	0.693
613.57	0.690
613.76	0.692
613.95	0.690
614.14	0.690
614.34	0.688
614.53	0.689
614.72	0.691
614.92	0.691
615.11	0.688
615.30	0.685
615.49	0.687
615.69	0.690
615.88	0.687
616.07	0.688
616.26	0.690
616.46	0.691
616.65	0.688
616.84	0.688
617.04	0.689
617.23	0.693
617.42	0.694
617.61	0.697
617.81	0.697
618.00	0.699
618.19	0.698
618.38	0.702
618.58	0.705
618.77	0.707
618.96	0.706
619.15	0.708
619.35	0.709
619.54	0.710
619.73	0.705
619.92	0.707
620.12	0.712
620.31	0.712
620.50	0.706
620.69	0.706
620.89	0.709
621.08	0.709
621.27	0.709
621.46	0.708
621.66	0.712
621.85	0.712
622.04	0.708
622.23	0.709
622.43	0.710
622.62	0.710
622.81	0.709
623.00	0.708
623.19	0.713
623.39	0.711
623.58	0.708
623.77	0.707
623.96	0.710
624.16	0.710
624.35	0.705
624.54	0.708
624.73	0.712
624.92	0.710
625.12	0.708
625.31	0.708
625.50	0.711
625.69	0.712
625.88	0.708
626.08	0.708
626.27	0.709
626.46	0.710
626.65	0.707
626.84	0.706
627.04	0.712
627.23	0.712
627.42	0.707
627.61	0.709
627.80	0.713
628.00	0.713
628.19	0.711
628.38	0.716
628.57	0.719
628.76	0.719
628.96	0.716
629.15	0.716
629.34	0.719
629.53	0.719
629.72	0.713
629.91	0.714
630.11	0.719
630.30	0.718
630.49	0.719
630.68	0.719
630.87	0.723
631.06	0.725
631.26	0.720
631.45	0.721
631.64	0.730
631.83	0.733
632.02	0.730
632.21	0.729
632.41	0.737
632.60	0.731
632.79	0.729
632.98	0.730
633.17	0.731
633.36	0.733
633.55	0.729
633.75	0.725
633.94	0.727
634.13	0.727
634.32	0.724
634.51	0.719
634.70	0.721
634.89	0.721
635.09	0.717
635.28	0.717
635.47	0.719
635.66	0.721
635.85	0.716
636.04	0.718
636.23	0.723
636.43	0.724
636.62	0.723
636.81	0.722
637.00	0.724
637.19	0.728
637.38	0.725
637.57	0.724
637.76	0.727
637.95	0.728
638.15	0.723
638.34	0.719
638.53	0.723
638.72	0.725
638.91	0.722
639.10	0.720
639.29	0.720
639.48	0.721
639.67	0.721
639.87	0.719
640.06	0.726
640.25	0.725
640.44	0.725
640.63	0.725
640.82	0.727
641.01	0.728
641.20	0.728
641.39	0.730
641.58	0.732
641.78	0.731
641.97	0.727
642.16	0.740
642.35	0.742
642.54	0.742
642.73	0.736
642.92	0.734
643.11	0.739
643.30	0.738
643.49	0.734
643.68	0.735
643.87	0.738
644.06	0.738
644.25	0.717
644.45	0.719
644.64	0.721
644.83	0.721
645.02	0.718
645.21	0.717
645.40	0.719
645.59	0.719
645.78	0.714
645.97	0.715
646.16	0.717
646.35	0.715
646.54	0.713
646.73	0.714
646.92	0.716
647.11	0.715
647.30	0.710
647.49	0.712
647.68	0.712
647.88	0.711
648.07	0.704
648.26	0.708
648.45	0.711
648.64	0.708
648.83	0.705
649.02	0.708
649.21	0.719
649.40	0.719
649.59	0.713
649.78	0.714
649.97	0.729
650.16	0.728
650.35	0.722
650.54	0.724
650.73	0.732
650.92	0.729
651.11	0.721
651.30	0.718
651.49	0.722
651.68	0.722
651.87	0.719
652.06	0.708
652.25	0.711
652.44	0.714
652.63	0.711
652.82	0.710
653.01	0.710
653.20	0.708
653.39	0.695
653.58	0.693
653.77	0.692
653.96	0.687
654.15	0.679
654.34	0.677
654.53	0.672
654.72	0.666
654.91	0.656
655.10	0.653
655.29	0.651
655.48	0.649
655.67	0.644
655.86	0.641
656.05	0.639
656.24	0.639
656.43	0.634
656.62	0.633
656.81	0.634
657.00	0.632
657.19	0.629
657.38	0.629
657.57	0.629
657.76	0.631
657.95	0.629
658.14	0.633
658.33	0.636
658.51	0.641
658.70	0.641
658.89	0.643
659.08	0.652
659.27	0.659
659.46	0.659
659.65	0.665
659.84	0.668
660.03	0.671
660.22	0.672
660.41	0.676
660.60	0.676
660.79	0.678
660.98	0.684
661.17	0.683
661.36	0.683
661.55	0.685
661.74	0.683
661.92	0.686
662.11	0.689
662.30	0.687
662.49	0.680
662.68	0.680
662.87	0.682
663.06	0.676
663.25	0.676
663.44	0.676
663.63	0.677
663.82	0.676
664.01	0.670
664.20	0.669
664.38	0.670
664.57	0.671
664.76	0.670
664.95	0.670
665.14	0.675
665.33	0.671
665.52	0.677
665.71	0.681
665.90	0.681
666.09	0.683
666.28	0.680
666.46	0.679
666.65	0.681
666.84	0.679
667.03	0.674
667.22	0.671
667.41	0.675
667.60	0.665
667.79	0.658
667.98	0.660
668.16	0.660
668.35	0.660
668.54	0.657
668.73	0.658
668.92	0.659
669.11	0.658
669.30	0.652
669.49	0.647
669.67	0.649
669.86	0.651
670.05	0.649
670.24	0.646
670.43	0.644
670.62	0.642
670.81	0.636
671.00	0.637
671.18	0.637
671.37	0.636
671.56	0.635
671.75	0.633
671.94	0.630
672.13	0.628
672.32	0.624
672.50	0.623
672.69	0.624
672.88	0.625
673.07	0.619
673.26	0.622
673.45	0.623
673.63	0.623
673.82	0.620
674.01	0.622
674.20	0.621
674.39	0.619
674.58	0.618
674.76	0.618
674.95	0.617
675.14	0.617
675.33	0.613
675.52	0.611
675.71	0.611
675.89	0.610
676.08	0.606
676.27	0.606
676.46	0.607
676.65	0.606
676.84	0.606
677.02	0.608
677.21	0.610
677.40	0.609
677.59	0.607
677.78	0.608
677.96	0.611
678.15	0.610
678.34	0.608
678.53	0.609
678.72	0.609
678.90	0.605
679.09	0.600
679.28	0.597
679.47	0.597
679.66	0.596
679.84	0.593
680.03	0.590
680.22	0.588
680.41	0.589
680.60	0.586
680.78	0.585
680.97	0.589
681.16	0.589
681.35	0.588
681.53	0.587
681.72	0.588
681.91	0.590
682.10	0.588
682.29	0.591
682.47	0.590
682.66	0.590
682.85	0.588
683.04	0.585
683.22	0.585
683.41	0.587
683.60	0.586
683.79	0.587
683.97	0.586
684.16	0.585
684.35	0.581
684.54	0.583
684.72	0.583
684.91	0.584
685.10	0.581
685.29	0.583
685.47	0.580
685.66	0.579
685.85	0.575
686.04	0.574
686.22	0.577
686.41	0.579
686.60	0.576
686.79	0.579
686.97	0.580
687.16	0.581
687.35	0.578
687.54	0.582
687.72	0.585
687.91	0.585
688.10	0.587
688.29	0.586
688.47	0.585
688.66	0.584
688.85	0.580
689.03	0.578
689.22	0.583
689.41	0.583
689.60	0.579
689.78	0.576
689.97	0.577
690.16	0.575
690.34	0.571
690.53	0.570
690.72	0.570
690.91	0.569
691.09	0.567
691.28	0.560
691.47	0.559
691.65	0.557
691.84	0.554
692.03	0.553
692.21	0.551
692.40	0.551
692.59	0.548
692.77	0.548
692.96	0.549
693.15	0.550
693.34	0.548
693.52	0.548
693.71	0.549
693.90	0.550
694.08	0.551
694.27	0.552
694.46	0.562
694.64	0.563
694.83	0.562
695.02	0.561
695.20	0.561
695.39	0.561
695.58	0.560
695.76	0.561
695.95	0.560
696.14	0.560
696.32	0.557
696.51	0.548
696.70	0.548
696.88	0.549
697.07	0.547
697.26	0.548
697.44	0.549
697.63	0.548
697.81	0.546
698.00	0.545
698.19	0.545
698.37	0.545
698.56	0.544
698.75	0.544
698.93	0.544
699.12	0.545
699.31	0.543
699.49	0.543
699.68	0.544
699.87	0.547
700.05	0.546
700.24	0.546
700.42	0.548
700.61	0.547
700.80	0.544
700.98	0.544
701.17	0.545
701.36	0.545
701.54	0.544
701.73	0.545
701.91	0.542
702.10	0.542
702.29	0.540
702.47	0.539
702.66	0.541
702.84	0.542
703.03	0.540
703.22	0.541
703.40	0.541
703.59	0.543
703.77	0.543
703.96	0.543
704.15	0.543
704.33	0.543
704.52	0.542
704.70	0.541
704.89	0.541
705.08	0.540
705.26	0.536
705.45	0.536
705.63	0.536
705.82	0.532
706.00	0.530
706.19	0.530
706.38	0.530
706.56	0.529
706.75	0.527
706.93	0.526
707.12	0.527
707.30	0.528
707.49	0.525
707.68	0.524
707.86	0.523
708.05	0.523
708.23	0.520
708.42	0.521
708.60	0.524
708.79	0.524
708.98	0.523
709.16	0.522
709.35	0.524
709.53	0.528
709.72	0.526
709.90	0.529
710.09	0.531
710.27	0.533
710.46	0.537
710.64	0.535
710.83	0.537
711.02	0.538
711.20	0.537
711.39	0.535
711.57	0.532
711.76	0.533
711.94	0.530
712.13	0.531
712.31	0.530
712.50	0.525
712.68	0.523
712.87	0.524
713.05	0.524
713.24	0.525
713.42	0.524
713.61	0.525
713.79	0.526
713.98	0.527
714.16	0.527
714.35	0.527
714.54	0.529
714.72	0.529
714.91	0.526
715.09	0.533
715.28	0.536
715.46	0.536
715.65	0.533
715.83	0.533
716.02	0.536
716.20	0.533
716.39	0.532
716.57	0.534
716.76	0.536
716.94	0.537
717.12	0.529
717.31	0.530
717.49	0.534
717.68	0.536
717.86	0.535
718.05	0.537
718.23	0.540
718.42	0.543
718.60	0.544
718.79	0.552
718.97	0.555
719.16	0.555
719.34	0.552
719.53	0.551
719.71	0.552
719.90	0.554
720.08	0.551
720.27	0.551
720.45	0.551
720.63	0.549
720.82	0.543
721.00	0.545
721.19	0.549
721.37	0.548
721.56	0.549
721.74	0.551
721.93	0.559
722.11	0.567
722.30	0.566
722.48	0.571
722.66	0.572
722.85	0.571
723.03	0.571
723.22	0.569
723.40	0.572
723.59	0.571
723.77	0.575
723.95	0.569
724.14	0.570
724.32	0.572
724.51	0.570
724.69	0.572
724.88	0.573
725.06	0.571
725.24	0.573
725.43	0.575
725.61	0.579
725.80	0.573
725.98	0.571
726.16	0.568
726.35	0.574
726.53	0.574
726.72	0.572
726.90	0.583
727.09	0.583
727.27	0.588
727.45	0.585
727.64	0.594
727.82	0.603
728.01	0.608
728.19	0.605
728.37	0.609
728.56	0.613
728.74	0.621
728.92	0.609
729.11	0.612
729.29	0.611
729.48	0.613
729.66	0.602
729.84	0.602
730.03	0.605
730.21	0.607
730.40	0.598
730.58	0.599
730.76	0.598
730.95	0.601
731.13	0.600
731.31	0.614
731.50	0.626
731.68	0.629
731.86	0.625
732.05	0.640
732.23	0.644
732.42	0.649
732.60	0.652
732.78	0.658
732.97	0.678
733.15	0.685
733.33	0.671
733.52	0.679
733.70	0.692
733.88	0.702
734.07	0.686
734.25	0.714
734.43	0.723
734.62	0.726
734.80	0.720
734.98	0.710
735.17	0.718
735.35	0.726
735.53	0.712
735.72	0.714
735.90	0.738
736.08	0.758
736.27	0.733
736.45	0.744
736.63	0.758
736.82	0.769
737.00	0.770
737.18	0.781
737.37	0.818
737.55	0.843
737.73	0.838
737.92	0.841
738.10	0.842
738.28	0.866
738.46	0.851
738.65	0.869
738.83	0.895
739.01	0.956
739.20	0.948
739.38	0.926
739.56	0.920
739.75	0.925
739.93	0.884
740.11	0.913
740.29	0.911
740.48	0.918
740.66	0.891
740.84	0.887
741.03	0.858
741.21	0.864
741.39	0.844
741.57	0.857
741.76	0.878
741.94	0.885
742.12	0.845
742.31	0.851
742.49	0.877
742.67	0.905
742.85	0.919
743.04	0.916
743.22	0.931
743.40	0.992
743.58	0.970
743.77	0.994
743.95	1.037
744.13	1.094
744.31	1.073
744.50	1.065
744.68	1.064
744.86	1.028
745.04	1.042
745.23	1.127
745.41	1.104
745.59	1.114
745.77	1.064
745.96	1.052
746.14	1.070
746.32	1.067
746.50	1.054
746.69	1.034
746.87	1.058
747.05	1.038
747.23	0.950
747.42	0.935
747.60	0.967
747.78	0.970
747.96	1.009
748.14	0.959
748.33	0.996
748.51	0.987
748.69	0.980
748.87	1.008
749.06	1.004
749.24	0.998
749.42	0.979
749.60	0.958
749.78	0.970
749.97	0.917
750.15	0.908
750.33	0.908
750.51	0.938
750.69	0.938
750.88	0.946
751.06	0.959
751.24	1.000
751.42	0.986
751.60	0.973
751.79	1.065
751.97	1.126
752.15	1.120
752.33	1.079
752.51	1.165
752.69	1.202
752.88	1.149
753.06	1.218
753.24	1.178
753.42	1.240
753.60	1.515
753.78	1.266
753.97	1.283
754.15	1.315
754.33	1.347
754.51	1.157
754.69	1.129
754.87	1.165
755.06	1.064
755.24	1.061
755.42	1.063
755.60	0.949
755.78	0.959
755.96	0.898
756.15	0.897
756.33	0.909
756.51	0.936
756.69	0.923
756.87	0.887
757.05	0.909
757.23	0.891
757.42	0.853
757.60	0.853
757.78	0.843
757.96	0.841
758.14	0.820
758.32	0.802
758.50	0.815
758.69	0.810
758.87	0.800
759.05	0.806
759.23	0.814
759.41	0.816
759.59	0.808
759.77	0.829
759.95	0.861
760.13	0.919
760.32	0.917
760.50	0.908
760.68	0.939
760.86	0.937
761.04	0.904
761.22	0.910
761.40	0.968
761.58	0.968
761.76	0.935
761.95	0.915
762.13	0.866
762.31	0.868
762.49	0.832
762.67	0.849
762.85	0.866
763.03	0.862
763.21	0.840
763.39	0.817
763.57	0.820
763.75	0.817
763.94	0.799
764.12	0.800
764.30	0.821
764.48	0.828
764.66	0.789
764.84	0.786
765.02	0.827
765.20	0.835
765.38	0.815
765.56	0.823
765.74	0.864
765.92	0.861
766.10	0.865
766.28	0.860
766.46	0.891
766.65	0.893
766.83	0.878
767.01	0.862
767.19	0.869
767.37	0.871
767.55	0.853
767.73	0.832
767.91	0.841
768.09	0.830
768.27	0.819
768.45	0.811
768.63	0.816
768.81	0.822
768.99	0.793
769.17	0.819
769.35	0.834
769.53	0.831
769.71	0.809
769.89	0.819
770.07	0.831
770.25	0.810
770.43	0.786
770.61	0.811
770.79	0.816
770.97	0.826
771.15	0.793
771.33	0.795
771.51	0.800
771.69	0.813
771.87	0.817
772.05	0.819
772.24	0.829
772.42	0.837
772.60	0.811
772.78	0.878
772.96	0.908
773.14	0.903
773.32	0.881
773.49	0.890
773.67	0.890
773.85	0.870
774.03	0.857
774.21	0.892
774.39	0.906
774.57	0.935
774.75	0.852
774.93	0.845
775.11	0.869
775.29	0.873
775.47	0.871
775.65	0.876
775.83	0.898
776.01	0.923
776.19	0.869
776.37	0.873
776.55	0.872
776.73	0.866
776.91	0.861
777.09	0.844
777.27	0.843
777.45	0.831
777.63	0.809
777.81	0.802
777.99	0.790
778.17	0.788
778.35	0.763
778.53	0.749
778.71	0.758
778.89	0.743
779.07	0.731
779.24	0.738
779.42	0.741
779.60	0.760
779.78	0.755
779.96	0.759
780.14	0.772
780.32	0.796
780.50	0.777
780.68	0.775
780.86	0.768
781.04	0.786
781.22	0.793
781.40	0.804
781.58	0.796
781.75	0.788
781.93	0.768
782.11	0.766
782.29	0.753
782.47	0.754
782.65	0.742
782.83	0.776
783.01	0.770
783.19	0.759
783.37	0.742
783.55	0.744
783.72	0.763
783.90	0.775
784.08	0.767
784.26	0.780
784.44	0.802
784.62	0.803
784.80	0.763
784.98	0.769
785.16	0.776
785.33	0.792
785.51	0.776
785.69	0.763
785.87	0.762
786.05	0.774
786.23	0.766
786.41	0.760
786.59	0.768
786.77	0.769
786.94	0.755
787.12	0.760
787.30	0.762
787.48	0.761
787.66	0.747
787.84	0.746
788.02	0.735
788.19	0.732
788.37	0.717
788.55	0.717
788.73	0.716
788.91	0.707
789.09	0.689
789.27	0.676
789.44	0.687
789.62	0.695
789.80	0.705
789.98	0.733
790.16	0.720
790.34	0.715
790.51	0.703
790.69	0.726
790.87	0.734
791.05	0.731
791.23	0.726
791.41	0.726
791.58	0.732
791.76	0.708
791.94	0.672
792.12	0.684
792.30	0.688
792.48	0.685
792.65	0.676
792.83	0.685
793.01	0.693
793.19	0.691
793.37	0.675
793.54	0.672
793.72	0.687
793.90	0.687
794.08	0.674
794.26	0.676
794.43	0.686
794.61	0.671
794.79	0.656
794.97	0.655
795.15	0.662
795.32	0.666
795.50	0.653
795.68	0.647
795.86	0.652
796.04	0.654
796.21	0.647
796.39	0.646
796.57	0.661
796.75	0.672
796.92	0.671
797.10	0.676
797.28	0.680
797.46	0.684
797.64	0.684
797.81	0.693
797.99	0.699
798.17	0.703
798.35	0.695
798.52	0.696
798.70	0.693
798.88	0.702
799.06	0.701
799.23	0.703
799.41	0.711
799.59	0.704
799.77	0.690
799.94	0.697
800.12	0.708
800.30	0.728
800.48	0.726
800.65	0.724
800.83	0.714
801.01	0.706
801.19	0.706
801.36	0.703
801.54	0.706
801.72	0.718
801.90	0.703
802.07	0.698
802.25	0.683
802.43	0.666
802.60	0.662
802.78	0.670
802.96	0.677
803.14	0.667
803.31	0.664
803.49	0.664
803.67	0.660
803.84	0.665
804.02	0.654
804.20	0.657
804.38	0.663
804.55	0.663
804.73	0.647
804.91	0.646
805.08	0.661
805.26	0.656
805.44	0.725
805.61	0.730
805.79	0.730
805.97	0.731
806.15	0.722
806.32	0.714
806.50	0.722
806.68	0.721
806.85	0.714
807.03	0.705
807.21	0.724
807.38	0.652
807.56	0.639
807.74	0.651
807.91	0.657
808.09	0.659
808.27	0.679
808.44	0.705
808.62	0.714
808.80	0.714
808.97	0.707
809.15	0.700
809.33	0.719
809.50	0.728
809.68	0.713
809.86	0.721
810.03	0.755
810.21	0.733
810.39	0.715
810.56	0.724
810.74	0.751
810.91	0.830
811.09	0.818
811.27	0.841
811.44	0.847
811.62	0.849
811.80	0.832
811.97	0.797
812.15	0.798
812.33	0.794
812.50	0.777
812.68	0.764
812.85	0.704
813.03	0.707
813.21	0.673
813.38	0.669
813.56	0.673
813.74	0.685
813.91	0.692
814.09	0.726
814.26	0.717
814.44	0.721
814.62	0.710
814.79	0.715
814.97	0.721
815.14	0.724
815.32	0.726
815.50	0.747
815.67	0.748
815.85	0.742
816.02	0.728
816.20	0.738
816.38	0.754
816.55	0.762
816.73	0.763
816.90	0.775
817.08	0.809
817.26	0.814
817.43	0.785
817.61	0.813
817.78	0.835
817.96	0.814
818.13	0.802
818.31	0.804
818.49	0.815
818.66	0.804
818.84	0.788
819.01	0.766
819.19	0.773
819.36	0.778
819.54	0.746
819.71	0.793
819.89	0.809
820.07	0.821
820.24	0.811
820.42	0.813
820.59	0.832
820.77	0.861
820.94	0.850
821.12	0.874
821.29	0.894
821.47	0.894
821.64	0.819
821.82	0.834
822.00	0.834
822.17	0.833
822.35	0.823
822.52	0.829
822.70	0.815
822.87	0.824
823.05	0.801
823.22	0.813
823.40	0.848
823.57	0.876
823.75	0.852
823.92	0.886
824.10	0.916
824.27	0.969
824.45	0.953
824.62	1.035
824.80	1.065
824.97	1.093
825.15	1.071
825.32	1.094
825.50	1.101
825.67	1.116
825.85	1.079
826.02	1.106
826.20	1.154
826.37	1.364
826.55	1.223
826.72	1.618
826.90	1.843
827.07	2.210
827.25	1.876
827.42	-0.000
827.60	-0.000
827.77	-0.000
827.95	-0.000
828.12	-0.000
828.30	-0.000
828.47	-0.000
828.65	1.924
828.82	2.485
829.00	-0.000
829.17	-0.000
829.34	-0.000
829.52	-0.000
829.69	-0.000
829.87	-0.000
830.04	-0.000
830.22	-0.000
830.39	-0.000
830.57	-0.000
830.74	-0.000
830.92	-0.000
831.09	-0.000
831.26	-0.000
831.44	-0.000
831.61	-0.000
831.79	-0.000
831.96	-0.000
832.14	-0.000
832.31	-0.000
832.49	-0.000
832.66	-0.000
832.83	-0.000
833.01	-0.000
833.18	-0.000
833.36	-0.000
833.53	-0.000
833.70	-0.000
833.88	-0.000
834.05	-0.000
834.23	-0.000
834.40	-0.000
834.58	-0.000
834.75	-0.000
834.92	-0.000
835.10	-0.000
835.27	-0.000
835.45	-0.000
835.62	-0.000
835.79	-0.000
835.97	-0.000
836.14	-0.000
836.32	-0.000
836.49	-0.000
836.66	-0.000
836.84	-0.000
837.01	-0.000
837.18	-0.000
837.36	-0.000
837.53	-0.000
837.71	-0.000
837.88	-0.000
838.05	-0.000
838.23	-0.000
838.40	-0.000
838.58	-0.000
838.75	-0.000
838.92	-0.000
839.10	-0.000
839.27	-0.000
839.44	-0.000
839.62	-0.000
839.79	-0.000
839.96	-0.000
840.14	-0.000
840.31	-0.000
840.48	-0.000
840.66	-0.000
840.83	-0.000
841.01	-0.000
841.18	-0.000
841.35	-0.000
841.53	-0.000
841.70	-0.000
841.87	-0.000
842.05	-0.000
842.22	-0.000
842.39	-0.000
842.57	-0.000
842.74	-0.000
842.91	-0.000
843.09	-0.000
843.26	-0.000
843.43	-0.000
843.60	-0.000
843.78	-0.000
843.95	-0.000
844.12	-0.000
844.30	-0.000
844.47	-0.000
844.64	-0.000
844.82	-0.000
844.99	-0.000
845.16	-0.000
845.34	-0.000
845.51	-0.000
845.68	-0.000
845.85	-0.000
846.03	-0.000
846.20	-0.000
846.37	-0.000
846.55	-0.000
846.72	-0.000
846.89	-0.000
847.06	-0.000
847.24	-0.000
847.41	-0.000
847.58	-0.000
847.76	-0.000
847.93	-0.000
848.10	-0.000
848.27	-0.000
848.45	-0.000
848.62	-0.000
848.79	-0.000
848.97	-0.000
849.14	-0.000
849.31	-0.000
849.48	-0.000
849.66	-0.000
849.83	-0.000
850.00	-0.000
850.17	-0.000
850.35	-0.000
850.52	-0.000
850.69	-0.000
850.86	-0.000
851.04	-0.000
851.21	-0.000
851.38	-0.000
851.55	-0.000
851.72	-0.000
851.90	-0.000
852.07	-0.000
852.24	-0.000
852.41	-0.000
852.59	-0.000
852.76	-0.000
852.93	-0.000
853.10	-0.000
853.28	-0.000
853.45	-0.000
853.62	-0.000
853.79	-0.000
853.96	-0.000
854.14	-0.000
854.31	-0.000
854.48	-0.000
854.65	-0.000
854.82	-0.000
855.00	-0.000
855.17	-0.000
855.34	-0.000
855.51	-0.000
855.68	-0.000
855.86	-0.000
856.03	-0.000
856.20	-0.000
856.37	-0.000
856.54	-0.000
856.72	-0.000
856.89	-0.000
857.06	-0.000
857.23	-0.000
857.40	-0.000
857.57	-0.000
857.75	-0.000
857.92	-0.000
858.09	-0.000
858.26	-0.000
858.43	-0.000
858.60	-0.000
858.78	-0.000
858.95	-0.000
859.12	-0.000
859.29	-0.000
859.46	-0.000
859.63	-0.000
859.81	-0.000
859.98	-0.000
860.15	-0.000
860.32	-0.000
860.49	-0.000
860.66	-0.000
860.83	-0.000
861.01	-0.000
861.18	-0.000
861.35	-0.000
861.52	-0.000
861.69	-0.000
861.86	-0.000
862.03	-0.000
862.21	-0.000
862.38	-0.000
862.55	-0.000
862.72	-0.000
862.89	-0.000
863.06	-0.000
863.23	-0.000
863.40	-0.000
863.58	-0.000
863.75	-0.000
863.92	-0.000
864.09	-0.000
864.26	-0.000
864.43	-0.000
864.60	-0.000
864.77	-0.000
864.94	-0.000
865.11	-0.000
865.29	-0.000
865.46	-0.000
865.63	-0.000
865.80	-0.000
865.97	-0.000
866.14	-0.000
866.31	-0.000
866.48	-0.000
866.65	-0.000
866.82	-0.000
866.99	-0.000
867.16	-0.000
867.34	-0.000
867.51	-0.000
867.68	-0.000
867.85	-0.000
868.02	-0.000
868.19	-0.000
868.36	-0.000
868.53	-0.000
868.70	-0.000
868.87	-0.000
869.04	-0.000
869.21	-0.000
869.38	-0.000
869.55	-0.000
869.72	-0.000
869.89	-0.000
870.06	-0.000
870.24	-0.000
870.41	-0.000
870.58	-0.000
870.75	-0.000
870.92	-0.000
871.09	-0.000
871.26	-0.000
871.43	-0.000
871.60	-0.000
871.77	-0.000
871.94	-0.000
872.11	-0.000
872.28	-0.000
872.45	-0.000
872.62	-0.000
872.79	-0.000
872.96	-0.000
873.13	-0.000
873.30	-0.000
873.47	-0.000
873.64	-0.000
873.81	-0.000
873.98	-0.000
874.15	-0.000
874.32	-0.000
874.49	-0.000
874.66	-0.000
874.83	-0.000
875.00	-0.000
875.17	-0.000
875.34	-0.000
875.51	-0.000
875.68	-0.000
875.85	-0.000
876.02	-0.000
876.19	-0.000
876.36	-0.000
876.53	-0.000
876.70	-0.000
876.87	-0.000
877.04	-0.000
877.21	-0.000
877.38	-0.000
877.55	-0.000
877.72	-0.000
877.89	-0.000
878.06	-0.000
878.23	-0.000
878.39	-0.000
878.56	-0.000
878.73	-0.000
878.90	-0.000
879.07	-0.000
879.24	-0.000
879.41	-0.000
879.58	-0.000
879.75	-0.000
879.92	-0.000
880.09	-0.000
880.26	-0.000
880.43	-0.000
880.60	-0.000
880.77	-0.000
880.94	-0.000
881.11	-0.000
881.27	-0.000
881.44	-0.000
881.61	-0.000
881.78	-0.000
881.95	-0.000
882.12	-0.000
882.29	-0.000
882.46	-0.000
882.63	-0.000
882.80	-0.000
882.97	-0.000
883.14	-0.000
883.30	-0.000
883.47	-0.000
883.64	-0.000
883.81	-0.000
883.98	-0.000
884.15	-0.000
884.32	-0.000
884.49	-0.000
884.66	-0.000
884.82	-0.000
884.99	-0.000
885.16	-0.000
885.33	-0.000
885.50	-0.000
885.67	-0.000
885.84	-0.000
886.01	-0.000
886.17	-0.000
886.34	-0.000
886.51	-0.000
886.68	-0.000
886.85	-0.000
887.02	-0.000
887.19	-0.000
887.36	-0.000
887.52	-0.000
887.69	-0.000
887.86	-0.000
888.03	-0.000
888.20	-0.000
888.37	-0.000
888.54	-0.000
888.70	-0.000
888.87	-0.000
889.04	-0.000
889.21	-0.000
889.38	-0.000
889.55	-0.000
889.71	-0.000
889.88	-0.000
890.05	-0.000
890.22	-0.000
890.39	-0.000
>>>>>End Processed Spectral Data<<<<<
