SpectraSuite Data File
++++++++++++++++++++++++++++++++++++
Date: Fri Jun 19 13:40:28 CEST 2015
User: introlabs
Dark Spectrum Present: Yes
Reference Spectrum Present: Yes
Number of Sampled Component Spectra: 1
Spectrometers: USB4H08886
Integration Time (usec): 745692 (USB4H08886)
Spectra Averaged: 5 (USB4H08886)
Boxcar Smoothing: 5 (USB4H08886)
Correct for Electrical Dark: Yes (USB4H08886)
Strobe/Lamp Enabled: No (USB4H08886)
Correct for Detector Non-linearity: Yes (USB4H08886)
Correct for Stray Light: Yes (USB4H08886)
Number of Pixels in Processed Spectrum: 3648
>>>>>Begin Processed Spectral Data<<<<<
178.14	-0.000
178.36	-0.000
178.57	-0.000
178.79	-0.000
179.01	-0.000
179.22	-0.000
179.44	-0.000
179.65	-0.000
179.87	-0.000
180.08	-0.000
180.30	-0.000
180.52	-0.000
180.73	-0.000
180.95	-0.000
181.16	-0.000
181.38	-0.000
181.59	-0.000
181.81	-0.000
182.03	-0.000
182.24	-0.000
182.46	-0.000
182.67	-0.000
182.89	-0.000
183.10	-0.000
183.32	-0.000
183.54	-0.000
183.75	-0.000
183.97	-0.000
184.18	-0.000
184.40	-0.000
184.61	-0.000
184.83	-0.000
185.04	-0.000
185.26	-0.000
185.48	-0.000
185.69	-0.000
185.91	-0.000
186.12	-0.000
186.34	-0.000
186.55	-0.000
186.77	-0.000
186.98	-0.000
187.20	-0.000
187.42	-0.000
187.63	-0.000
187.85	-0.000
188.06	-0.000
188.28	-0.000
188.49	-0.000
188.71	-0.000
188.92	-0.000
189.14	-0.000
189.36	-0.000
189.57	-0.000
189.79	-0.000
190.00	-0.000
190.22	-0.000
190.43	-0.000
190.65	-0.000
190.86	-0.000
191.08	-0.000
191.29	-0.000
191.51	-0.000
191.72	-0.000
191.94	-0.000
192.16	-0.000
192.37	-0.000
192.59	-0.000
192.80	-0.000
193.02	-0.000
193.23	-0.000
193.45	-0.000
193.66	-0.000
193.88	-0.000
194.09	-0.000
194.31	-0.000
194.52	-0.000
194.74	-0.000
194.95	-0.000
195.17	-0.000
195.38	-0.000
195.60	-0.000
195.81	-0.000
196.03	-0.000
196.25	-0.000
196.46	-0.000
196.68	-0.000
196.89	-0.000
197.11	-0.000
197.32	-0.000
197.54	-0.000
197.75	-0.000
197.97	-0.000
198.18	-0.000
198.40	-0.000
198.61	-0.000
198.83	-0.000
199.04	-0.000
199.26	-0.000
199.47	-0.000
199.69	-0.000
199.90	-0.000
200.12	-0.000
200.33	-0.000
200.55	-0.000
200.76	-0.000
200.98	-0.000
201.19	-0.000
201.41	-0.000
201.62	-0.000
201.84	-0.000
202.05	-0.000
202.27	-0.000
202.48	-0.000
202.70	-0.000
202.91	-0.000
203.13	-0.000
203.34	-0.000
203.56	-0.000
203.77	-0.000
203.99	-0.000
204.20	-0.000
204.42	-0.000
204.63	-0.000
204.85	-0.000
205.06	-0.000
205.28	-0.000
205.49	-0.000
205.71	-0.000
205.92	-0.000
206.14	-0.000
206.35	-0.000
206.56	-0.000
206.78	-0.000
206.99	-0.000
207.21	-0.000
207.42	-0.000
207.64	-0.000
207.85	-0.000
208.07	-0.000
208.28	-0.000
208.50	-0.000
208.71	-0.000
208.93	-0.000
209.14	-0.000
209.36	-0.000
209.57	-0.000
209.79	-0.000
210.00	-0.000
210.22	-0.000
210.43	-0.000
210.64	-0.000
210.86	-0.000
211.07	-0.000
211.29	-0.000
211.50	-0.000
211.72	-0.000
211.93	-0.000
212.15	-0.000
212.36	-0.000
212.58	-0.000
212.79	-0.000
213.01	-0.000
213.22	-0.000
213.43	-0.000
213.65	-0.000
213.86	-0.000
214.08	-0.000
214.29	-0.000
214.51	-0.000
214.72	-0.000
214.94	-0.000
215.15	-0.000
215.36	-0.000
215.58	-0.000
215.79	-0.000
216.01	-0.000
216.22	-0.000
216.44	-0.000
216.65	-0.000
216.87	-0.000
217.08	-0.000
217.29	-0.000
217.51	-0.000
217.72	-0.000
217.94	-0.000
218.15	-0.000
218.37	-0.000
218.58	-0.000
218.80	-0.000
219.01	-0.000
219.22	-0.000
219.44	-0.000
219.65	-0.000
219.87	-0.000
220.08	-0.000
220.30	-0.000
220.51	-0.000
220.72	-0.000
220.94	-0.000
221.15	-0.000
221.37	-0.000
221.58	-0.000
221.79	-0.000
222.01	-0.000
222.22	-0.000
222.44	-0.000
222.65	-0.000
222.87	-0.000
223.08	-0.000
223.29	-0.000
223.51	-0.000
223.72	-0.000
223.94	-0.000
224.15	-0.000
224.36	-0.000
224.58	-0.000
224.79	-0.000
225.01	-0.000
225.22	-0.000
225.44	-0.000
225.65	-0.000
225.86	-0.000
226.08	-0.000
226.29	-0.000
226.51	-0.000
226.72	-0.000
226.93	-0.000
227.15	-0.000
227.36	-0.000
227.58	-0.000
227.79	-0.000
228.00	-0.000
228.22	-0.000
228.43	-0.000
228.65	-0.000
228.86	-0.000
229.07	-0.000
229.29	-0.000
229.50	-0.000
229.72	-0.000
229.93	-0.000
230.14	-0.000
230.36	-0.000
230.57	-0.000
230.78	-0.000
231.00	-0.000
231.21	-0.000
231.43	-0.000
231.64	-0.000
231.85	-0.000
232.07	-0.000
232.28	-0.000
232.50	-0.000
232.71	-0.000
232.92	-0.000
233.14	-0.000
233.35	-0.000
233.56	-0.000
233.78	-0.000
233.99	-0.000
234.21	-0.000
234.42	-0.000
234.63	-0.000
234.85	-0.000
235.06	-0.000
235.27	-0.000
235.49	-0.000
235.70	-0.000
235.91	-0.000
236.13	-0.000
236.34	-0.000
236.56	-0.000
236.77	-0.000
236.98	-0.000
237.20	-0.000
237.41	-0.000
237.62	-0.000
237.84	-0.000
238.05	-0.000
238.26	-0.000
238.48	-0.000
238.69	-0.000
238.91	-0.000
239.12	-0.000
239.33	-0.000
239.55	-0.000
239.76	-0.000
239.97	-0.000
240.19	-0.000
240.40	-0.000
240.61	-0.000
240.83	-0.000
241.04	-0.000
241.25	-0.000
241.47	-0.000
241.68	-0.000
241.89	-0.000
242.11	-0.000
242.32	-0.000
242.53	-0.000
242.75	-0.000
242.96	-0.000
243.17	-0.000
243.39	-0.000
243.60	-0.000
243.81	-0.000
244.03	-0.000
244.24	-0.000
244.45	-0.000
244.67	-0.000
244.88	-0.000
245.09	-0.000
245.31	-0.000
245.52	-0.000
245.73	-0.000
245.95	-0.000
246.16	-0.000
246.37	-0.000
246.59	-0.000
246.80	-0.000
247.01	-0.000
247.23	-0.000
247.44	-0.000
247.65	-0.000
247.87	-0.000
248.08	-0.000
248.29	-0.000
248.51	-0.000
248.72	-0.000
248.93	-0.000
249.15	-0.000
249.36	-0.000
249.57	-0.000
249.78	-0.000
250.00	-0.000
250.21	-0.000
250.42	-0.000
250.64	-0.000
250.85	-0.000
251.06	-0.000
251.28	-0.000
251.49	-0.000
251.70	-0.000
251.92	-0.000
252.13	-0.000
252.34	-0.000
252.55	-0.000
252.77	-0.000
252.98	-0.000
253.19	-0.000
253.41	-0.000
253.62	-0.000
253.83	-0.000
254.05	-0.000
254.26	-0.000
254.47	-0.000
254.68	-0.000
254.90	-0.000
255.11	-0.000
255.32	-0.000
255.54	-0.000
255.75	-0.000
255.96	-0.000
256.17	-0.000
256.39	-0.000
256.60	-0.000
256.81	-0.000
257.03	-0.000
257.24	-0.000
257.45	-0.000
257.66	-0.000
257.88	-0.000
258.09	-0.000
258.30	-0.000
258.51	-0.000
258.73	-0.000
258.94	-0.000
259.15	-0.000
259.37	-0.000
259.58	-0.000
259.79	-0.000
260.00	-0.000
260.22	-0.000
260.43	-0.000
260.64	-0.000
260.85	-0.000
261.07	-0.000
261.28	-0.000
261.49	-0.000
261.71	-0.000
261.92	-0.000
262.13	-0.000
262.34	-0.000
262.56	-0.000
262.77	-0.000
262.98	-0.000
263.19	-0.000
263.41	-0.000
263.62	-0.000
263.83	-0.000
264.04	-0.000
264.26	-0.000
264.47	-0.000
264.68	-0.000
264.89	-0.000
265.11	-0.000
265.32	-0.000
265.53	-0.000
265.74	-0.000
265.96	-0.000
266.17	-0.000
266.38	-0.000
266.59	-0.000
266.81	-0.000
267.02	-0.000
267.23	-0.000
267.44	-0.000
267.65	-0.000
267.87	-0.000
268.08	-0.000
268.29	-0.000
268.50	-0.000
268.72	-0.000
268.93	-0.000
269.14	-0.000
269.35	-0.000
269.57	-0.000
269.78	-0.000
269.99	-0.000
270.20	-0.000
270.41	-0.000
270.63	-0.000
270.84	-0.000
271.05	-0.000
271.26	-0.000
271.48	-0.000
271.69	-0.000
271.90	-0.000
272.11	-0.000
272.32	-0.000
272.54	-0.000
272.75	-0.000
272.96	-0.000
273.17	-0.000
273.39	-0.000
273.60	-0.000
273.81	-0.000
274.02	-0.000
274.23	-0.000
274.45	-0.000
274.66	-0.000
274.87	-0.000
275.08	-0.000
275.29	-0.000
275.51	-0.000
275.72	-0.000
275.93	-0.000
276.14	-0.000
276.35	-0.000
276.57	-0.000
276.78	-0.000
276.99	-0.000
277.20	-0.000
277.41	-0.000
277.63	-0.000
277.84	-0.000
278.05	-0.000
278.26	-0.000
278.47	-0.000
278.69	-0.000
278.90	-0.000
279.11	-0.000
279.32	-0.000
279.53	-0.000
279.74	-0.000
279.96	-0.000
280.17	-0.000
280.38	-0.000
280.59	-0.000
280.80	-0.000
281.02	-0.000
281.23	-0.000
281.44	-0.000
281.65	-0.000
281.86	-0.000
282.07	-0.000
282.29	-0.000
282.50	-0.000
282.71	-0.000
282.92	-0.000
283.13	-0.000
283.35	-0.000
283.56	-0.000
283.77	-0.000
283.98	-0.000
284.19	-0.000
284.40	-0.000
284.62	-0.000
284.83	-0.000
285.04	-0.000
285.25	-0.000
285.46	-0.000
285.67	-0.000
285.88	-0.000
286.10	-0.000
286.31	-0.000
286.52	-0.000
286.73	-0.000
286.94	-0.000
287.15	-0.000
287.37	-0.000
287.58	-0.000
287.79	-0.000
288.00	-0.000
288.21	-0.000
288.42	-0.000
288.63	-0.000
288.85	-0.000
289.06	-0.000
289.27	-0.000
289.48	-0.000
289.69	-0.000
289.90	-0.000
290.11	-0.000
290.33	-0.000
290.54	-0.000
290.75	-0.000
290.96	-0.000
291.17	-0.000
291.38	-0.000
291.59	-0.000
291.81	-0.000
292.02	-0.000
292.23	-0.000
292.44	-0.000
292.65	-0.000
292.86	-0.000
293.07	-0.000
293.28	-0.000
293.50	-0.000
293.71	-0.000
293.92	-0.000
294.13	-0.000
294.34	-0.000
294.55	-0.000
294.76	-0.000
294.97	-0.000
295.19	-0.000
295.40	-0.000
295.61	-0.000
295.82	-0.000
296.03	-0.000
296.24	-0.000
296.45	-0.000
296.66	-0.000
296.87	-0.000
297.09	-0.000
297.30	-0.000
297.51	2.479
297.72	2.332
297.93	3.575
298.14	2.745
298.35	2.447
298.56	2.288
298.77	-0.000
298.99	3.103
299.20	2.632
299.41	2.480
299.62	2.265
299.83	2.188
300.04	1.987
300.25	1.950
300.46	2.044
300.67	1.966
300.88	1.841
301.10	1.841
301.31	1.996
301.52	1.870
301.73	1.754
301.94	1.754
302.15	1.795
302.36	1.704
302.57	1.600
302.78	1.610
302.99	1.682
303.20	1.729
303.41	1.574
303.63	1.545
303.84	1.551
304.05	1.539
304.26	1.453
304.47	1.455
304.68	1.453
304.89	1.440
305.10	1.386
305.31	1.365
305.52	1.411
305.73	1.406
305.94	1.357
306.15	1.350
306.37	1.381
306.58	1.395
306.79	1.354
307.00	1.384
307.21	1.439
307.42	1.427
307.63	1.377
307.84	1.337
308.05	1.378
308.26	1.375
308.47	1.341
308.68	1.335
308.89	1.336
309.10	1.332
309.31	1.284
309.52	1.271
309.73	1.287
309.95	1.284
310.16	1.250
310.37	1.241
310.58	1.264
310.79	1.260
311.00	1.258
311.21	1.258
311.42	1.262
311.63	1.256
311.84	1.231
312.05	1.230
312.26	1.255
312.47	1.269
312.68	1.236
312.89	1.216
313.10	1.225
313.31	1.191
313.52	1.193
313.73	1.194
313.94	1.200
314.15	1.181
314.36	1.157
314.57	1.148
314.78	1.132
314.99	1.128
315.21	1.112
315.42	1.117
315.63	1.132
315.84	1.106
316.05	1.089
316.26	1.096
316.47	1.116
316.68	1.111
316.89	1.089
317.10	1.110
317.31	1.116
317.52	1.117
317.73	1.094
317.94	1.093
318.15	1.142
318.36	1.140
318.57	1.120
318.78	1.107
318.99	1.146
319.20	1.144
319.41	1.107
319.62	1.108
319.83	1.124
320.04	1.119
320.25	1.103
320.46	1.066
320.67	1.070
320.88	1.065
321.09	1.049
321.30	1.032
321.51	1.048
321.72	1.043
321.93	1.024
322.14	1.016
322.35	1.047
322.56	1.048
322.77	1.034
322.98	1.046
323.19	1.056
323.40	1.063
323.61	1.040
323.82	1.036
324.03	1.042
324.24	1.040
324.45	1.025
324.66	1.002
324.87	1.000
325.08	0.999
325.29	0.978
325.50	0.969
325.71	0.974
325.92	0.981
326.13	0.967
326.34	0.967
326.55	0.976
326.76	0.974
326.97	0.963
327.18	0.956
327.39	0.984
327.60	0.983
327.80	0.984
328.01	0.984
328.22	0.984
328.43	0.986
328.64	0.974
328.85	0.978
329.06	0.981
329.27	0.981
329.48	0.974
329.69	0.953
329.90	0.964
330.11	0.957
330.32	0.949
330.53	0.942
330.74	0.942
330.95	0.941
331.16	0.925
331.37	0.933
331.58	0.933
331.79	0.935
332.00	0.926
332.21	0.920
332.42	0.925
332.63	0.915
332.83	0.911
333.04	0.914
333.25	0.927
333.46	0.926
333.67	0.911
333.88	0.912
334.09	0.922
334.30	0.918
334.51	0.909
334.72	0.904
334.93	0.908
335.14	0.907
335.35	0.899
335.56	0.894
335.77	0.903
335.98	0.903
336.18	0.897
336.39	0.889
336.60	0.894
336.81	0.891
337.02	0.889
337.23	0.894
337.44	0.897
337.65	0.898
337.86	0.887
338.07	0.882
338.28	0.885
338.49	0.882
338.70	0.874
338.91	0.881
339.11	0.889
339.32	0.886
339.53	0.873
339.74	0.870
339.95	0.868
340.16	0.866
340.37	0.858
340.58	0.857
340.79	0.861
341.00	0.861
341.21	0.850
341.41	0.850
341.62	0.852
341.83	0.853
342.04	0.846
342.25	0.856
342.46	0.861
342.67	0.859
342.88	0.850
343.09	0.849
343.30	0.857
343.50	0.860
343.71	0.849
343.92	0.848
344.13	0.853
344.34	0.853
344.55	0.836
344.76	0.836
344.97	0.841
345.18	0.841
345.38	0.839
345.59	0.833
345.80	0.833
346.01	0.831
346.22	0.826
346.43	0.819
346.64	0.828
346.85	0.827
347.06	0.819
347.26	0.819
347.47	0.823
347.68	0.818
347.89	0.814
348.10	0.810
348.31	0.817
348.52	0.818
348.73	0.815
348.93	0.812
349.14	0.814
349.35	0.814
349.56	0.808
349.77	0.803
349.98	0.810
350.19	0.808
350.39	0.803
350.60	0.798
350.81	0.813
351.02	0.812
351.23	0.808
351.44	0.810
351.65	0.813
351.86	0.811
352.06	0.810
352.27	0.809
352.48	0.809
352.69	0.809
352.90	0.803
353.11	0.790
353.31	0.798
353.52	0.794
353.73	0.785
353.94	0.787
354.15	0.792
354.36	0.792
354.57	0.783
354.77	0.785
354.98	0.785
355.19	0.784
355.40	0.782
355.61	0.788
355.82	0.792
356.02	0.792
356.23	0.785
356.44	0.787
356.65	0.790
356.86	0.791
357.07	0.785
357.27	0.788
357.48	0.791
357.69	0.787
357.90	0.771
358.11	0.768
358.32	0.771
358.52	0.774
358.73	0.763
358.94	0.766
359.15	0.770
359.36	0.771
359.56	0.766
359.77	0.763
359.98	0.771
360.19	0.770
360.40	0.767
360.61	0.768
360.81	0.767
361.02	0.767
361.23	0.758
361.44	0.757
361.65	0.758
361.85	0.757
362.06	0.756
362.27	0.757
362.48	0.757
362.69	0.760
362.89	0.753
363.10	0.755
363.31	0.761
363.52	0.764
363.73	0.758
363.93	0.759
364.14	0.761
364.35	0.762
364.56	0.752
364.77	0.755
364.97	0.756
365.18	0.757
365.39	0.750
365.60	0.747
365.81	0.749
366.01	0.749
366.22	0.745
366.43	0.744
366.64	0.747
366.84	0.753
367.05	0.749
367.26	0.748
367.47	0.750
367.68	0.751
367.88	0.747
368.09	0.745
368.30	0.747
368.51	0.747
368.71	0.745
368.92	0.749
369.13	0.747
369.34	0.746
369.55	0.746
369.75	0.747
369.96	0.753
370.17	0.754
370.38	0.749
370.58	0.749
370.79	0.755
371.00	0.754
371.21	0.745
371.41	0.750
371.62	0.754
371.83	0.750
372.04	0.746
372.24	0.740
372.45	0.740
372.66	0.741
372.87	0.737
373.07	0.734
373.28	0.735
373.49	0.738
373.70	0.729
373.90	0.728
374.11	0.737
374.32	0.736
374.53	0.735
374.73	0.736
374.94	0.738
375.15	0.738
375.36	0.735
375.56	0.744
375.77	0.744
375.98	0.745
376.19	0.742
376.39	0.735
376.60	0.740
376.81	0.741
377.02	0.738
377.22	0.736
377.43	0.736
377.64	0.736
377.84	0.726
378.05	0.731
378.26	0.736
378.47	0.736
378.67	0.733
378.88	0.729
379.09	0.729
379.30	0.730
379.50	0.727
379.71	0.730
379.92	0.733
380.12	0.733
380.33	0.724
380.54	0.720
380.75	0.727
380.95	0.727
381.16	0.726
381.37	0.726
381.57	0.729
381.78	0.729
381.99	0.728
382.20	0.727
382.40	0.730
382.61	0.730
382.82	0.726
383.02	0.720
383.23	0.724
383.44	0.723
383.64	0.720
383.85	0.722
384.06	0.725
384.27	0.722
384.47	0.720
384.68	0.721
384.89	0.728
385.09	0.727
385.30	0.726
385.51	0.725
385.71	0.728
385.92	0.729
386.13	0.727
386.33	0.728
386.54	0.729
386.75	0.728
386.95	0.724
387.16	0.719
387.37	0.721
387.58	0.721
387.78	0.719
387.99	0.716
388.20	0.719
388.40	0.716
388.61	0.712
388.82	0.715
389.02	0.718
389.23	0.718
389.44	0.716
389.64	0.716
389.85	0.727
390.06	0.728
390.26	0.729
390.47	0.727
390.68	0.729
390.88	0.727
391.09	0.722
391.30	0.721
391.50	0.721
391.71	0.721
391.92	0.719
392.12	0.711
392.33	0.710
392.53	0.710
392.74	0.710
392.95	0.709
393.15	0.713
393.36	0.715
393.57	0.712
393.77	0.715
393.98	0.716
394.19	0.717
394.39	0.716
394.60	0.718
394.81	0.719
395.01	0.718
395.22	0.716
395.43	0.717
395.63	0.721
395.84	0.722
396.04	0.718
396.25	0.721
396.46	0.722
396.66	0.720
396.87	0.717
397.08	0.714
397.28	0.716
397.49	0.717
397.69	0.713
397.90	0.708
398.11	0.710
398.31	0.711
398.52	0.707
398.73	0.708
398.93	0.708
399.14	0.706
399.34	0.705
399.55	0.706
399.76	0.707
399.96	0.707
400.17	0.706
400.37	0.704
400.58	0.710
400.79	0.712
400.99	0.709
401.20	0.715
401.41	0.718
401.61	0.719
401.82	0.723
402.02	0.723
402.23	0.725
402.44	0.724
402.64	0.724
402.85	0.717
403.05	0.716
403.26	0.715
403.47	0.709
403.67	0.708
403.88	0.708
404.08	0.702
404.29	0.701
404.50	0.700
404.70	0.701
404.91	0.700
405.11	0.697
405.32	0.697
405.52	0.698
405.73	0.697
405.94	0.696
406.14	0.698
406.35	0.700
406.55	0.699
406.76	0.696
406.97	0.697
407.17	0.701
407.38	0.701
407.58	0.699
407.79	0.702
407.99	0.704
408.20	0.705
408.41	0.700
408.61	0.699
408.82	0.700
409.02	0.700
409.23	0.697
409.43	0.695
409.64	0.696
409.84	0.696
410.05	0.693
410.26	0.691
410.46	0.690
410.67	0.690
410.87	0.692
411.08	0.694
411.28	0.695
411.49	0.697
411.69	0.695
411.90	0.697
412.11	0.698
412.31	0.699
412.52	0.698
412.72	0.699
412.93	0.700
413.13	0.699
413.34	0.695
413.54	0.696
413.75	0.698
413.95	0.697
414.16	0.693
414.37	0.696
414.57	0.696
414.78	0.698
414.98	0.696
415.19	0.697
415.39	0.694
415.60	0.696
415.80	0.695
416.01	0.694
416.21	0.696
416.42	0.696
416.62	0.691
416.83	0.692
417.03	0.692
417.24	0.692
417.44	0.689
417.65	0.688
417.86	0.689
418.06	0.688
418.27	0.686
418.47	0.687
418.68	0.688
418.88	0.688
419.09	0.686
419.29	0.686
419.50	0.687
419.70	0.687
419.91	0.686
420.11	0.683
420.32	0.685
420.52	0.685
420.73	0.684
420.93	0.685
421.14	0.687
421.34	0.686
421.55	0.682
421.75	0.682
421.96	0.682
422.16	0.683
422.37	0.682
422.57	0.679
422.78	0.681
422.98	0.677
423.19	0.675
423.39	0.674
423.60	0.677
423.80	0.679
424.01	0.678
424.21	0.680
424.42	0.681
424.62	0.681
424.83	0.680
425.03	0.680
425.23	0.682
425.44	0.682
425.64	0.683
425.85	0.682
426.05	0.682
426.26	0.683
426.46	0.679
426.67	0.678
426.87	0.683
427.08	0.684
427.28	0.682
427.49	0.683
427.69	0.684
427.90	0.683
428.10	0.679
428.31	0.679
428.51	0.681
428.71	0.681
428.92	0.682
429.12	0.679
429.33	0.680
429.53	0.684
429.74	0.688
429.94	0.688
430.15	0.688
430.35	0.688
430.56	0.685
430.76	0.684
430.96	0.685
431.17	0.683
431.37	0.680
431.58	0.678
431.78	0.675
431.99	0.668
432.19	0.670
432.40	0.672
432.60	0.673
432.80	0.675
433.01	0.673
433.21	0.673
433.42	0.675
433.62	0.676
433.83	0.675
434.03	0.678
434.23	0.681
434.44	0.680
434.64	0.677
434.85	0.682
435.05	0.683
435.26	0.684
435.46	0.682
435.66	0.681
435.87	0.681
436.07	0.681
436.28	0.677
436.48	0.674
436.69	0.673
436.89	0.674
437.09	0.668
437.30	0.667
437.50	0.668
437.71	0.680
437.91	0.679
438.11	0.680
438.32	0.684
438.52	0.685
438.73	0.684
438.93	0.683
439.13	0.682
439.34	0.686
439.54	0.683
439.75	0.683
439.95	0.674
440.15	0.678
440.36	0.676
440.56	0.673
440.77	0.674
440.97	0.674
441.17	0.672
441.38	0.674
441.58	0.672
441.79	0.671
441.99	0.670
442.19	0.668
442.40	0.666
442.60	0.666
442.81	0.664
443.01	0.665
443.21	0.665
443.42	0.664
443.62	0.663
443.82	0.662
444.03	0.664
444.23	0.664
444.44	0.664
444.64	0.663
444.84	0.663
445.05	0.664
445.25	0.661
445.45	0.661
445.66	0.664
445.86	0.663
446.06	0.664
446.27	0.663
446.47	0.667
446.68	0.665
446.88	0.664
447.08	0.664
447.29	0.666
447.49	0.667
447.69	0.666
447.90	0.665
448.10	0.669
448.30	0.666
448.51	0.668
448.71	0.665
448.91	0.668
449.12	0.667
449.32	0.669
449.52	0.667
449.73	0.671
449.93	0.670
450.14	0.671
450.34	0.670
450.54	0.673
450.75	0.670
450.95	0.669
451.15	0.668
451.36	0.671
451.56	0.667
451.76	0.666
451.97	0.664
452.17	0.664
452.37	0.663
452.58	0.659
452.78	0.658
452.98	0.660
453.19	0.660
453.39	0.661
453.59	0.660
453.79	0.661
454.00	0.661
454.20	0.660
454.40	0.660
454.61	0.663
454.81	0.663
455.01	0.662
455.22	0.662
455.42	0.664
455.62	0.661
455.83	0.661
456.03	0.664
456.23	0.666
456.44	0.667
456.64	0.666
456.84	0.666
457.04	0.667
457.25	0.666
457.45	0.663
457.65	0.662
457.86	0.663
458.06	0.662
458.26	0.657
458.47	0.656
458.67	0.657
458.87	0.658
459.07	0.655
459.28	0.657
459.48	0.660
459.68	0.659
459.89	0.659
460.09	0.658
460.29	0.659
460.49	0.660
460.70	0.659
460.90	0.659
461.10	0.659
461.31	0.659
461.51	0.655
461.71	0.657
461.91	0.658
462.12	0.659
462.32	0.657
462.52	0.658
462.72	0.661
462.93	0.662
463.13	0.660
463.33	0.661
463.53	0.662
463.74	0.662
463.94	0.658
464.14	0.658
464.35	0.660
464.55	0.660
464.75	0.658
464.95	0.656
465.16	0.657
465.36	0.657
465.56	0.656
465.76	0.655
465.97	0.656
466.17	0.656
466.37	0.654
466.57	0.656
466.78	0.656
466.98	0.656
467.18	0.654
467.38	0.653
467.59	0.654
467.79	0.655
467.99	0.654
468.19	0.655
468.39	0.658
468.60	0.658
468.80	0.656
469.00	0.657
469.20	0.659
469.41	0.659
469.61	0.659
469.81	0.659
470.01	0.659
470.22	0.659
470.42	0.658
470.62	0.656
470.82	0.658
471.02	0.658
471.23	0.655
471.43	0.656
471.63	0.658
471.83	0.657
472.04	0.656
472.24	0.655
472.44	0.660
472.64	0.660
472.84	0.658
473.05	0.658
473.25	0.660
473.45	0.659
473.65	0.657
473.85	0.658
474.06	0.659
474.26	0.659
474.46	0.660
474.66	0.656
474.86	0.658
475.07	0.657
475.27	0.655
475.47	0.653
475.67	0.654
475.87	0.656
476.08	0.652
476.28	0.653
476.48	0.655
476.68	0.653
476.88	0.650
477.09	0.651
477.29	0.653
477.49	0.654
477.69	0.652
477.89	0.652
478.09	0.652
478.30	0.654
478.50	0.651
478.70	0.650
478.90	0.651
479.10	0.653
479.31	0.655
479.51	0.652
479.71	0.654
479.91	0.654
480.11	0.653
480.31	0.653
480.52	0.652
480.72	0.651
480.92	0.650
481.12	0.649
481.32	0.647
481.52	0.645
481.72	0.645
481.93	0.648
482.13	0.648
482.33	0.648
482.53	0.646
482.73	0.647
482.93	0.648
483.14	0.647
483.34	0.647
483.54	0.647
483.74	0.646
483.94	0.645
484.14	0.641
484.34	0.642
484.55	0.642
484.75	0.642
484.95	0.641
485.15	0.640
485.35	0.641
485.55	0.640
485.75	0.639
485.96	0.639
486.16	0.641
486.36	0.640
486.56	0.638
486.76	0.638
486.96	0.639
487.16	0.638
487.36	0.636
487.57	0.636
487.77	0.637
487.97	0.637
488.17	0.635
488.37	0.634
488.57	0.635
488.77	0.635
488.97	0.634
489.18	0.633
489.38	0.636
489.58	0.637
489.78	0.636
489.98	0.635
490.18	0.635
490.38	0.636
490.58	0.635
490.78	0.636
490.98	0.638
491.19	0.638
491.39	0.638
491.59	0.636
491.79	0.639
491.99	0.639
492.19	0.639
492.39	0.642
492.59	0.642
492.79	0.643
492.99	0.643
493.20	0.644
493.40	0.644
493.60	0.645
493.80	0.643
494.00	0.641
494.20	0.641
494.40	0.641
494.60	0.638
494.80	0.643
495.00	0.642
495.20	0.640
495.40	0.639
495.61	0.641
495.81	0.640
496.01	0.645
496.21	0.646
496.41	0.645
496.61	0.646
496.81	0.645
497.01	0.640
497.21	0.639
497.41	0.640
497.61	0.639
497.81	0.637
498.01	0.637
498.21	0.635
498.41	0.632
498.61	0.633
498.82	0.634
499.02	0.636
499.22	0.637
499.42	0.636
499.62	0.638
499.82	0.639
500.02	0.640
500.22	0.638
500.42	0.640
500.62	0.641
500.82	0.641
501.02	0.639
501.22	0.639
501.42	0.640
501.62	0.642
501.82	0.641
502.02	0.640
502.22	0.640
502.42	0.642
502.62	0.639
502.82	0.640
503.02	0.640
503.22	0.640
503.42	0.638
503.63	0.638
503.83	0.636
504.03	0.635
504.23	0.633
504.43	0.634
504.63	0.635
504.83	0.634
505.03	0.633
505.23	0.635
505.43	0.636
505.63	0.637
505.83	0.637
506.03	0.639
506.23	0.641
506.43	0.641
506.63	0.640
506.83	0.639
507.03	0.642
507.23	0.642
507.43	0.639
507.63	0.640
507.83	0.640
508.03	0.641
508.23	0.640
508.43	0.639
508.63	0.641
508.83	0.641
509.03	0.642
509.23	0.641
509.43	0.642
509.63	0.643
509.83	0.642
510.03	0.644
510.23	0.646
510.43	0.647
510.63	0.647
510.83	0.647
511.03	0.648
511.23	0.645
511.43	0.645
511.63	0.646
511.83	0.648
512.03	0.647
512.22	0.644
512.42	0.643
512.62	0.644
512.82	0.643
513.02	0.642
513.22	0.642
513.42	0.644
513.62	0.647
513.82	0.645
514.02	0.644
514.22	0.646
514.42	0.647
514.62	0.647
514.82	0.647
515.02	0.649
515.22	0.652
515.42	0.651
515.62	0.654
515.82	0.653
516.02	0.655
516.22	0.654
516.42	0.656
516.62	0.658
516.82	0.659
517.01	0.657
517.21	0.656
517.41	0.659
517.61	0.660
517.81	0.656
518.01	0.655
518.21	0.655
518.41	0.654
518.61	0.653
518.81	0.653
519.01	0.654
519.21	0.655
519.41	0.653
519.61	0.648
519.81	0.651
520.00	0.652
520.20	0.652
520.40	0.654
520.60	0.655
520.80	0.654
521.00	0.655
521.20	0.656
521.40	0.660
521.60	0.661
521.80	0.660
522.00	0.660
522.20	0.662
522.39	0.661
522.59	0.658
522.79	0.660
522.99	0.663
523.19	0.661
523.39	0.659
523.59	0.657
523.79	0.659
523.99	0.662
524.19	0.660
524.38	0.659
524.58	0.660
524.78	0.661
524.98	0.659
525.18	0.662
525.38	0.664
525.58	0.664
525.78	0.661
525.98	0.660
526.18	0.660
526.37	0.659
526.57	0.661
526.77	0.660
526.97	0.661
527.17	0.661
527.37	0.657
527.57	0.659
527.77	0.661
527.96	0.661
528.16	0.661
528.36	0.661
528.56	0.663
528.76	0.662
528.96	0.661
529.16	0.663
529.36	0.665
529.55	0.665
529.75	0.662
529.95	0.662
530.15	0.664
530.35	0.666
530.55	0.664
530.75	0.663
530.94	0.664
531.14	0.664
531.34	0.663
531.54	0.661
531.74	0.664
531.94	0.667
532.13	0.665
532.33	0.667
532.53	0.665
532.73	0.665
532.93	0.664
533.13	0.665
533.33	0.665
533.52	0.666
533.72	0.668
533.92	0.666
534.12	0.665
534.32	0.665
534.52	0.663
534.71	0.665
534.91	0.668
535.11	0.670
535.31	0.668
535.51	0.670
535.71	0.672
535.90	0.669
536.10	0.671
536.30	0.673
536.50	0.673
536.70	0.673
536.89	0.671
537.09	0.670
537.29	0.671
537.49	0.672
537.69	0.670
537.89	0.671
538.08	0.670
538.28	0.668
538.48	0.669
538.68	0.671
538.88	0.672
539.07	0.672
539.27	0.670
539.47	0.669
539.67	0.669
539.87	0.670
540.06	0.668
540.26	0.669
540.46	0.671
540.66	0.668
540.86	0.665
541.05	0.666
541.25	0.667
541.45	0.668
541.65	0.666
541.84	0.667
542.04	0.668
542.24	0.669
542.44	0.668
542.64	0.670
542.83	0.673
543.03	0.673
543.23	0.671
543.43	0.672
543.62	0.673
543.82	0.674
544.02	0.672
544.22	0.673
544.42	0.676
544.61	0.676
544.81	0.672
545.01	0.671
545.21	0.673
545.40	0.673
545.60	0.672
545.80	0.675
546.00	0.675
546.19	0.674
546.39	0.673
546.59	0.671
546.79	0.673
546.98	0.673
547.18	0.672
547.38	0.673
547.58	0.676
547.77	0.676
547.97	0.673
548.17	0.674
548.37	0.675
548.56	0.675
548.76	0.675
548.96	0.677
549.16	0.679
549.35	0.679
549.55	0.676
549.75	0.676
549.95	0.680
550.14	0.680
550.34	0.678
550.54	0.683
550.73	0.687
550.93	0.687
551.13	0.684
551.33	0.682
551.52	0.683
551.72	0.684
551.92	0.681
552.12	0.682
552.31	0.682
552.51	0.682
552.71	0.677
552.90	0.677
553.10	0.678
553.30	0.678
553.50	0.678
553.69	0.679
553.89	0.680
554.09	0.680
554.28	0.676
554.48	0.678
554.68	0.680
554.87	0.680
555.07	0.677
555.27	0.677
555.47	0.679
555.66	0.680
555.86	0.678
556.06	0.680
556.25	0.681
556.45	0.689
556.65	0.688
556.84	0.691
557.04	0.695
557.24	0.696
557.43	0.696
557.63	0.699
557.83	0.700
558.02	0.701
558.22	0.705
558.42	0.706
558.61	0.699
558.81	0.699
559.01	0.694
559.21	0.694
559.40	0.696
559.60	0.695
559.80	0.692
559.99	0.693
560.19	0.694
560.39	0.688
560.58	0.686
560.78	0.686
560.97	0.690
561.17	0.688
561.37	0.686
561.56	0.686
561.76	0.688
561.96	0.688
562.15	0.685
562.35	0.688
562.55	0.689
562.74	0.690
562.94	0.689
563.14	0.687
563.33	0.688
563.53	0.688
563.73	0.685
563.92	0.687
564.12	0.690
564.31	0.693
564.51	0.690
564.71	0.691
564.90	0.694
565.10	0.695
565.30	0.697
565.49	0.699
565.69	0.701
565.89	0.702
566.08	0.698
566.28	0.700
566.47	0.701
566.67	0.700
566.87	0.697
567.06	0.698
567.26	0.705
567.46	0.700
567.65	0.699
567.85	0.701
568.04	0.704
568.24	0.703
568.44	0.700
568.63	0.697
568.83	0.699
569.02	0.697
569.22	0.693
569.42	0.689
569.61	0.692
569.81	0.691
570.00	0.688
570.20	0.689
570.40	0.690
570.59	0.690
570.79	0.688
570.98	0.686
571.18	0.688
571.38	0.688
571.57	0.685
571.77	0.682
571.96	0.686
572.16	0.683
572.35	0.678
572.55	0.679
572.75	0.677
572.94	0.677
573.14	0.676
573.33	0.675
573.53	0.676
573.73	0.675
573.92	0.673
574.12	0.671
574.31	0.674
574.51	0.675
574.70	0.671
574.90	0.672
575.09	0.675
575.29	0.675
575.49	0.672
575.68	0.673
575.88	0.674
576.07	0.676
576.27	0.674
576.46	0.672
576.66	0.672
576.86	0.672
577.05	0.670
577.25	0.667
577.44	0.669
577.64	0.669
577.83	0.667
578.03	0.668
578.22	0.667
578.42	0.666
578.61	0.664
578.81	0.664
579.00	0.665
579.20	0.665
579.40	0.664
579.59	0.662
579.79	0.662
579.98	0.662
580.18	0.661
580.37	0.662
580.57	0.664
580.76	0.669
580.96	0.667
581.15	0.667
581.35	0.670
581.54	0.669
581.74	0.669
581.93	0.670
582.13	0.671
582.32	0.669
582.52	0.667
582.71	0.667
582.91	0.663
583.10	0.663
583.30	0.661
583.49	0.661
583.69	0.664
583.88	0.666
584.08	0.665
584.27	0.667
584.47	0.671
584.66	0.672
584.86	0.670
585.05	0.672
585.25	0.675
585.44	0.675
585.64	0.673
585.83	0.670
586.03	0.671
586.22	0.669
586.42	0.666
586.61	0.667
586.81	0.669
587.00	0.669
587.20	0.666
587.39	0.668
587.59	0.670
587.78	0.671
587.98	0.672
588.17	0.672
588.37	0.675
588.56	0.676
588.76	0.672
588.95	0.672
589.15	0.676
589.34	0.679
589.54	0.677
589.73	0.677
589.92	0.680
590.12	0.681
590.31	0.678
590.51	0.684
590.70	0.685
590.90	0.686
591.09	0.684
591.29	0.683
591.48	0.682
591.68	0.683
591.87	0.681
592.06	0.681
592.26	0.684
592.45	0.683
592.65	0.676
592.84	0.676
593.04	0.679
593.23	0.680
593.43	0.678
593.62	0.677
593.81	0.678
594.01	0.677
594.20	0.675
594.40	0.674
594.59	0.676
594.79	0.677
594.98	0.675
595.17	0.674
595.37	0.676
595.56	0.678
595.76	0.677
595.95	0.679
596.14	0.682
596.34	0.683
596.53	0.682
596.73	0.683
596.92	0.685
597.12	0.688
597.31	0.687
597.50	0.686
597.70	0.688
597.89	0.687
598.09	0.683
598.28	0.684
598.47	0.687
598.67	0.685
598.86	0.681
599.06	0.683
599.25	0.683
599.44	0.682
599.64	0.679
599.83	0.677
600.03	0.680
600.22	0.681
600.41	0.681
600.61	0.679
600.80	0.682
601.00	0.682
601.19	0.678
601.38	0.676
601.58	0.679
601.77	0.680
601.96	0.682
602.16	0.682
602.35	0.692
602.55	0.689
602.74	0.689
602.93	0.689
603.13	0.695
603.32	0.696
603.51	0.696
603.71	0.700
603.90	0.702
604.09	0.702
604.29	0.700
604.48	0.694
604.68	0.695
604.87	0.694
605.06	0.690
605.26	0.687
605.45	0.687
605.64	0.686
605.84	0.681
606.03	0.680
606.22	0.678
606.42	0.678
606.61	0.674
606.80	0.675
607.00	0.677
607.19	0.677
607.38	0.676
607.58	0.677
607.77	0.680
607.96	0.679
608.16	0.678
608.35	0.683
608.54	0.686
608.74	0.689
608.93	0.694
609.12	0.697
609.32	0.700
609.51	0.704
609.70	0.702
609.90	0.704
610.09	0.709
610.28	0.714
610.48	0.708
610.67	0.709
610.86	0.710
611.06	0.704
611.25	0.701
611.44	0.703
611.64	0.703
611.83	0.705
612.02	0.702
612.21	0.700
612.41	0.699
612.60	0.699
612.79	0.694
612.99	0.694
613.18	0.696
613.37	0.694
613.57	0.690
613.76	0.692
613.95	0.690
614.14	0.689
614.34	0.686
614.53	0.687
614.72	0.690
614.92	0.691
615.11	0.688
615.30	0.685
615.49	0.686
615.69	0.689
615.88	0.684
616.07	0.686
616.26	0.689
616.46	0.690
616.65	0.686
616.84	0.685
617.04	0.687
617.23	0.690
617.42	0.691
617.61	0.695
617.81	0.696
618.00	0.698
618.19	0.696
618.38	0.701
618.58	0.705
618.77	0.706
618.96	0.705
619.15	0.708
619.35	0.710
619.54	0.711
619.73	0.706
619.92	0.708
620.12	0.713
620.31	0.713
620.50	0.706
620.69	0.706
620.89	0.709
621.08	0.710
621.27	0.709
621.46	0.708
621.66	0.712
621.85	0.712
622.04	0.708
622.23	0.709
622.43	0.709
622.62	0.710
622.81	0.709
623.00	0.708
623.19	0.712
623.39	0.711
623.58	0.708
623.77	0.707
623.96	0.710
624.16	0.710
624.35	0.705
624.54	0.708
624.73	0.712
624.92	0.711
625.12	0.708
625.31	0.709
625.50	0.712
625.69	0.713
625.88	0.709
626.08	0.708
626.27	0.710
626.46	0.711
626.65	0.707
626.84	0.707
627.04	0.712
627.23	0.712
627.42	0.707
627.61	0.709
627.80	0.712
628.00	0.712
628.19	0.711
628.38	0.715
628.57	0.717
628.76	0.716
628.96	0.713
629.15	0.714
629.34	0.717
629.53	0.717
629.72	0.711
629.91	0.712
630.11	0.716
630.30	0.716
630.49	0.717
630.68	0.718
630.87	0.722
631.06	0.723
631.26	0.718
631.45	0.720
631.64	0.729
631.83	0.731
632.02	0.728
632.21	0.728
632.41	0.736
632.60	0.730
632.79	0.728
632.98	0.728
633.17	0.730
633.36	0.732
633.55	0.728
633.75	0.724
633.94	0.725
634.13	0.726
634.32	0.722
634.51	0.716
634.70	0.719
634.89	0.719
635.09	0.715
635.28	0.716
635.47	0.718
635.66	0.720
635.85	0.715
636.04	0.717
636.23	0.722
636.43	0.725
636.62	0.723
636.81	0.722
637.00	0.725
637.19	0.728
637.38	0.725
637.57	0.724
637.76	0.727
637.95	0.728
638.15	0.724
638.34	0.721
638.53	0.724
638.72	0.725
638.91	0.722
639.10	0.720
639.29	0.720
639.48	0.720
639.67	0.720
639.87	0.720
640.06	0.725
640.25	0.724
640.44	0.725
640.63	0.724
640.82	0.728
641.01	0.728
641.20	0.727
641.39	0.729
641.58	0.732
641.78	0.730
641.97	0.725
642.16	0.741
642.35	0.742
642.54	0.740
642.73	0.735
642.92	0.733
643.11	0.738
643.30	0.738
643.49	0.732
643.68	0.735
643.87	0.738
644.06	0.737
644.25	0.716
644.45	0.719
644.64	0.721
644.83	0.722
645.02	0.718
645.21	0.716
645.40	0.718
645.59	0.717
645.78	0.711
645.97	0.713
646.16	0.714
646.35	0.714
646.54	0.711
646.73	0.713
646.92	0.715
647.11	0.715
647.30	0.711
647.49	0.713
647.68	0.713
647.88	0.711
648.07	0.703
648.26	0.707
648.45	0.709
648.64	0.705
648.83	0.701
649.02	0.703
649.21	0.715
649.40	0.713
649.59	0.708
649.78	0.709
649.97	0.725
650.16	0.724
650.35	0.717
650.54	0.720
650.73	0.729
650.92	0.726
651.11	0.718
651.30	0.716
651.49	0.721
651.68	0.721
651.87	0.717
652.06	0.707
652.25	0.711
652.44	0.714
652.63	0.710
652.82	0.709
653.01	0.709
653.20	0.707
653.39	0.694
653.58	0.692
653.77	0.691
653.96	0.686
654.15	0.678
654.34	0.675
654.53	0.670
654.72	0.665
654.91	0.656
655.10	0.652
655.29	0.650
655.48	0.648
655.67	0.643
655.86	0.640
656.05	0.639
656.24	0.639
656.43	0.634
656.62	0.633
656.81	0.633
657.00	0.631
657.19	0.628
657.38	0.628
657.57	0.627
657.76	0.629
657.95	0.627
658.14	0.630
658.33	0.633
658.51	0.638
658.70	0.638
658.89	0.640
659.08	0.650
659.27	0.658
659.46	0.658
659.65	0.664
659.84	0.669
660.03	0.672
660.22	0.673
660.41	0.677
660.60	0.677
660.79	0.678
660.98	0.683
661.17	0.683
661.36	0.681
661.55	0.683
661.74	0.680
661.92	0.683
662.11	0.685
662.30	0.684
662.49	0.677
662.68	0.677
662.87	0.680
663.06	0.674
663.25	0.674
663.44	0.675
663.63	0.675
663.82	0.674
664.01	0.669
664.20	0.667
664.38	0.669
664.57	0.670
664.76	0.670
664.95	0.670
665.14	0.675
665.33	0.670
665.52	0.678
665.71	0.683
665.90	0.683
666.09	0.684
666.28	0.682
666.46	0.681
666.65	0.681
666.84	0.678
667.03	0.673
667.22	0.671
667.41	0.674
667.60	0.662
667.79	0.654
667.98	0.656
668.16	0.658
668.35	0.657
668.54	0.654
668.73	0.655
668.92	0.657
669.11	0.656
669.30	0.650
669.49	0.647
669.67	0.649
669.86	0.652
670.05	0.650
670.24	0.647
670.43	0.645
670.62	0.643
670.81	0.638
671.00	0.639
671.18	0.638
671.37	0.638
671.56	0.635
671.75	0.634
671.94	0.630
672.13	0.628
672.32	0.623
672.50	0.623
672.69	0.624
672.88	0.624
673.07	0.619
673.26	0.621
673.45	0.622
673.63	0.623
673.82	0.619
674.01	0.621
674.20	0.621
674.39	0.621
674.58	0.619
674.76	0.619
674.95	0.618
675.14	0.618
675.33	0.613
675.52	0.612
675.71	0.612
675.89	0.611
676.08	0.607
676.27	0.606
676.46	0.607
676.65	0.606
676.84	0.606
677.02	0.608
677.21	0.610
677.40	0.610
677.59	0.607
677.78	0.608
677.96	0.610
678.15	0.609
678.34	0.607
678.53	0.608
678.72	0.608
678.90	0.604
679.09	0.600
679.28	0.597
679.47	0.597
679.66	0.597
679.84	0.593
680.03	0.591
680.22	0.590
680.41	0.592
680.60	0.588
680.78	0.588
680.97	0.590
681.16	0.590
681.35	0.588
681.53	0.586
681.72	0.587
681.91	0.589
682.10	0.587
682.29	0.590
682.47	0.587
682.66	0.587
682.85	0.586
683.04	0.584
683.22	0.585
683.41	0.587
683.60	0.586
683.79	0.587
683.97	0.586
684.16	0.585
684.35	0.581
684.54	0.583
684.72	0.583
684.91	0.584
685.10	0.582
685.29	0.582
685.47	0.579
685.66	0.578
685.85	0.575
686.04	0.575
686.22	0.577
686.41	0.579
686.60	0.576
686.79	0.579
686.97	0.580
687.16	0.582
687.35	0.579
687.54	0.583
687.72	0.586
687.91	0.586
688.10	0.587
688.29	0.587
688.47	0.585
688.66	0.585
688.85	0.580
689.03	0.578
689.22	0.582
689.41	0.583
689.60	0.578
689.78	0.576
689.97	0.576
690.16	0.573
690.34	0.569
690.53	0.569
690.72	0.570
690.91	0.568
691.09	0.566
691.28	0.560
691.47	0.558
691.65	0.557
691.84	0.554
692.03	0.553
692.21	0.552
692.40	0.551
692.59	0.549
692.77	0.548
692.96	0.549
693.15	0.550
693.34	0.548
693.52	0.548
693.71	0.549
693.90	0.550
694.08	0.550
694.27	0.551
694.46	0.561
694.64	0.562
694.83	0.562
695.02	0.560
695.20	0.560
695.39	0.560
695.58	0.560
695.76	0.561
695.95	0.560
696.14	0.560
696.32	0.558
696.51	0.548
696.70	0.548
696.88	0.549
697.07	0.548
697.26	0.549
697.44	0.550
697.63	0.549
697.81	0.546
698.00	0.545
698.19	0.544
698.37	0.544
698.56	0.543
698.75	0.543
698.93	0.543
699.12	0.543
699.31	0.542
699.49	0.542
699.68	0.542
699.87	0.545
700.05	0.545
700.24	0.544
700.42	0.546
700.61	0.546
700.80	0.543
700.98	0.543
701.17	0.545
701.36	0.544
701.54	0.543
701.73	0.544
701.91	0.541
702.10	0.540
702.29	0.539
702.47	0.538
702.66	0.540
702.84	0.541
703.03	0.539
703.22	0.541
703.40	0.541
703.59	0.542
703.77	0.541
703.96	0.541
704.15	0.543
704.33	0.543
704.52	0.542
704.70	0.541
704.89	0.541
705.08	0.540
705.26	0.535
705.45	0.536
705.63	0.536
705.82	0.533
706.00	0.531
706.19	0.530
706.38	0.530
706.56	0.529
706.75	0.527
706.93	0.526
707.12	0.527
707.30	0.528
707.49	0.525
707.68	0.523
707.86	0.521
708.05	0.521
708.23	0.518
708.42	0.519
708.60	0.522
708.79	0.522
708.98	0.520
709.16	0.520
709.35	0.522
709.53	0.526
709.72	0.525
709.90	0.528
710.09	0.530
710.27	0.532
710.46	0.536
710.64	0.534
710.83	0.537
711.02	0.537
711.20	0.536
711.39	0.534
711.57	0.532
711.76	0.533
711.94	0.531
712.13	0.531
712.31	0.532
712.50	0.527
712.68	0.524
712.87	0.524
713.05	0.525
713.24	0.526
713.42	0.524
713.61	0.525
713.79	0.526
713.98	0.526
714.16	0.527
714.35	0.527
714.54	0.528
714.72	0.529
714.91	0.526
715.09	0.533
715.28	0.536
715.46	0.536
715.65	0.533
715.83	0.533
716.02	0.536
716.20	0.532
716.39	0.531
716.57	0.532
716.76	0.534
716.94	0.533
717.12	0.526
717.31	0.527
717.49	0.529
717.68	0.532
717.86	0.531
718.05	0.533
718.23	0.536
718.42	0.538
718.60	0.538
718.79	0.546
718.97	0.549
719.16	0.549
719.34	0.547
719.53	0.547
719.71	0.547
719.90	0.548
720.08	0.546
720.27	0.546
720.45	0.547
720.63	0.545
720.82	0.539
721.00	0.542
721.19	0.546
721.37	0.545
721.56	0.545
721.74	0.548
721.93	0.556
722.11	0.563
722.30	0.563
722.48	0.567
722.66	0.569
722.85	0.569
723.03	0.569
723.22	0.569
723.40	0.572
723.59	0.572
723.77	0.577
723.95	0.571
724.14	0.572
724.32	0.574
724.51	0.573
724.69	0.574
724.88	0.574
725.06	0.572
725.24	0.573
725.43	0.574
725.61	0.577
725.80	0.570
725.98	0.568
726.16	0.564
726.35	0.570
726.53	0.569
726.72	0.569
726.90	0.580
727.09	0.580
727.27	0.586
727.45	0.583
727.64	0.592
727.82	0.601
728.01	0.604
728.19	0.602
728.37	0.607
728.56	0.610
728.74	0.615
728.92	0.603
729.11	0.605
729.29	0.604
729.48	0.606
729.66	0.596
729.84	0.595
730.03	0.600
730.21	0.602
730.40	0.592
730.58	0.594
730.76	0.596
730.95	0.599
731.13	0.599
731.31	0.612
731.50	0.622
731.68	0.626
731.86	0.622
732.05	0.637
732.23	0.640
732.42	0.644
732.60	0.647
732.78	0.652
732.97	0.672
733.15	0.678
733.33	0.666
733.52	0.674
733.70	0.687
733.88	0.697
734.07	0.682
734.25	0.711
734.43	0.718
734.62	0.721
734.80	0.716
734.98	0.707
735.17	0.716
735.35	0.724
735.53	0.713
735.72	0.717
735.90	0.741
736.08	0.760
736.27	0.736
736.45	0.750
736.63	0.764
736.82	0.777
737.00	0.776
737.18	0.787
737.37	0.822
737.55	0.846
737.73	0.839
737.92	0.841
738.10	0.840
738.28	0.861
738.46	0.846
738.65	0.862
738.83	0.888
739.01	0.952
739.20	0.938
739.38	0.918
739.56	0.910
739.75	0.914
739.93	0.875
740.11	0.905
740.29	0.904
740.48	0.917
740.66	0.890
740.84	0.882
741.03	0.845
741.21	0.859
741.39	0.837
741.57	0.853
741.76	0.872
741.94	0.877
742.12	0.837
742.31	0.845
742.49	0.862
742.67	0.887
742.85	0.898
743.04	0.899
743.22	0.911
743.40	0.971
743.58	0.950
743.77	0.972
743.95	1.025
744.13	1.088
744.31	1.064
744.50	1.061
744.68	1.066
744.86	1.035
745.04	1.045
745.23	1.121
745.41	1.104
745.59	1.109
745.77	1.069
745.96	1.040
746.14	1.053
746.32	1.051
746.50	1.040
746.69	1.024
746.87	1.044
747.05	1.027
747.23	0.945
747.42	0.928
747.60	0.967
747.78	0.963
747.96	1.005
748.14	0.950
748.33	0.987
748.51	0.981
748.69	0.971
748.87	0.999
749.06	0.998
749.24	0.992
749.42	0.972
749.60	0.946
749.78	0.963
749.97	0.908
750.15	0.903
750.33	0.902
750.51	0.934
750.69	0.938
750.88	0.948
751.06	0.959
751.24	0.993
751.42	0.981
751.60	0.971
751.79	1.054
751.97	1.117
752.15	1.113
752.33	1.072
752.51	1.158
752.69	1.182
752.88	1.129
753.06	1.195
753.24	1.153
753.42	1.210
753.60	1.473
753.78	1.249
753.97	1.279
754.15	1.304
754.33	1.349
754.51	1.154
754.69	1.126
754.87	1.166
755.06	1.071
755.24	1.075
755.42	1.082
755.60	0.960
755.78	0.964
755.96	0.900
756.15	0.904
756.33	0.912
756.51	0.935
756.69	0.918
756.87	0.882
757.05	0.907
757.23	0.889
757.42	0.850
757.60	0.850
757.78	0.841
757.96	0.838
758.14	0.815
758.32	0.798
758.50	0.814
758.69	0.814
758.87	0.804
759.05	0.806
759.23	0.817
759.41	0.819
759.59	0.809
759.77	0.834
759.95	0.866
760.13	0.924
760.32	0.920
760.50	0.912
760.68	0.946
760.86	0.950
761.04	0.919
761.22	0.924
761.40	0.980
761.58	0.983
761.76	0.946
761.95	0.922
762.13	0.870
762.31	0.871
762.49	0.834
762.67	0.851
762.85	0.863
763.03	0.854
763.21	0.832
763.39	0.810
763.57	0.814
763.75	0.810
763.94	0.794
764.12	0.797
764.30	0.823
764.48	0.830
764.66	0.790
764.84	0.787
765.02	0.832
765.20	0.839
765.38	0.818
765.56	0.823
765.74	0.866
765.92	0.864
766.10	0.871
766.28	0.861
766.46	0.893
766.65	0.892
766.83	0.879
767.01	0.862
767.19	0.872
767.37	0.871
767.55	0.852
767.73	0.833
767.91	0.837
768.09	0.824
768.27	0.814
768.45	0.801
768.63	0.807
768.81	0.808
768.99	0.778
769.17	0.804
769.35	0.819
769.53	0.822
769.71	0.799
769.89	0.809
770.07	0.818
770.25	0.796
770.43	0.773
770.61	0.800
770.79	0.807
770.97	0.816
771.15	0.781
771.33	0.787
771.51	0.791
771.69	0.801
771.87	0.809
772.05	0.814
772.24	0.824
772.42	0.836
772.60	0.811
772.78	0.877
772.96	0.913
773.14	0.907
773.32	0.881
773.49	0.889
773.67	0.886
773.85	0.863
774.03	0.847
774.21	0.885
774.39	0.898
774.57	0.925
774.75	0.843
774.93	0.837
775.11	0.864
775.29	0.870
775.47	0.869
775.65	0.882
775.83	0.905
776.01	0.936
776.19	0.882
776.37	0.882
776.55	0.881
776.73	0.877
776.91	0.867
777.09	0.846
777.27	0.847
777.45	0.834
777.63	0.809
777.81	0.805
777.99	0.790
778.17	0.789
778.35	0.763
778.53	0.749
778.71	0.756
778.89	0.742
779.07	0.734
779.24	0.738
779.42	0.741
779.60	0.761
779.78	0.755
779.96	0.761
780.14	0.769
780.32	0.793
780.50	0.775
780.68	0.775
780.86	0.766
781.04	0.782
781.22	0.785
781.40	0.796
781.58	0.783
781.75	0.774
781.93	0.753
782.11	0.754
782.29	0.740
782.47	0.739
782.65	0.726
782.83	0.758
783.01	0.752
783.19	0.746
783.37	0.730
783.55	0.736
783.72	0.759
783.90	0.772
784.08	0.762
784.26	0.776
784.44	0.800
784.62	0.800
784.80	0.765
784.98	0.773
785.16	0.778
785.33	0.792
785.51	0.772
785.69	0.757
785.87	0.755
786.05	0.764
786.23	0.758
786.41	0.755
786.59	0.763
786.77	0.761
786.94	0.745
787.12	0.747
787.30	0.753
787.48	0.748
787.66	0.736
787.84	0.735
788.02	0.727
788.19	0.725
788.37	0.707
788.55	0.709
788.73	0.708
788.91	0.704
789.09	0.688
789.27	0.676
789.44	0.694
789.62	0.699
789.80	0.712
789.98	0.737
790.16	0.723
790.34	0.720
790.51	0.707
790.69	0.730
790.87	0.736
791.05	0.734
791.23	0.725
791.41	0.723
791.58	0.730
791.76	0.704
791.94	0.673
792.12	0.686
792.30	0.690
792.48	0.688
792.65	0.680
792.83	0.686
793.01	0.692
793.19	0.690
793.37	0.676
793.54	0.672
793.72	0.686
793.90	0.685
794.08	0.671
794.26	0.672
794.43	0.683
794.61	0.666
794.79	0.654
794.97	0.653
795.15	0.659
795.32	0.663
795.50	0.652
795.68	0.646
795.86	0.650
796.04	0.651
796.21	0.642
796.39	0.640
796.57	0.654
796.75	0.663
796.92	0.664
797.10	0.671
797.28	0.673
797.46	0.676
797.64	0.678
797.81	0.687
797.99	0.693
798.17	0.697
798.35	0.690
798.52	0.693
798.70	0.688
798.88	0.695
799.06	0.692
799.23	0.694
799.41	0.704
799.59	0.696
799.77	0.682
799.94	0.691
800.12	0.703
800.30	0.723
800.48	0.722
800.65	0.723
800.83	0.713
801.01	0.705
801.19	0.706
801.36	0.704
801.54	0.708
801.72	0.719
801.90	0.705
802.07	0.699
802.25	0.682
802.43	0.666
802.60	0.662
802.78	0.671
802.96	0.676
803.14	0.670
803.31	0.665
803.49	0.667
803.67	0.664
803.84	0.667
804.02	0.657
804.20	0.661
804.38	0.666
804.55	0.665
804.73	0.648
804.91	0.648
805.08	0.660
805.26	0.656
805.44	0.723
805.61	0.726
805.79	0.727
805.97	0.726
806.15	0.718
806.32	0.714
806.50	0.719
806.68	0.719
806.85	0.709
807.03	0.700
807.21	0.720
807.38	0.647
807.56	0.635
807.74	0.645
807.91	0.653
808.09	0.654
808.27	0.672
808.44	0.699
808.62	0.711
808.80	0.714
808.97	0.707
809.15	0.701
809.33	0.722
809.50	0.728
809.68	0.713
809.86	0.719
810.03	0.751
810.21	0.731
810.39	0.714
810.56	0.720
810.74	0.744
810.91	0.824
811.09	0.809
811.27	0.831
811.44	0.841
811.62	0.842
811.80	0.822
811.97	0.791
812.15	0.793
812.33	0.786
812.50	0.769
812.68	0.759
812.85	0.700
813.03	0.704
813.21	0.669
813.38	0.662
813.56	0.667
813.74	0.682
813.91	0.688
814.09	0.718
814.26	0.710
814.44	0.713
814.62	0.702
814.79	0.705
814.97	0.711
815.14	0.717
815.32	0.718
815.50	0.733
815.67	0.736
815.85	0.729
816.02	0.717
816.20	0.726
816.38	0.744
816.55	0.751
816.73	0.749
816.90	0.759
817.08	0.794
817.26	0.804
817.43	0.782
817.61	0.808
817.78	0.830
817.96	0.807
818.13	0.796
818.31	0.795
818.49	0.808
818.66	0.799
818.84	0.783
819.01	0.760
819.19	0.766
819.36	0.770
819.54	0.737
819.71	0.781
819.89	0.800
820.07	0.815
820.24	0.810
820.42	0.811
820.59	0.837
820.77	0.863
820.94	0.849
821.12	0.872
821.29	0.892
821.47	0.896
821.64	0.825
821.82	0.838
822.00	0.835
822.17	0.833
822.35	0.824
822.52	0.825
822.70	0.812
822.87	0.824
823.05	0.800
823.22	0.812
823.40	0.843
823.57	0.869
823.75	0.850
823.92	0.884
824.10	0.907
824.27	0.954
824.45	0.941
824.62	1.022
824.80	1.052
824.97	1.075
825.15	1.059
825.32	1.078
825.50	1.079
825.67	1.082
825.85	1.045
826.02	1.072
826.20	1.115
826.37	1.314
826.55	1.186
826.72	1.536
826.90	1.736
827.07	2.009
827.25	1.778
827.42	-0.000
827.60	-0.000
827.77	-0.000
827.95	-0.000
828.12	-0.000
828.30	-0.000
828.47	-0.000
828.65	1.939
828.82	3.068
829.00	-0.000
829.17	-0.000
829.34	-0.000
829.52	-0.000
829.69	-0.000
829.87	-0.000
830.04	-0.000
830.22	-0.000
830.39	-0.000
830.57	-0.000
830.74	-0.000
830.92	-0.000
831.09	-0.000
831.26	-0.000
831.44	-0.000
831.61	-0.000
831.79	-0.000
831.96	-0.000
832.14	-0.000
832.31	-0.000
832.49	-0.000
832.66	-0.000
832.83	-0.000
833.01	-0.000
833.18	-0.000
833.36	-0.000
833.53	-0.000
833.70	-0.000
833.88	-0.000
834.05	-0.000
834.23	-0.000
834.40	-0.000
834.58	-0.000
834.75	-0.000
834.92	-0.000
835.10	-0.000
835.27	-0.000
835.45	-0.000
835.62	-0.000
835.79	-0.000
835.97	-0.000
836.14	-0.000
836.32	-0.000
836.49	-0.000
836.66	-0.000
836.84	-0.000
837.01	-0.000
837.18	-0.000
837.36	-0.000
837.53	-0.000
837.71	-0.000
837.88	-0.000
838.05	-0.000
838.23	-0.000
838.40	-0.000
838.58	-0.000
838.75	-0.000
838.92	-0.000
839.10	-0.000
839.27	-0.000
839.44	-0.000
839.62	-0.000
839.79	-0.000
839.96	-0.000
840.14	-0.000
840.31	-0.000
840.48	-0.000
840.66	-0.000
840.83	-0.000
841.01	-0.000
841.18	-0.000
841.35	-0.000
841.53	-0.000
841.70	-0.000
841.87	-0.000
842.05	-0.000
842.22	-0.000
842.39	-0.000
842.57	-0.000
842.74	-0.000
842.91	-0.000
843.09	-0.000
843.26	-0.000
843.43	-0.000
843.60	-0.000
843.78	-0.000
843.95	-0.000
844.12	-0.000
844.30	-0.000
844.47	-0.000
844.64	-0.000
844.82	-0.000
844.99	-0.000
845.16	-0.000
845.34	-0.000
845.51	-0.000
845.68	-0.000
845.85	-0.000
846.03	-0.000
846.20	-0.000
846.37	-0.000
846.55	-0.000
846.72	-0.000
846.89	-0.000
847.06	-0.000
847.24	-0.000
847.41	-0.000
847.58	-0.000
847.76	-0.000
847.93	-0.000
848.10	-0.000
848.27	-0.000
848.45	-0.000
848.62	-0.000
848.79	-0.000
848.97	-0.000
849.14	-0.000
849.31	-0.000
849.48	-0.000
849.66	-0.000
849.83	-0.000
850.00	-0.000
850.17	-0.000
850.35	-0.000
850.52	-0.000
850.69	-0.000
850.86	-0.000
851.04	-0.000
851.21	-0.000
851.38	-0.000
851.55	-0.000
851.72	-0.000
851.90	-0.000
852.07	-0.000
852.24	-0.000
852.41	-0.000
852.59	-0.000
852.76	-0.000
852.93	-0.000
853.10	-0.000
853.28	-0.000
853.45	-0.000
853.62	-0.000
853.79	-0.000
853.96	-0.000
854.14	-0.000
854.31	-0.000
854.48	-0.000
854.65	-0.000
854.82	-0.000
855.00	-0.000
855.17	-0.000
855.34	-0.000
855.51	-0.000
855.68	-0.000
855.86	-0.000
856.03	-0.000
856.20	-0.000
856.37	-0.000
856.54	-0.000
856.72	-0.000
856.89	-0.000
857.06	-0.000
857.23	-0.000
857.40	-0.000
857.57	-0.000
857.75	-0.000
857.92	-0.000
858.09	-0.000
858.26	-0.000
858.43	-0.000
858.60	-0.000
858.78	-0.000
858.95	-0.000
859.12	-0.000
859.29	-0.000
859.46	-0.000
859.63	-0.000
859.81	-0.000
859.98	-0.000
860.15	-0.000
860.32	-0.000
860.49	-0.000
860.66	-0.000
860.83	-0.000
861.01	-0.000
861.18	-0.000
861.35	-0.000
861.52	-0.000
861.69	-0.000
861.86	-0.000
862.03	-0.000
862.21	-0.000
862.38	-0.000
862.55	-0.000
862.72	-0.000
862.89	-0.000
863.06	-0.000
863.23	-0.000
863.40	-0.000
863.58	-0.000
863.75	-0.000
863.92	-0.000
864.09	-0.000
864.26	-0.000
864.43	-0.000
864.60	-0.000
864.77	-0.000
864.94	-0.000
865.11	-0.000
865.29	-0.000
865.46	-0.000
865.63	-0.000
865.80	-0.000
865.97	-0.000
866.14	-0.000
866.31	-0.000
866.48	-0.000
866.65	-0.000
866.82	-0.000
866.99	-0.000
867.16	-0.000
867.34	-0.000
867.51	-0.000
867.68	-0.000
867.85	-0.000
868.02	-0.000
868.19	-0.000
868.36	-0.000
868.53	-0.000
868.70	-0.000
868.87	-0.000
869.04	-0.000
869.21	-0.000
869.38	-0.000
869.55	-0.000
869.72	-0.000
869.89	-0.000
870.06	-0.000
870.24	-0.000
870.41	-0.000
870.58	-0.000
870.75	-0.000
870.92	-0.000
871.09	-0.000
871.26	-0.000
871.43	-0.000
871.60	-0.000
871.77	-0.000
871.94	-0.000
872.11	-0.000
872.28	-0.000
872.45	-0.000
872.62	-0.000
872.79	-0.000
872.96	-0.000
873.13	-0.000
873.30	-0.000
873.47	-0.000
873.64	-0.000
873.81	-0.000
873.98	-0.000
874.15	-0.000
874.32	-0.000
874.49	-0.000
874.66	-0.000
874.83	-0.000
875.00	-0.000
875.17	-0.000
875.34	-0.000
875.51	-0.000
875.68	-0.000
875.85	-0.000
876.02	-0.000
876.19	-0.000
876.36	-0.000
876.53	-0.000
876.70	-0.000
876.87	-0.000
877.04	-0.000
877.21	-0.000
877.38	-0.000
877.55	-0.000
877.72	-0.000
877.89	-0.000
878.06	-0.000
878.23	-0.000
878.39	-0.000
878.56	-0.000
878.73	-0.000
878.90	-0.000
879.07	-0.000
879.24	-0.000
879.41	-0.000
879.58	-0.000
879.75	-0.000
879.92	-0.000
880.09	-0.000
880.26	-0.000
880.43	-0.000
880.60	-0.000
880.77	-0.000
880.94	-0.000
881.11	-0.000
881.27	-0.000
881.44	-0.000
881.61	-0.000
881.78	-0.000
881.95	-0.000
882.12	-0.000
882.29	-0.000
882.46	-0.000
882.63	-0.000
882.80	-0.000
882.97	-0.000
883.14	-0.000
883.30	-0.000
883.47	-0.000
883.64	-0.000
883.81	-0.000
883.98	-0.000
884.15	-0.000
884.32	-0.000
884.49	-0.000
884.66	-0.000
884.82	-0.000
884.99	-0.000
885.16	-0.000
885.33	-0.000
885.50	-0.000
885.67	-0.000
885.84	-0.000
886.01	-0.000
886.17	-0.000
886.34	-0.000
886.51	-0.000
886.68	-0.000
886.85	-0.000
887.02	-0.000
887.19	-0.000
887.36	-0.000
887.52	-0.000
887.69	-0.000
887.86	-0.000
888.03	-0.000
888.20	-0.000
888.37	-0.000
888.54	-0.000
888.70	-0.000
888.87	-0.000
889.04	-0.000
889.21	-0.000
889.38	-0.000
889.55	-0.000
889.71	-0.000
889.88	-0.000
890.05	-0.000
890.22	-0.000
890.39	-0.000
>>>>>End Processed Spectral Data<<<<<
