SpectraSuite Data File
++++++++++++++++++++++++++++++++++++
Date: Fri Jun 19 15:09:50 CEST 2015
User: introlabs
Dark Spectrum Present: Yes
Reference Spectrum Present: Yes
Number of Sampled Component Spectra: 1
Spectrometers: USB4H08886
Integration Time (usec): 745692 (USB4H08886)
Spectra Averaged: 5 (USB4H08886)
Boxcar Smoothing: 5 (USB4H08886)
Correct for Electrical Dark: Yes (USB4H08886)
Strobe/Lamp Enabled: No (USB4H08886)
Correct for Detector Non-linearity: Yes (USB4H08886)
Correct for Stray Light: Yes (USB4H08886)
Number of Pixels in Processed Spectrum: 3648
>>>>>Begin Processed Spectral Data<<<<<
178.14	-0.000
178.36	-0.000
178.57	-0.000
178.79	-0.000
179.01	-0.000
179.22	-0.000
179.44	-0.000
179.65	-0.000
179.87	-0.000
180.08	-0.000
180.30	-0.000
180.52	-0.000
180.73	-0.000
180.95	-0.000
181.16	-0.000
181.38	-0.000
181.59	-0.000
181.81	-0.000
182.03	-0.000
182.24	-0.000
182.46	-0.000
182.67	-0.000
182.89	-0.000
183.10	-0.000
183.32	-0.000
183.54	-0.000
183.75	-0.000
183.97	-0.000
184.18	-0.000
184.40	-0.000
184.61	-0.000
184.83	-0.000
185.04	-0.000
185.26	-0.000
185.48	-0.000
185.69	-0.000
185.91	-0.000
186.12	-0.000
186.34	-0.000
186.55	-0.000
186.77	-0.000
186.98	-0.000
187.20	-0.000
187.42	-0.000
187.63	-0.000
187.85	-0.000
188.06	-0.000
188.28	-0.000
188.49	-0.000
188.71	-0.000
188.92	-0.000
189.14	-0.000
189.36	-0.000
189.57	-0.000
189.79	-0.000
190.00	-0.000
190.22	-0.000
190.43	-0.000
190.65	-0.000
190.86	-0.000
191.08	-0.000
191.29	-0.000
191.51	-0.000
191.72	-0.000
191.94	-0.000
192.16	-0.000
192.37	-0.000
192.59	-0.000
192.80	-0.000
193.02	-0.000
193.23	-0.000
193.45	-0.000
193.66	-0.000
193.88	-0.000
194.09	-0.000
194.31	-0.000
194.52	-0.000
194.74	-0.000
194.95	-0.000
195.17	-0.000
195.38	-0.000
195.60	-0.000
195.81	-0.000
196.03	-0.000
196.25	-0.000
196.46	-0.000
196.68	-0.000
196.89	-0.000
197.11	-0.000
197.32	-0.000
197.54	-0.000
197.75	-0.000
197.97	-0.000
198.18	-0.000
198.40	-0.000
198.61	-0.000
198.83	-0.000
199.04	-0.000
199.26	-0.000
199.47	-0.000
199.69	-0.000
199.90	-0.000
200.12	-0.000
200.33	-0.000
200.55	-0.000
200.76	-0.000
200.98	-0.000
201.19	-0.000
201.41	-0.000
201.62	-0.000
201.84	-0.000
202.05	-0.000
202.27	-0.000
202.48	-0.000
202.70	-0.000
202.91	-0.000
203.13	-0.000
203.34	-0.000
203.56	-0.000
203.77	-0.000
203.99	-0.000
204.20	-0.000
204.42	-0.000
204.63	-0.000
204.85	-0.000
205.06	-0.000
205.28	-0.000
205.49	-0.000
205.71	-0.000
205.92	-0.000
206.14	-0.000
206.35	-0.000
206.56	-0.000
206.78	-0.000
206.99	-0.000
207.21	-0.000
207.42	-0.000
207.64	-0.000
207.85	-0.000
208.07	-0.000
208.28	-0.000
208.50	-0.000
208.71	-0.000
208.93	-0.000
209.14	-0.000
209.36	-0.000
209.57	-0.000
209.79	-0.000
210.00	-0.000
210.22	-0.000
210.43	-0.000
210.64	-0.000
210.86	-0.000
211.07	-0.000
211.29	-0.000
211.50	-0.000
211.72	-0.000
211.93	-0.000
212.15	-0.000
212.36	-0.000
212.58	-0.000
212.79	-0.000
213.01	-0.000
213.22	-0.000
213.43	-0.000
213.65	-0.000
213.86	-0.000
214.08	-0.000
214.29	-0.000
214.51	-0.000
214.72	-0.000
214.94	-0.000
215.15	-0.000
215.36	-0.000
215.58	-0.000
215.79	-0.000
216.01	-0.000
216.22	-0.000
216.44	-0.000
216.65	-0.000
216.87	-0.000
217.08	-0.000
217.29	-0.000
217.51	-0.000
217.72	-0.000
217.94	-0.000
218.15	-0.000
218.37	-0.000
218.58	-0.000
218.80	-0.000
219.01	-0.000
219.22	-0.000
219.44	-0.000
219.65	-0.000
219.87	-0.000
220.08	-0.000
220.30	-0.000
220.51	-0.000
220.72	-0.000
220.94	-0.000
221.15	-0.000
221.37	-0.000
221.58	-0.000
221.79	-0.000
222.01	-0.000
222.22	-0.000
222.44	-0.000
222.65	-0.000
222.87	-0.000
223.08	-0.000
223.29	-0.000
223.51	-0.000
223.72	-0.000
223.94	-0.000
224.15	-0.000
224.36	-0.000
224.58	-0.000
224.79	-0.000
225.01	-0.000
225.22	-0.000
225.44	-0.000
225.65	-0.000
225.86	-0.000
226.08	-0.000
226.29	-0.000
226.51	-0.000
226.72	-0.000
226.93	-0.000
227.15	-0.000
227.36	-0.000
227.58	-0.000
227.79	-0.000
228.00	-0.000
228.22	-0.000
228.43	-0.000
228.65	-0.000
228.86	-0.000
229.07	-0.000
229.29	-0.000
229.50	-0.000
229.72	-0.000
229.93	-0.000
230.14	-0.000
230.36	-0.000
230.57	-0.000
230.78	-0.000
231.00	-0.000
231.21	-0.000
231.43	-0.000
231.64	-0.000
231.85	-0.000
232.07	-0.000
232.28	-0.000
232.50	-0.000
232.71	-0.000
232.92	-0.000
233.14	-0.000
233.35	-0.000
233.56	-0.000
233.78	-0.000
233.99	-0.000
234.21	-0.000
234.42	-0.000
234.63	-0.000
234.85	-0.000
235.06	-0.000
235.27	-0.000
235.49	-0.000
235.70	-0.000
235.91	-0.000
236.13	-0.000
236.34	-0.000
236.56	-0.000
236.77	-0.000
236.98	-0.000
237.20	-0.000
237.41	-0.000
237.62	-0.000
237.84	-0.000
238.05	-0.000
238.26	-0.000
238.48	-0.000
238.69	-0.000
238.91	-0.000
239.12	-0.000
239.33	-0.000
239.55	-0.000
239.76	-0.000
239.97	-0.000
240.19	-0.000
240.40	-0.000
240.61	-0.000
240.83	-0.000
241.04	-0.000
241.25	-0.000
241.47	-0.000
241.68	-0.000
241.89	-0.000
242.11	-0.000
242.32	-0.000
242.53	-0.000
242.75	-0.000
242.96	-0.000
243.17	-0.000
243.39	-0.000
243.60	-0.000
243.81	-0.000
244.03	-0.000
244.24	-0.000
244.45	-0.000
244.67	-0.000
244.88	-0.000
245.09	-0.000
245.31	-0.000
245.52	-0.000
245.73	-0.000
245.95	-0.000
246.16	-0.000
246.37	-0.000
246.59	-0.000
246.80	-0.000
247.01	-0.000
247.23	-0.000
247.44	-0.000
247.65	-0.000
247.87	-0.000
248.08	-0.000
248.29	-0.000
248.51	-0.000
248.72	-0.000
248.93	-0.000
249.15	-0.000
249.36	-0.000
249.57	-0.000
249.78	-0.000
250.00	-0.000
250.21	-0.000
250.42	-0.000
250.64	-0.000
250.85	-0.000
251.06	-0.000
251.28	-0.000
251.49	-0.000
251.70	-0.000
251.92	-0.000
252.13	-0.000
252.34	-0.000
252.55	-0.000
252.77	-0.000
252.98	-0.000
253.19	-0.000
253.41	-0.000
253.62	-0.000
253.83	-0.000
254.05	-0.000
254.26	-0.000
254.47	-0.000
254.68	-0.000
254.90	-0.000
255.11	-0.000
255.32	-0.000
255.54	-0.000
255.75	-0.000
255.96	-0.000
256.17	-0.000
256.39	-0.000
256.60	-0.000
256.81	-0.000
257.03	-0.000
257.24	-0.000
257.45	-0.000
257.66	-0.000
257.88	-0.000
258.09	-0.000
258.30	-0.000
258.51	-0.000
258.73	-0.000
258.94	-0.000
259.15	-0.000
259.37	-0.000
259.58	-0.000
259.79	-0.000
260.00	-0.000
260.22	-0.000
260.43	-0.000
260.64	-0.000
260.85	-0.000
261.07	-0.000
261.28	-0.000
261.49	-0.000
261.71	-0.000
261.92	-0.000
262.13	-0.000
262.34	-0.000
262.56	-0.000
262.77	-0.000
262.98	-0.000
263.19	-0.000
263.41	-0.000
263.62	-0.000
263.83	-0.000
264.04	-0.000
264.26	-0.000
264.47	-0.000
264.68	-0.000
264.89	-0.000
265.11	-0.000
265.32	-0.000
265.53	-0.000
265.74	-0.000
265.96	-0.000
266.17	-0.000
266.38	-0.000
266.59	-0.000
266.81	-0.000
267.02	-0.000
267.23	-0.000
267.44	-0.000
267.65	-0.000
267.87	-0.000
268.08	-0.000
268.29	-0.000
268.50	-0.000
268.72	-0.000
268.93	-0.000
269.14	-0.000
269.35	-0.000
269.57	-0.000
269.78	-0.000
269.99	-0.000
270.20	-0.000
270.41	-0.000
270.63	-0.000
270.84	-0.000
271.05	-0.000
271.26	-0.000
271.48	-0.000
271.69	-0.000
271.90	-0.000
272.11	-0.000
272.32	-0.000
272.54	-0.000
272.75	-0.000
272.96	-0.000
273.17	-0.000
273.39	-0.000
273.60	-0.000
273.81	-0.000
274.02	-0.000
274.23	-0.000
274.45	-0.000
274.66	-0.000
274.87	-0.000
275.08	-0.000
275.29	-0.000
275.51	-0.000
275.72	-0.000
275.93	-0.000
276.14	-0.000
276.35	-0.000
276.57	-0.000
276.78	-0.000
276.99	-0.000
277.20	-0.000
277.41	-0.000
277.63	-0.000
277.84	-0.000
278.05	-0.000
278.26	-0.000
278.47	-0.000
278.69	-0.000
278.90	-0.000
279.11	-0.000
279.32	-0.000
279.53	-0.000
279.74	-0.000
279.96	-0.000
280.17	-0.000
280.38	-0.000
280.59	-0.000
280.80	-0.000
281.02	-0.000
281.23	-0.000
281.44	-0.000
281.65	-0.000
281.86	-0.000
282.07	-0.000
282.29	-0.000
282.50	-0.000
282.71	-0.000
282.92	-0.000
283.13	-0.000
283.35	-0.000
283.56	-0.000
283.77	-0.000
283.98	-0.000
284.19	-0.000
284.40	-0.000
284.62	-0.000
284.83	-0.000
285.04	-0.000
285.25	-0.000
285.46	-0.000
285.67	-0.000
285.88	-0.000
286.10	-0.000
286.31	-0.000
286.52	-0.000
286.73	-0.000
286.94	-0.000
287.15	-0.000
287.37	-0.000
287.58	-0.000
287.79	-0.000
288.00	-0.000
288.21	-0.000
288.42	-0.000
288.63	-0.000
288.85	-0.000
289.06	-0.000
289.27	-0.000
289.48	-0.000
289.69	-0.000
289.90	-0.000
290.11	-0.000
290.33	-0.000
290.54	-0.000
290.75	-0.000
290.96	-0.000
291.17	-0.000
291.38	-0.000
291.59	-0.000
291.81	-0.000
292.02	-0.000
292.23	-0.000
292.44	-0.000
292.65	-0.000
292.86	-0.000
293.07	-0.000
293.28	-0.000
293.50	-0.000
293.71	-0.000
293.92	-0.000
294.13	-0.000
294.34	-0.000
294.55	-0.000
294.76	-0.000
294.97	-0.000
295.19	-0.000
295.40	-0.000
295.61	-0.000
295.82	-0.000
296.03	-0.000
296.24	-0.000
296.45	2.174
296.66	1.795
296.87	1.808
297.09	1.875
297.30	2.064
297.51	1.730
297.72	1.696
297.93	1.769
298.14	1.725
298.35	1.679
298.56	1.645
298.77	1.758
298.99	1.743
299.20	1.731
299.41	1.707
299.62	1.655
299.83	1.641
300.04	1.578
300.25	1.572
300.46	1.617
300.67	1.595
300.88	1.551
301.10	1.544
301.31	1.612
301.52	1.547
301.73	1.495
301.94	1.496
302.15	1.507
302.36	1.464
302.57	1.406
302.78	1.408
302.99	1.448
303.20	1.467
303.41	1.388
303.63	1.369
303.84	1.377
304.05	1.372
304.26	1.321
304.47	1.328
304.68	1.333
304.89	1.325
305.10	1.290
305.31	1.276
305.52	1.318
305.73	1.308
305.94	1.271
306.15	1.263
306.37	1.286
306.58	1.294
306.79	1.265
307.00	1.284
307.21	1.322
307.42	1.316
307.63	1.281
307.84	1.249
308.05	1.285
308.26	1.284
308.47	1.265
308.68	1.258
308.89	1.254
309.10	1.251
309.31	1.213
309.52	1.203
309.73	1.215
309.95	1.211
310.16	1.182
310.37	1.171
310.58	1.186
310.79	1.184
311.00	1.183
311.21	1.188
311.42	1.188
311.63	1.183
311.84	1.166
312.05	1.165
312.26	1.185
312.47	1.198
312.68	1.177
312.89	1.162
313.10	1.167
313.31	1.139
313.52	1.140
313.73	1.143
313.94	1.146
314.15	1.128
314.36	1.108
314.57	1.102
314.78	1.089
314.99	1.083
315.21	1.072
315.42	1.079
315.63	1.090
315.84	1.068
316.05	1.056
316.26	1.062
316.47	1.080
316.68	1.078
316.89	1.058
317.10	1.079
317.31	1.086
317.52	1.087
317.73	1.065
317.94	1.066
318.15	1.106
318.36	1.106
318.57	1.091
318.78	1.079
318.99	1.110
319.20	1.109
319.41	1.075
319.62	1.076
319.83	1.089
320.04	1.084
320.25	1.068
320.46	1.036
320.67	1.036
320.88	1.031
321.09	1.019
321.30	1.006
321.51	1.020
321.72	1.019
321.93	1.003
322.14	0.994
322.35	1.019
322.56	1.023
322.77	1.011
322.98	1.024
323.19	1.031
323.40	1.038
323.61	1.019
323.82	1.014
324.03	1.018
324.24	1.015
324.45	1.004
324.66	0.986
324.87	0.982
325.08	0.983
325.29	0.964
325.50	0.958
325.71	0.961
325.92	0.968
326.13	0.954
326.34	0.954
326.55	0.962
326.76	0.962
326.97	0.952
327.18	0.946
327.39	0.969
327.60	0.970
327.80	0.970
328.01	0.968
328.22	0.968
328.43	0.971
328.64	0.960
328.85	0.964
329.06	0.965
329.27	0.964
329.48	0.961
329.69	0.943
329.90	0.951
330.11	0.945
330.32	0.940
330.53	0.932
330.74	0.932
330.95	0.930
331.16	0.916
331.37	0.925
331.58	0.925
331.79	0.925
332.00	0.918
332.21	0.910
332.42	0.914
332.63	0.905
332.83	0.901
333.04	0.904
333.25	0.916
333.46	0.915
333.67	0.901
333.88	0.903
334.09	0.912
334.30	0.909
334.51	0.903
334.72	0.898
334.93	0.901
335.14	0.901
335.35	0.894
335.56	0.889
335.77	0.896
335.98	0.895
336.18	0.889
336.39	0.881
336.60	0.885
336.81	0.883
337.02	0.882
337.23	0.887
337.44	0.889
337.65	0.890
337.86	0.881
338.07	0.875
338.28	0.879
338.49	0.877
338.70	0.870
338.91	0.876
339.11	0.882
339.32	0.878
339.53	0.867
339.74	0.865
339.95	0.861
340.16	0.860
340.37	0.853
340.58	0.852
340.79	0.855
341.00	0.854
341.21	0.844
341.41	0.845
341.62	0.846
341.83	0.847
342.04	0.842
342.25	0.852
342.46	0.855
342.67	0.855
342.88	0.849
343.09	0.848
343.30	0.856
343.50	0.860
343.71	0.850
343.92	0.848
344.13	0.853
344.34	0.853
344.55	0.837
344.76	0.836
344.97	0.841
345.18	0.839
345.38	0.836
345.59	0.831
345.80	0.830
346.01	0.827
346.22	0.824
346.43	0.817
346.64	0.825
346.85	0.825
347.06	0.819
347.26	0.818
347.47	0.822
347.68	0.818
347.89	0.814
348.10	0.808
348.31	0.814
348.52	0.814
348.73	0.811
348.93	0.807
349.14	0.809
349.35	0.808
349.56	0.803
349.77	0.799
349.98	0.805
350.19	0.802
350.39	0.798
350.60	0.795
350.81	0.809
351.02	0.808
351.23	0.804
351.44	0.807
351.65	0.810
351.86	0.807
352.06	0.805
352.27	0.805
352.48	0.806
352.69	0.807
352.90	0.801
353.11	0.787
353.31	0.795
353.52	0.792
353.73	0.783
353.94	0.784
354.15	0.789
354.36	0.789
354.57	0.781
354.77	0.783
354.98	0.782
355.19	0.781
355.40	0.782
355.61	0.786
355.82	0.789
356.02	0.789
356.23	0.782
356.44	0.784
356.65	0.787
356.86	0.788
357.07	0.782
357.27	0.784
357.48	0.786
357.69	0.782
357.90	0.767
358.11	0.764
358.32	0.767
358.52	0.770
358.73	0.761
358.94	0.763
359.15	0.767
359.36	0.767
359.56	0.763
359.77	0.761
359.98	0.767
360.19	0.768
360.40	0.765
360.61	0.765
360.81	0.764
361.02	0.764
361.23	0.757
361.44	0.755
361.65	0.755
361.85	0.755
362.06	0.753
362.27	0.754
362.48	0.754
362.69	0.756
362.89	0.751
363.10	0.752
363.31	0.757
363.52	0.760
363.73	0.756
363.93	0.756
364.14	0.757
364.35	0.759
364.56	0.750
364.77	0.750
364.97	0.752
365.18	0.752
365.39	0.747
365.60	0.744
365.81	0.744
366.01	0.744
366.22	0.742
366.43	0.742
366.64	0.743
366.84	0.748
367.05	0.747
367.26	0.746
367.47	0.748
367.68	0.747
367.88	0.745
368.09	0.742
368.30	0.744
368.51	0.743
368.71	0.743
368.92	0.749
369.13	0.746
369.34	0.745
369.55	0.744
369.75	0.745
369.96	0.751
370.17	0.750
370.38	0.748
370.58	0.747
370.79	0.752
371.00	0.750
371.21	0.741
371.41	0.747
371.62	0.751
371.83	0.747
372.04	0.744
372.24	0.737
372.45	0.738
372.66	0.738
372.87	0.736
373.07	0.733
373.28	0.733
373.49	0.737
373.70	0.728
373.90	0.727
374.11	0.736
374.32	0.736
374.53	0.735
374.73	0.736
374.94	0.739
375.15	0.738
375.36	0.735
375.56	0.745
375.77	0.745
375.98	0.745
376.19	0.742
376.39	0.735
376.60	0.738
376.81	0.739
377.02	0.736
377.22	0.735
377.43	0.735
377.64	0.736
377.84	0.726
378.05	0.730
378.26	0.736
378.47	0.736
378.67	0.733
378.88	0.731
379.09	0.731
379.30	0.732
379.50	0.730
379.71	0.732
379.92	0.733
380.12	0.733
380.33	0.725
380.54	0.722
380.75	0.729
380.95	0.730
381.16	0.727
381.37	0.727
381.57	0.729
381.78	0.728
381.99	0.728
382.20	0.728
382.40	0.731
382.61	0.732
382.82	0.728
383.02	0.721
383.23	0.724
383.44	0.724
383.64	0.722
383.85	0.725
384.06	0.728
384.27	0.726
384.47	0.724
384.68	0.725
384.89	0.730
385.09	0.730
385.30	0.729
385.51	0.729
385.71	0.733
385.92	0.734
386.13	0.732
386.33	0.734
386.54	0.735
386.75	0.733
386.95	0.729
387.16	0.725
387.37	0.726
387.58	0.726
387.78	0.725
387.99	0.722
388.20	0.723
388.40	0.720
388.61	0.716
388.82	0.720
389.02	0.721
389.23	0.722
389.44	0.720
389.64	0.721
389.85	0.732
390.06	0.732
390.26	0.733
390.47	0.732
390.68	0.735
390.88	0.733
391.09	0.729
391.30	0.729
391.50	0.728
391.71	0.729
391.92	0.727
392.12	0.718
392.33	0.719
392.53	0.719
392.74	0.719
392.95	0.718
393.15	0.721
393.36	0.723
393.57	0.721
393.77	0.725
393.98	0.727
394.19	0.727
394.39	0.727
394.60	0.728
394.81	0.730
395.01	0.729
395.22	0.727
395.43	0.728
395.63	0.732
395.84	0.733
396.04	0.729
396.25	0.731
396.46	0.732
396.66	0.729
396.87	0.727
397.08	0.725
397.28	0.727
397.49	0.728
397.69	0.724
397.90	0.720
398.11	0.721
398.31	0.722
398.52	0.719
398.73	0.721
398.93	0.721
399.14	0.720
399.34	0.719
399.55	0.719
399.76	0.719
399.96	0.721
400.17	0.719
400.37	0.717
400.58	0.723
400.79	0.725
400.99	0.722
401.20	0.727
401.41	0.730
401.61	0.730
401.82	0.736
402.02	0.736
402.23	0.737
402.44	0.736
402.64	0.737
402.85	0.731
403.05	0.730
403.26	0.729
403.47	0.723
403.67	0.722
403.88	0.723
404.08	0.716
404.29	0.714
404.50	0.714
404.70	0.715
404.91	0.714
405.11	0.712
405.32	0.712
405.52	0.712
405.73	0.712
405.94	0.710
406.14	0.713
406.35	0.715
406.55	0.715
406.76	0.713
406.97	0.714
407.17	0.717
407.38	0.716
407.58	0.715
407.79	0.718
407.99	0.720
408.20	0.721
408.41	0.717
408.61	0.715
408.82	0.716
409.02	0.716
409.23	0.714
409.43	0.713
409.64	0.714
409.84	0.714
410.05	0.710
410.26	0.709
410.46	0.708
410.67	0.707
410.87	0.709
411.08	0.711
411.28	0.712
411.49	0.713
411.69	0.711
411.90	0.712
412.11	0.714
412.31	0.715
412.52	0.713
412.72	0.715
412.93	0.715
413.13	0.714
413.34	0.710
413.54	0.712
413.75	0.713
413.95	0.713
414.16	0.710
414.37	0.713
414.57	0.713
414.78	0.715
414.98	0.713
415.19	0.714
415.39	0.712
415.60	0.714
415.80	0.713
416.01	0.711
416.21	0.713
416.42	0.713
416.62	0.708
416.83	0.708
417.03	0.707
417.24	0.708
417.44	0.706
417.65	0.705
417.86	0.705
418.06	0.703
418.27	0.702
418.47	0.703
418.68	0.704
418.88	0.704
419.09	0.703
419.29	0.703
419.50	0.704
419.70	0.704
419.91	0.703
420.11	0.700
420.32	0.703
420.52	0.703
420.73	0.702
420.93	0.702
421.14	0.704
421.34	0.703
421.55	0.699
421.75	0.699
421.96	0.700
422.16	0.700
422.37	0.698
422.57	0.695
422.78	0.697
422.98	0.694
423.19	0.692
423.39	0.690
423.60	0.694
423.80	0.695
424.01	0.694
424.21	0.695
424.42	0.696
424.62	0.696
424.83	0.696
425.03	0.696
425.23	0.698
425.44	0.698
425.64	0.698
425.85	0.696
426.05	0.697
426.26	0.698
426.46	0.694
426.67	0.694
426.87	0.699
427.08	0.698
427.28	0.696
427.49	0.697
427.69	0.698
427.90	0.696
428.10	0.694
428.31	0.694
428.51	0.695
428.71	0.695
428.92	0.696
429.12	0.693
429.33	0.694
429.53	0.698
429.74	0.703
429.94	0.703
430.15	0.702
430.35	0.702
430.56	0.699
430.76	0.698
430.96	0.699
431.17	0.695
431.37	0.692
431.58	0.691
431.78	0.687
431.99	0.680
432.19	0.682
432.40	0.683
432.60	0.684
432.80	0.686
433.01	0.685
433.21	0.685
433.42	0.687
433.62	0.688
433.83	0.687
434.03	0.689
434.23	0.693
434.44	0.692
434.64	0.689
434.85	0.695
435.05	0.696
435.26	0.696
435.46	0.694
435.66	0.694
435.87	0.694
436.07	0.694
436.28	0.690
436.48	0.687
436.69	0.686
436.89	0.686
437.09	0.680
437.30	0.678
437.50	0.678
437.71	0.690
437.91	0.690
438.11	0.690
438.32	0.695
438.52	0.695
438.73	0.694
438.93	0.693
439.13	0.693
439.34	0.696
439.54	0.694
439.75	0.694
439.95	0.683
440.15	0.688
440.36	0.686
440.56	0.683
440.77	0.684
440.97	0.683
441.17	0.683
441.38	0.684
441.58	0.681
441.79	0.681
441.99	0.679
442.19	0.678
442.40	0.675
442.60	0.674
442.81	0.672
443.01	0.673
443.21	0.674
443.42	0.673
443.62	0.671
443.82	0.671
444.03	0.672
444.23	0.672
444.44	0.673
444.64	0.673
444.84	0.674
445.05	0.674
445.25	0.672
445.45	0.672
445.66	0.675
445.86	0.674
446.06	0.675
446.27	0.674
446.47	0.678
446.68	0.675
446.88	0.674
447.08	0.674
447.29	0.675
447.49	0.675
447.69	0.674
447.90	0.672
448.10	0.676
448.30	0.673
448.51	0.675
448.71	0.672
448.91	0.674
449.12	0.672
449.32	0.673
449.52	0.673
449.73	0.676
449.93	0.675
450.14	0.676
450.34	0.674
450.54	0.677
450.75	0.674
450.95	0.673
451.15	0.673
451.36	0.675
451.56	0.672
451.76	0.671
451.97	0.668
452.17	0.669
452.37	0.668
452.58	0.664
452.78	0.664
452.98	0.666
453.19	0.665
453.39	0.666
453.59	0.665
453.79	0.666
454.00	0.666
454.20	0.664
454.40	0.665
454.61	0.667
454.81	0.668
455.01	0.666
455.22	0.667
455.42	0.669
455.62	0.667
455.83	0.667
456.03	0.670
456.23	0.671
456.44	0.672
456.64	0.671
456.84	0.671
457.04	0.671
457.25	0.670
457.45	0.667
457.65	0.666
457.86	0.667
458.06	0.665
458.26	0.661
458.47	0.660
458.67	0.661
458.87	0.661
459.07	0.659
459.28	0.660
459.48	0.663
459.68	0.663
459.89	0.662
460.09	0.660
460.29	0.661
460.49	0.662
460.70	0.662
460.90	0.661
461.10	0.662
461.31	0.661
461.51	0.659
461.71	0.661
461.91	0.662
462.12	0.663
462.32	0.662
462.52	0.663
462.72	0.666
462.93	0.667
463.13	0.666
463.33	0.667
463.53	0.668
463.74	0.667
463.94	0.663
464.14	0.663
464.35	0.664
464.55	0.664
464.75	0.662
464.95	0.659
465.16	0.660
465.36	0.659
465.56	0.658
465.76	0.657
465.97	0.657
466.17	0.658
466.37	0.656
466.57	0.657
466.78	0.657
466.98	0.658
467.18	0.656
467.38	0.654
467.59	0.655
467.79	0.657
467.99	0.656
468.19	0.657
468.39	0.660
468.60	0.660
468.80	0.659
469.00	0.660
469.20	0.661
469.41	0.661
469.61	0.661
469.81	0.661
470.01	0.661
470.22	0.661
470.42	0.659
470.62	0.657
470.82	0.659
471.02	0.658
471.23	0.656
471.43	0.656
471.63	0.659
471.83	0.658
472.04	0.657
472.24	0.656
472.44	0.661
472.64	0.661
472.84	0.659
473.05	0.658
473.25	0.661
473.45	0.661
473.65	0.660
473.85	0.660
474.06	0.661
474.26	0.661
474.46	0.662
474.66	0.658
474.86	0.659
475.07	0.659
475.27	0.657
475.47	0.654
475.67	0.654
475.87	0.656
476.08	0.652
476.28	0.653
476.48	0.654
476.68	0.653
476.88	0.651
477.09	0.652
477.29	0.654
477.49	0.654
477.69	0.653
477.89	0.654
478.09	0.653
478.30	0.656
478.50	0.653
478.70	0.652
478.90	0.653
479.10	0.656
479.31	0.657
479.51	0.655
479.71	0.656
479.91	0.656
480.11	0.655
480.31	0.656
480.52	0.655
480.72	0.655
480.92	0.654
481.12	0.653
481.32	0.650
481.52	0.648
481.72	0.648
481.93	0.651
482.13	0.651
482.33	0.651
482.53	0.648
482.73	0.649
482.93	0.650
483.14	0.650
483.34	0.649
483.54	0.650
483.74	0.649
483.94	0.648
484.14	0.644
484.34	0.645
484.55	0.645
484.75	0.645
484.95	0.643
485.15	0.643
485.35	0.643
485.55	0.643
485.75	0.641
485.96	0.642
486.16	0.643
486.36	0.642
486.56	0.641
486.76	0.641
486.96	0.641
487.16	0.640
487.36	0.638
487.57	0.638
487.77	0.639
487.97	0.639
488.17	0.637
488.37	0.636
488.57	0.636
488.77	0.636
488.97	0.634
489.18	0.634
489.38	0.636
489.58	0.637
489.78	0.637
489.98	0.636
490.18	0.636
490.38	0.637
490.58	0.635
490.78	0.636
490.98	0.638
491.19	0.639
491.39	0.638
491.59	0.637
491.79	0.639
491.99	0.640
492.19	0.639
492.39	0.642
492.59	0.642
492.79	0.645
492.99	0.645
493.20	0.644
493.40	0.644
493.60	0.646
493.80	0.644
494.00	0.642
494.20	0.643
494.40	0.643
494.60	0.640
494.80	0.644
495.00	0.644
495.20	0.642
495.40	0.641
495.61	0.642
495.81	0.642
496.01	0.645
496.21	0.646
496.41	0.645
496.61	0.646
496.81	0.645
497.01	0.640
497.21	0.639
497.41	0.640
497.61	0.640
497.81	0.638
498.01	0.638
498.21	0.637
498.41	0.635
498.61	0.634
498.82	0.635
499.02	0.637
499.22	0.638
499.42	0.637
499.62	0.638
499.82	0.638
500.02	0.639
500.22	0.638
500.42	0.639
500.62	0.641
500.82	0.641
501.02	0.639
501.22	0.640
501.42	0.639
501.62	0.641
501.82	0.641
502.02	0.641
502.22	0.640
502.42	0.642
502.62	0.639
502.82	0.639
503.02	0.640
503.22	0.639
503.42	0.637
503.63	0.637
503.83	0.635
504.03	0.634
504.23	0.633
504.43	0.633
504.63	0.634
504.83	0.634
505.03	0.633
505.23	0.635
505.43	0.637
505.63	0.638
505.83	0.638
506.03	0.639
506.23	0.641
506.43	0.642
506.63	0.641
506.83	0.639
507.03	0.641
507.23	0.641
507.43	0.639
507.63	0.639
507.83	0.639
508.03	0.639
508.23	0.639
508.43	0.637
508.63	0.638
508.83	0.639
509.03	0.640
509.23	0.640
509.43	0.641
509.63	0.641
509.83	0.640
510.03	0.643
510.23	0.644
510.43	0.645
510.63	0.646
510.83	0.646
511.03	0.647
511.23	0.645
511.43	0.644
511.63	0.645
511.83	0.647
512.03	0.647
512.22	0.645
512.42	0.644
512.62	0.645
512.82	0.644
513.02	0.643
513.22	0.643
513.42	0.645
513.62	0.647
513.82	0.645
514.02	0.645
514.22	0.645
514.42	0.646
514.62	0.645
514.82	0.645
515.02	0.647
515.22	0.651
515.42	0.650
515.62	0.653
515.82	0.652
516.02	0.653
516.22	0.653
516.42	0.654
516.62	0.656
516.82	0.657
517.01	0.656
517.21	0.655
517.41	0.658
517.61	0.659
517.81	0.655
518.01	0.654
518.21	0.654
518.41	0.653
518.61	0.652
518.81	0.652
519.01	0.653
519.21	0.652
519.41	0.651
519.61	0.646
519.81	0.648
520.00	0.649
520.20	0.649
520.40	0.652
520.60	0.653
520.80	0.652
521.00	0.653
521.20	0.654
521.40	0.658
521.60	0.659
521.80	0.659
522.00	0.659
522.20	0.661
522.39	0.661
522.59	0.657
522.79	0.659
522.99	0.661
523.19	0.659
523.39	0.657
523.59	0.655
523.79	0.657
523.99	0.658
524.19	0.658
524.38	0.656
524.58	0.657
524.78	0.658
524.98	0.656
525.18	0.658
525.38	0.659
525.58	0.660
525.78	0.659
525.98	0.657
526.18	0.658
526.37	0.657
526.57	0.659
526.77	0.659
526.97	0.659
527.17	0.659
527.37	0.656
527.57	0.658
527.77	0.659
527.96	0.659
528.16	0.658
528.36	0.659
528.56	0.661
528.76	0.658
528.96	0.658
529.16	0.659
529.36	0.663
529.55	0.663
529.75	0.659
529.95	0.659
530.15	0.661
530.35	0.664
530.55	0.661
530.75	0.662
530.94	0.663
531.14	0.663
531.34	0.661
531.54	0.659
531.74	0.662
531.94	0.665
532.13	0.663
532.33	0.664
532.53	0.663
532.73	0.662
532.93	0.661
533.13	0.662
533.33	0.662
533.52	0.663
533.72	0.666
533.92	0.664
534.12	0.662
534.32	0.662
534.52	0.661
534.71	0.662
534.91	0.665
535.11	0.666
535.31	0.665
535.51	0.667
535.71	0.668
535.90	0.665
536.10	0.667
536.30	0.668
536.50	0.669
536.70	0.669
536.89	0.667
537.09	0.667
537.29	0.668
537.49	0.668
537.69	0.667
537.89	0.667
538.08	0.667
538.28	0.665
538.48	0.665
538.68	0.667
538.88	0.669
539.07	0.669
539.27	0.667
539.47	0.666
539.67	0.666
539.87	0.668
540.06	0.666
540.26	0.667
540.46	0.669
540.66	0.667
540.86	0.664
541.05	0.665
541.25	0.665
541.45	0.666
541.65	0.664
541.84	0.665
542.04	0.665
542.24	0.666
542.44	0.665
542.64	0.666
542.83	0.668
543.03	0.669
543.23	0.667
543.43	0.668
543.62	0.669
543.82	0.670
544.02	0.669
544.22	0.669
544.42	0.672
544.61	0.672
544.81	0.670
545.01	0.669
545.21	0.671
545.40	0.672
545.60	0.670
545.80	0.673
546.00	0.674
546.19	0.673
546.39	0.672
546.59	0.670
546.79	0.672
546.98	0.672
547.18	0.671
547.38	0.671
547.58	0.674
547.77	0.674
547.97	0.670
548.17	0.672
548.37	0.672
548.56	0.671
548.76	0.671
548.96	0.672
549.16	0.674
549.35	0.674
549.55	0.672
549.75	0.672
549.95	0.675
550.14	0.676
550.34	0.674
550.54	0.679
550.73	0.683
550.93	0.683
551.13	0.681
551.33	0.679
551.52	0.681
551.72	0.681
551.92	0.680
552.12	0.681
552.31	0.681
552.51	0.681
552.71	0.676
552.90	0.675
553.10	0.676
553.30	0.677
553.50	0.676
553.69	0.677
553.89	0.677
554.09	0.677
554.28	0.674
554.48	0.675
554.68	0.677
554.87	0.677
555.07	0.674
555.27	0.674
555.47	0.675
555.66	0.677
555.86	0.674
556.06	0.677
556.25	0.678
556.45	0.686
556.65	0.684
556.84	0.687
557.04	0.690
557.24	0.692
557.43	0.692
557.63	0.695
557.83	0.696
558.02	0.697
558.22	0.701
558.42	0.702
558.61	0.695
558.81	0.695
559.01	0.692
559.21	0.691
559.40	0.692
559.60	0.692
559.80	0.689
559.99	0.690
560.19	0.692
560.39	0.686
560.58	0.684
560.78	0.684
560.97	0.687
561.17	0.686
561.37	0.683
561.56	0.684
561.76	0.686
561.96	0.685
562.15	0.683
562.35	0.685
562.55	0.686
562.74	0.685
562.94	0.684
563.14	0.682
563.33	0.682
563.53	0.682
563.73	0.680
563.92	0.681
564.12	0.684
564.31	0.686
564.51	0.684
564.71	0.685
564.90	0.689
565.10	0.690
565.30	0.693
565.49	0.694
565.69	0.696
565.89	0.696
566.08	0.694
566.28	0.695
566.47	0.697
566.67	0.696
566.87	0.694
567.06	0.695
567.26	0.701
567.46	0.698
567.65	0.697
567.85	0.699
568.04	0.702
568.24	0.701
568.44	0.699
568.63	0.697
568.83	0.697
569.02	0.696
569.22	0.692
569.42	0.688
569.61	0.690
569.81	0.690
570.00	0.688
570.20	0.689
570.40	0.689
570.59	0.689
570.79	0.687
570.98	0.686
571.18	0.688
571.38	0.687
571.57	0.684
571.77	0.682
571.96	0.685
572.16	0.682
572.35	0.677
572.55	0.679
572.75	0.677
572.94	0.676
573.14	0.674
573.33	0.674
573.53	0.675
573.73	0.674
573.92	0.672
574.12	0.670
574.31	0.673
574.51	0.673
574.70	0.670
574.90	0.672
575.09	0.674
575.29	0.674
575.49	0.672
575.68	0.673
575.88	0.675
576.07	0.676
576.27	0.674
576.46	0.673
576.66	0.672
576.86	0.671
577.05	0.668
577.25	0.667
577.44	0.668
577.64	0.668
577.83	0.666
578.03	0.667
578.22	0.666
578.42	0.665
578.61	0.664
578.81	0.665
579.00	0.665
579.20	0.665
579.40	0.664
579.59	0.663
579.79	0.663
579.98	0.662
580.18	0.661
580.37	0.661
580.57	0.663
580.76	0.667
580.96	0.665
581.15	0.666
581.35	0.668
581.54	0.667
581.74	0.667
581.93	0.669
582.13	0.670
582.32	0.667
582.52	0.666
582.71	0.665
582.91	0.661
583.10	0.661
583.30	0.660
583.49	0.659
583.69	0.662
583.88	0.663
584.08	0.663
584.27	0.665
584.47	0.668
584.66	0.669
584.86	0.668
585.05	0.671
585.25	0.673
585.44	0.673
585.64	0.672
585.83	0.668
586.03	0.668
586.22	0.666
586.42	0.663
586.61	0.665
586.81	0.667
587.00	0.667
587.20	0.664
587.39	0.665
587.59	0.666
587.78	0.667
587.98	0.668
588.17	0.669
588.37	0.671
588.56	0.673
588.76	0.668
588.95	0.669
589.15	0.672
589.34	0.674
589.54	0.673
589.73	0.674
589.92	0.677
590.12	0.677
590.31	0.676
590.51	0.681
590.70	0.683
590.90	0.684
591.09	0.682
591.29	0.680
591.48	0.680
591.68	0.681
591.87	0.680
592.06	0.679
592.26	0.682
592.45	0.680
592.65	0.674
592.84	0.673
593.04	0.675
593.23	0.677
593.43	0.675
593.62	0.674
593.81	0.674
594.01	0.673
594.20	0.671
594.40	0.670
594.59	0.672
594.79	0.673
594.98	0.672
595.17	0.671
595.37	0.672
595.56	0.674
595.76	0.673
595.95	0.675
596.14	0.678
596.34	0.680
596.53	0.679
596.73	0.681
596.92	0.682
597.12	0.685
597.31	0.685
597.50	0.684
597.70	0.687
597.89	0.686
598.09	0.683
598.28	0.684
598.47	0.686
598.67	0.684
598.86	0.680
599.06	0.681
599.25	0.681
599.44	0.679
599.64	0.676
599.83	0.673
600.03	0.676
600.22	0.676
600.41	0.676
600.61	0.673
600.80	0.675
601.00	0.676
601.19	0.672
601.38	0.671
601.58	0.673
601.77	0.674
601.96	0.676
602.16	0.676
602.35	0.685
602.55	0.683
602.74	0.684
602.93	0.686
603.13	0.691
603.32	0.693
603.51	0.693
603.71	0.696
603.90	0.698
604.09	0.698
604.29	0.696
604.48	0.691
604.68	0.692
604.87	0.691
605.06	0.687
605.26	0.684
605.45	0.684
605.64	0.684
605.84	0.679
606.03	0.678
606.22	0.676
606.42	0.675
606.61	0.672
606.80	0.671
607.00	0.672
607.19	0.673
607.38	0.672
607.58	0.673
607.77	0.675
607.96	0.674
608.16	0.673
608.35	0.677
608.54	0.679
608.74	0.682
608.93	0.687
609.12	0.690
609.32	0.692
609.51	0.696
609.70	0.695
609.90	0.698
610.09	0.702
610.28	0.707
610.48	0.702
610.67	0.703
610.86	0.704
611.06	0.699
611.25	0.697
611.44	0.698
611.64	0.698
611.83	0.701
612.02	0.697
612.21	0.696
612.41	0.695
612.60	0.694
612.79	0.691
612.99	0.691
613.18	0.692
613.37	0.690
613.57	0.687
613.76	0.688
613.95	0.685
614.14	0.684
614.34	0.681
614.53	0.682
614.72	0.684
614.92	0.685
615.11	0.682
615.30	0.679
615.49	0.680
615.69	0.682
615.88	0.678
616.07	0.679
616.26	0.681
616.46	0.682
616.65	0.679
616.84	0.678
617.04	0.679
617.23	0.682
617.42	0.682
617.61	0.685
617.81	0.687
618.00	0.689
618.19	0.688
618.38	0.691
618.58	0.695
618.77	0.696
618.96	0.696
619.15	0.698
619.35	0.700
619.54	0.701
619.73	0.698
619.92	0.700
620.12	0.705
620.31	0.705
620.50	0.700
620.69	0.700
620.89	0.704
621.08	0.703
621.27	0.704
621.46	0.702
621.66	0.706
621.85	0.705
622.04	0.701
622.23	0.701
622.43	0.702
622.62	0.702
622.81	0.701
623.00	0.700
623.19	0.704
623.39	0.702
623.58	0.700
623.77	0.698
623.96	0.701
624.16	0.701
624.35	0.696
624.54	0.698
624.73	0.702
624.92	0.699
625.12	0.696
625.31	0.697
625.50	0.700
625.69	0.700
625.88	0.697
626.08	0.697
626.27	0.698
626.46	0.699
626.65	0.697
626.84	0.697
627.04	0.703
627.23	0.703
627.42	0.698
627.61	0.700
627.80	0.703
628.00	0.703
628.19	0.701
628.38	0.705
628.57	0.706
628.76	0.704
628.96	0.701
629.15	0.701
629.34	0.704
629.53	0.704
629.72	0.698
629.91	0.699
630.11	0.703
630.30	0.703
630.49	0.706
630.68	0.706
630.87	0.711
631.06	0.713
631.26	0.708
631.45	0.710
631.64	0.718
631.83	0.721
632.02	0.718
632.21	0.717
632.41	0.724
632.60	0.718
632.79	0.717
632.98	0.717
633.17	0.718
633.36	0.720
633.55	0.717
633.75	0.713
633.94	0.713
634.13	0.714
634.32	0.712
634.51	0.707
634.70	0.710
634.89	0.709
635.09	0.705
635.28	0.704
635.47	0.704
635.66	0.708
635.85	0.704
636.04	0.706
636.23	0.710
636.43	0.711
636.62	0.710
636.81	0.708
637.00	0.711
637.19	0.715
637.38	0.712
637.57	0.711
637.76	0.712
637.95	0.712
638.15	0.709
638.34	0.707
638.53	0.709
638.72	0.712
638.91	0.709
639.10	0.707
639.29	0.707
639.48	0.709
639.67	0.709
639.87	0.709
640.06	0.714
640.25	0.713
640.44	0.714
640.63	0.714
640.82	0.715
641.01	0.716
641.20	0.717
641.39	0.718
641.58	0.720
641.78	0.719
641.97	0.715
642.16	0.728
642.35	0.729
642.54	0.728
642.73	0.724
642.92	0.722
643.11	0.725
643.30	0.724
643.49	0.719
643.68	0.722
643.87	0.723
644.06	0.723
644.25	0.703
644.45	0.706
644.64	0.708
644.83	0.707
645.02	0.705
645.21	0.704
645.40	0.705
645.59	0.705
645.78	0.700
645.97	0.702
646.16	0.703
646.35	0.703
646.54	0.700
646.73	0.702
646.92	0.703
647.11	0.703
647.30	0.699
647.49	0.702
647.68	0.700
647.88	0.699
648.07	0.693
648.26	0.696
648.45	0.698
648.64	0.695
648.83	0.692
649.02	0.695
649.21	0.705
649.40	0.704
649.59	0.699
649.78	0.700
649.97	0.714
650.16	0.714
650.35	0.707
650.54	0.709
650.73	0.716
650.92	0.713
651.11	0.707
651.30	0.704
651.49	0.708
651.68	0.710
651.87	0.706
652.06	0.695
652.25	0.698
652.44	0.702
652.63	0.702
652.82	0.704
653.01	0.705
653.20	0.703
653.39	0.693
653.58	0.691
653.77	0.690
653.96	0.686
654.15	0.679
654.34	0.677
654.53	0.672
654.72	0.665
654.91	0.655
655.10	0.650
655.29	0.648
655.48	0.646
655.67	0.640
655.86	0.638
656.05	0.636
656.24	0.635
656.43	0.630
656.62	0.628
656.81	0.628
657.00	0.624
657.19	0.620
657.38	0.619
657.57	0.618
657.76	0.618
657.95	0.616
658.14	0.619
658.33	0.621
658.51	0.625
658.70	0.626
658.89	0.628
659.08	0.638
659.27	0.646
659.46	0.647
659.65	0.654
659.84	0.659
660.03	0.662
660.22	0.663
660.41	0.666
660.60	0.665
660.79	0.666
660.98	0.672
661.17	0.671
661.36	0.671
661.55	0.672
661.74	0.670
661.92	0.673
662.11	0.675
662.30	0.673
662.49	0.668
662.68	0.668
662.87	0.670
663.06	0.664
663.25	0.665
663.44	0.665
663.63	0.666
663.82	0.664
664.01	0.660
664.20	0.659
664.38	0.660
664.57	0.661
664.76	0.661
664.95	0.661
665.14	0.666
665.33	0.662
665.52	0.669
665.71	0.673
665.90	0.672
666.09	0.673
666.28	0.670
666.46	0.669
666.65	0.670
666.84	0.667
667.03	0.663
667.22	0.661
667.41	0.663
667.60	0.653
667.79	0.646
667.98	0.647
668.16	0.648
668.35	0.647
668.54	0.644
668.73	0.644
668.92	0.646
669.11	0.644
669.30	0.639
669.49	0.635
669.67	0.636
669.86	0.639
670.05	0.637
670.24	0.634
670.43	0.632
670.62	0.631
670.81	0.626
671.00	0.627
671.18	0.627
671.37	0.627
671.56	0.624
671.75	0.624
671.94	0.621
672.13	0.619
672.32	0.614
672.50	0.613
672.69	0.614
672.88	0.613
673.07	0.609
673.26	0.611
673.45	0.611
673.63	0.611
673.82	0.608
674.01	0.609
674.20	0.610
674.39	0.610
674.58	0.610
674.76	0.611
674.95	0.610
675.14	0.610
675.33	0.606
675.52	0.605
675.71	0.605
675.89	0.605
676.08	0.601
676.27	0.601
676.46	0.600
676.65	0.599
676.84	0.599
677.02	0.600
677.21	0.602
677.40	0.601
677.59	0.599
677.78	0.598
677.96	0.600
678.15	0.599
678.34	0.598
678.53	0.598
678.72	0.597
678.90	0.594
679.09	0.590
679.28	0.587
679.47	0.587
679.66	0.586
679.84	0.583
680.03	0.580
680.22	0.579
680.41	0.581
680.60	0.578
680.78	0.577
680.97	0.579
681.16	0.580
681.35	0.579
681.53	0.578
681.72	0.579
681.91	0.581
682.10	0.580
682.29	0.582
682.47	0.579
682.66	0.578
682.85	0.577
683.04	0.575
683.22	0.575
683.41	0.576
683.60	0.576
683.79	0.577
683.97	0.576
684.16	0.574
684.35	0.571
684.54	0.572
684.72	0.573
684.91	0.574
685.10	0.573
685.29	0.574
685.47	0.572
685.66	0.570
685.85	0.567
686.04	0.566
686.22	0.569
686.41	0.572
686.60	0.569
686.79	0.572
686.97	0.573
687.16	0.574
687.35	0.571
687.54	0.574
687.72	0.577
687.91	0.578
688.10	0.579
688.29	0.579
688.47	0.576
688.66	0.575
688.85	0.571
689.03	0.569
689.22	0.573
689.41	0.573
689.60	0.569
689.78	0.567
689.97	0.567
690.16	0.565
690.34	0.561
690.53	0.561
690.72	0.561
690.91	0.559
691.09	0.558
691.28	0.552
691.47	0.550
691.65	0.549
691.84	0.546
692.03	0.545
692.21	0.543
692.40	0.543
692.59	0.540
692.77	0.539
692.96	0.540
693.15	0.540
693.34	0.538
693.52	0.538
693.71	0.538
693.90	0.539
694.08	0.540
694.27	0.541
694.46	0.550
694.64	0.551
694.83	0.551
695.02	0.550
695.20	0.550
695.39	0.550
695.58	0.550
695.76	0.551
695.95	0.550
696.14	0.549
696.32	0.546
696.51	0.538
696.70	0.538
696.88	0.539
697.07	0.537
697.26	0.539
697.44	0.540
697.63	0.539
697.81	0.537
698.00	0.536
698.19	0.535
698.37	0.535
698.56	0.535
698.75	0.535
698.93	0.535
699.12	0.534
699.31	0.533
699.49	0.532
699.68	0.533
699.87	0.536
700.05	0.536
700.24	0.535
700.42	0.536
700.61	0.536
700.80	0.534
700.98	0.534
701.17	0.535
701.36	0.534
701.54	0.533
701.73	0.534
701.91	0.532
702.10	0.531
702.29	0.530
702.47	0.529
702.66	0.531
702.84	0.532
703.03	0.530
703.22	0.532
703.40	0.532
703.59	0.533
703.77	0.533
703.96	0.533
704.15	0.534
704.33	0.534
704.52	0.533
704.70	0.532
704.89	0.532
705.08	0.529
705.26	0.525
705.45	0.525
705.63	0.524
705.82	0.521
706.00	0.520
706.19	0.520
706.38	0.519
706.56	0.519
706.75	0.517
706.93	0.516
707.12	0.517
707.30	0.518
707.49	0.516
707.68	0.514
707.86	0.513
708.05	0.513
708.23	0.510
708.42	0.510
708.60	0.512
708.79	0.512
708.98	0.511
709.16	0.510
709.35	0.512
709.53	0.516
709.72	0.515
709.90	0.517
710.09	0.519
710.27	0.521
710.46	0.525
710.64	0.524
710.83	0.525
711.02	0.527
711.20	0.526
711.39	0.525
711.57	0.523
711.76	0.523
711.94	0.520
712.13	0.522
712.31	0.521
712.50	0.517
712.68	0.514
712.87	0.515
713.05	0.515
713.24	0.515
713.42	0.515
713.61	0.516
713.79	0.517
713.98	0.518
714.16	0.518
714.35	0.518
714.54	0.519
714.72	0.519
714.91	0.517
715.09	0.524
715.28	0.527
715.46	0.527
715.65	0.524
715.83	0.524
716.02	0.526
716.20	0.522
716.39	0.522
716.57	0.523
716.76	0.525
716.94	0.525
717.12	0.517
717.31	0.518
717.49	0.521
717.68	0.522
717.86	0.522
718.05	0.523
718.23	0.524
718.42	0.526
718.60	0.528
718.79	0.535
718.97	0.538
719.16	0.538
719.34	0.535
719.53	0.535
719.71	0.534
719.90	0.537
720.08	0.534
720.27	0.536
720.45	0.536
720.63	0.534
720.82	0.529
721.00	0.531
721.19	0.534
721.37	0.534
721.56	0.534
721.74	0.537
721.93	0.544
722.11	0.550
722.30	0.548
722.48	0.553
722.66	0.554
722.85	0.553
723.03	0.554
723.22	0.552
723.40	0.555
723.59	0.556
723.77	0.560
723.95	0.555
724.14	0.556
724.32	0.558
724.51	0.557
724.69	0.559
724.88	0.560
725.06	0.558
725.24	0.559
725.43	0.560
725.61	0.562
725.80	0.556
725.98	0.554
726.16	0.550
726.35	0.556
726.53	0.555
726.72	0.553
726.90	0.563
727.09	0.563
727.27	0.570
727.45	0.568
727.64	0.576
727.82	0.584
728.01	0.588
728.19	0.586
728.37	0.590
728.56	0.595
728.74	0.601
728.92	0.590
729.11	0.593
729.29	0.589
729.48	0.591
729.66	0.582
729.84	0.581
730.03	0.585
730.21	0.587
730.40	0.579
730.58	0.580
730.76	0.578
730.95	0.581
731.13	0.580
731.31	0.594
731.50	0.601
731.68	0.604
731.86	0.602
732.05	0.615
732.23	0.618
732.42	0.621
732.60	0.624
732.78	0.629
732.97	0.647
733.15	0.655
733.33	0.643
733.52	0.652
733.70	0.660
733.88	0.669
734.07	0.656
734.25	0.680
734.43	0.687
734.62	0.689
734.80	0.685
734.98	0.675
735.17	0.680
735.35	0.687
735.53	0.675
735.72	0.678
735.90	0.697
736.08	0.714
736.27	0.694
736.45	0.703
736.63	0.713
736.82	0.721
737.00	0.721
737.18	0.732
737.37	0.759
737.55	0.779
737.73	0.770
737.92	0.770
738.10	0.766
738.28	0.782
738.46	0.770
738.65	0.782
738.83	0.802
739.01	0.847
739.20	0.839
739.38	0.823
739.56	0.815
739.75	0.824
739.93	0.801
740.11	0.822
740.29	0.824
740.48	0.831
740.66	0.812
740.84	0.807
741.03	0.771
741.21	0.782
741.39	0.766
741.57	0.778
741.76	0.790
741.94	0.792
742.12	0.763
742.31	0.768
742.49	0.783
742.67	0.808
742.85	0.822
743.04	0.830
743.22	0.838
743.40	0.885
743.58	0.868
743.77	0.885
743.95	0.910
744.13	0.951
744.31	0.933
744.50	0.930
744.68	0.922
744.86	0.897
745.04	0.906
745.23	0.959
745.41	0.943
745.59	0.949
745.77	0.919
745.96	0.916
746.14	0.931
746.32	0.926
746.50	0.916
746.69	0.903
746.87	0.910
747.05	0.899
747.23	0.836
747.42	0.818
747.60	0.843
747.78	0.846
747.96	0.871
748.14	0.827
748.33	0.850
748.51	0.846
748.69	0.840
748.87	0.865
749.06	0.857
749.24	0.851
749.42	0.843
749.60	0.821
749.78	0.828
749.97	0.786
750.15	0.784
750.33	0.791
750.51	0.810
750.69	0.816
750.88	0.822
751.06	0.831
751.24	0.855
751.42	0.850
751.60	0.849
751.79	0.913
751.97	0.951
752.15	0.950
752.33	0.919
752.51	0.977
752.69	0.990
752.88	0.959
753.06	1.001
753.24	0.979
753.42	1.010
753.60	1.159
753.78	1.039
753.97	1.060
754.15	1.069
754.33	1.092
754.51	0.984
754.69	0.973
754.87	0.999
755.06	0.937
755.24	0.940
755.42	0.946
755.60	0.854
755.78	0.861
755.96	0.816
756.15	0.816
756.33	0.819
756.51	0.839
756.69	0.826
756.87	0.796
757.05	0.812
757.23	0.801
757.42	0.770
757.60	0.768
757.78	0.757
757.96	0.753
758.14	0.739
758.32	0.727
758.50	0.737
758.69	0.735
758.87	0.728
759.05	0.730
759.23	0.734
759.41	0.737
759.59	0.731
759.77	0.752
759.95	0.779
760.13	0.824
760.32	0.819
760.50	0.815
760.68	0.836
760.86	0.838
761.04	0.816
761.22	0.818
761.40	0.860
761.58	0.862
761.76	0.836
761.95	0.817
762.13	0.774
762.31	0.777
762.49	0.752
762.67	0.765
762.85	0.774
763.03	0.770
763.21	0.758
763.39	0.741
763.57	0.742
763.75	0.736
763.94	0.726
764.12	0.730
764.30	0.752
764.48	0.754
764.66	0.723
764.84	0.720
765.02	0.755
765.20	0.760
765.38	0.742
765.56	0.747
765.74	0.782
765.92	0.782
766.10	0.786
766.28	0.778
766.46	0.805
766.65	0.808
766.83	0.800
767.01	0.785
767.19	0.790
767.37	0.788
767.55	0.775
767.73	0.757
767.91	0.759
768.09	0.750
768.27	0.742
768.45	0.730
768.63	0.733
768.81	0.735
768.99	0.711
769.17	0.732
769.35	0.743
769.53	0.745
769.71	0.729
769.89	0.736
770.07	0.737
770.25	0.723
770.43	0.703
770.61	0.724
770.79	0.728
770.97	0.735
771.15	0.708
771.33	0.711
771.51	0.713
771.69	0.723
771.87	0.732
772.05	0.739
772.24	0.745
772.42	0.754
772.60	0.734
772.78	0.786
772.96	0.813
773.14	0.811
773.32	0.791
773.49	0.795
773.67	0.792
773.85	0.773
774.03	0.763
774.21	0.792
774.39	0.802
774.57	0.824
774.75	0.758
774.93	0.754
775.11	0.770
775.29	0.776
775.47	0.780
775.65	0.790
775.83	0.800
776.01	0.821
776.19	0.779
776.37	0.778
776.55	0.778
776.73	0.774
776.91	0.771
777.09	0.757
777.27	0.756
777.45	0.745
777.63	0.723
777.81	0.720
777.99	0.708
778.17	0.707
778.35	0.692
778.53	0.679
778.71	0.687
778.89	0.675
779.07	0.669
779.24	0.672
779.42	0.671
779.60	0.689
779.78	0.686
779.96	0.689
780.14	0.696
780.32	0.715
780.50	0.702
780.68	0.699
780.86	0.692
781.04	0.706
781.22	0.713
781.40	0.723
781.58	0.713
781.75	0.707
781.93	0.694
782.11	0.694
782.29	0.677
782.47	0.677
782.65	0.668
782.83	0.691
783.01	0.684
783.19	0.675
783.37	0.664
783.55	0.666
783.72	0.683
783.90	0.693
784.08	0.685
784.26	0.697
784.44	0.716
784.62	0.718
784.80	0.690
784.98	0.696
785.16	0.701
785.33	0.713
785.51	0.702
785.69	0.690
785.87	0.687
786.05	0.700
786.23	0.697
786.41	0.693
786.59	0.699
786.77	0.701
786.94	0.688
787.12	0.694
787.30	0.695
787.48	0.691
787.66	0.679
787.84	0.678
788.02	0.668
788.19	0.665
788.37	0.653
788.55	0.655
788.73	0.655
788.91	0.650
789.09	0.636
789.27	0.628
789.44	0.638
789.62	0.646
789.80	0.656
789.98	0.680
790.16	0.666
790.34	0.663
790.51	0.652
790.69	0.670
790.87	0.675
791.05	0.670
791.23	0.663
791.41	0.664
791.58	0.670
791.76	0.649
791.94	0.621
792.12	0.629
792.30	0.631
792.48	0.629
792.65	0.622
792.83	0.628
793.01	0.635
793.19	0.634
793.37	0.620
793.54	0.618
793.72	0.630
793.90	0.628
794.08	0.620
794.26	0.620
794.43	0.627
794.61	0.613
794.79	0.602
794.97	0.601
795.15	0.604
795.32	0.608
795.50	0.598
795.68	0.592
795.86	0.597
796.04	0.598
796.21	0.594
796.39	0.592
796.57	0.604
796.75	0.612
796.92	0.614
797.10	0.619
797.28	0.621
797.46	0.623
797.64	0.625
797.81	0.631
797.99	0.635
798.17	0.638
798.35	0.634
798.52	0.638
798.70	0.633
798.88	0.643
799.06	0.642
799.23	0.645
799.41	0.653
799.59	0.646
799.77	0.638
799.94	0.643
800.12	0.650
800.30	0.668
800.48	0.666
800.65	0.666
800.83	0.652
801.01	0.645
801.19	0.644
801.36	0.640
801.54	0.643
801.72	0.651
801.90	0.640
802.07	0.636
802.25	0.622
802.43	0.608
802.60	0.605
802.78	0.612
802.96	0.616
803.14	0.610
803.31	0.610
803.49	0.608
803.67	0.605
803.84	0.609
804.02	0.603
804.20	0.606
804.38	0.612
804.55	0.611
804.73	0.599
804.91	0.601
805.08	0.615
805.26	0.610
805.44	0.673
805.61	0.676
805.79	0.675
805.97	0.673
806.15	0.665
806.32	0.660
806.50	0.666
806.68	0.666
806.85	0.657
807.03	0.645
807.21	0.660
807.38	0.596
807.56	0.587
807.74	0.596
807.91	0.602
808.09	0.604
808.27	0.621
808.44	0.643
808.62	0.650
808.80	0.653
808.97	0.651
809.15	0.646
809.33	0.662
809.50	0.670
809.68	0.658
809.86	0.665
810.03	0.693
810.21	0.674
810.39	0.660
810.56	0.667
810.74	0.687
810.91	0.753
811.09	0.744
811.27	0.763
811.44	0.766
811.62	0.766
811.80	0.753
811.97	0.725
812.15	0.724
812.33	0.719
812.50	0.706
812.68	0.694
812.85	0.642
813.03	0.645
813.21	0.615
813.38	0.610
813.56	0.612
813.74	0.621
813.91	0.630
814.09	0.659
814.26	0.651
814.44	0.655
814.62	0.648
814.79	0.651
814.97	0.650
815.14	0.654
815.32	0.657
815.50	0.673
815.67	0.676
815.85	0.664
816.02	0.653
816.20	0.659
816.38	0.671
816.55	0.675
816.73	0.676
816.90	0.687
817.08	0.711
817.26	0.718
817.43	0.700
817.61	0.720
817.78	0.737
817.96	0.717
818.13	0.709
818.31	0.705
818.49	0.714
818.66	0.705
818.84	0.695
819.01	0.677
819.19	0.680
819.36	0.682
819.54	0.656
819.71	0.692
819.89	0.706
820.07	0.716
820.24	0.716
820.42	0.717
820.59	0.733
820.77	0.750
820.94	0.744
821.12	0.760
821.29	0.773
821.47	0.774
821.64	0.720
821.82	0.731
822.00	0.729
822.17	0.725
822.35	0.719
822.52	0.722
822.70	0.711
822.87	0.720
823.05	0.705
823.22	0.715
823.40	0.737
823.57	0.759
823.75	0.744
823.92	0.767
824.10	0.786
824.27	0.823
824.45	0.813
824.62	0.871
824.80	0.882
824.97	0.890
825.15	0.884
825.32	0.897
825.50	0.896
825.67	0.900
825.85	0.881
826.02	0.890
826.20	0.903
826.37	1.006
826.55	0.939
826.72	1.098
826.90	1.146
827.07	1.176
827.25	1.133
827.42	1.241
827.60	1.343
827.77	1.437
827.95	1.450
828.12	1.548
828.30	1.303
828.47	1.403
828.65	1.126
828.82	1.179
829.00	1.230
829.17	1.307
829.34	1.320
829.52	1.359
829.69	-0.000
829.87	-0.000
830.04	-0.000
830.22	-0.000
830.39	-0.000
830.57	-0.000
830.74	-0.000
830.92	-0.000
831.09	-0.000
831.26	-0.000
831.44	-0.000
831.61	-0.000
831.79	-0.000
831.96	-0.000
832.14	-0.000
832.31	-0.000
832.49	-0.000
832.66	-0.000
832.83	-0.000
833.01	-0.000
833.18	-0.000
833.36	-0.000
833.53	-0.000
833.70	-0.000
833.88	-0.000
834.05	-0.000
834.23	-0.000
834.40	-0.000
834.58	-0.000
834.75	-0.000
834.92	-0.000
835.10	-0.000
835.27	-0.000
835.45	-0.000
835.62	-0.000
835.79	-0.000
835.97	-0.000
836.14	-0.000
836.32	-0.000
836.49	-0.000
836.66	-0.000
836.84	-0.000
837.01	-0.000
837.18	-0.000
837.36	-0.000
837.53	-0.000
837.71	-0.000
837.88	-0.000
838.05	-0.000
838.23	-0.000
838.40	-0.000
838.58	-0.000
838.75	-0.000
838.92	-0.000
839.10	-0.000
839.27	-0.000
839.44	-0.000
839.62	-0.000
839.79	-0.000
839.96	-0.000
840.14	-0.000
840.31	-0.000
840.48	-0.000
840.66	-0.000
840.83	-0.000
841.01	-0.000
841.18	-0.000
841.35	-0.000
841.53	-0.000
841.70	-0.000
841.87	-0.000
842.05	-0.000
842.22	-0.000
842.39	-0.000
842.57	-0.000
842.74	-0.000
842.91	-0.000
843.09	-0.000
843.26	-0.000
843.43	-0.000
843.60	-0.000
843.78	-0.000
843.95	-0.000
844.12	-0.000
844.30	-0.000
844.47	-0.000
844.64	-0.000
844.82	-0.000
844.99	-0.000
845.16	-0.000
845.34	-0.000
845.51	-0.000
845.68	-0.000
845.85	-0.000
846.03	-0.000
846.20	-0.000
846.37	-0.000
846.55	-0.000
846.72	-0.000
846.89	-0.000
847.06	-0.000
847.24	-0.000
847.41	-0.000
847.58	-0.000
847.76	-0.000
847.93	-0.000
848.10	-0.000
848.27	-0.000
848.45	-0.000
848.62	-0.000
848.79	-0.000
848.97	-0.000
849.14	-0.000
849.31	-0.000
849.48	-0.000
849.66	-0.000
849.83	-0.000
850.00	-0.000
850.17	-0.000
850.35	-0.000
850.52	-0.000
850.69	-0.000
850.86	-0.000
851.04	-0.000
851.21	-0.000
851.38	-0.000
851.55	-0.000
851.72	-0.000
851.90	-0.000
852.07	-0.000
852.24	-0.000
852.41	-0.000
852.59	-0.000
852.76	-0.000
852.93	-0.000
853.10	-0.000
853.28	-0.000
853.45	-0.000
853.62	-0.000
853.79	-0.000
853.96	-0.000
854.14	-0.000
854.31	-0.000
854.48	-0.000
854.65	-0.000
854.82	-0.000
855.00	-0.000
855.17	-0.000
855.34	-0.000
855.51	-0.000
855.68	-0.000
855.86	-0.000
856.03	-0.000
856.20	-0.000
856.37	-0.000
856.54	-0.000
856.72	-0.000
856.89	-0.000
857.06	-0.000
857.23	-0.000
857.40	-0.000
857.57	-0.000
857.75	-0.000
857.92	-0.000
858.09	-0.000
858.26	-0.000
858.43	-0.000
858.60	-0.000
858.78	-0.000
858.95	-0.000
859.12	-0.000
859.29	-0.000
859.46	-0.000
859.63	-0.000
859.81	-0.000
859.98	-0.000
860.15	-0.000
860.32	-0.000
860.49	-0.000
860.66	-0.000
860.83	-0.000
861.01	-0.000
861.18	-0.000
861.35	-0.000
861.52	-0.000
861.69	-0.000
861.86	-0.000
862.03	-0.000
862.21	-0.000
862.38	-0.000
862.55	-0.000
862.72	-0.000
862.89	-0.000
863.06	-0.000
863.23	-0.000
863.40	-0.000
863.58	-0.000
863.75	-0.000
863.92	-0.000
864.09	-0.000
864.26	-0.000
864.43	-0.000
864.60	-0.000
864.77	-0.000
864.94	-0.000
865.11	-0.000
865.29	-0.000
865.46	-0.000
865.63	-0.000
865.80	-0.000
865.97	-0.000
866.14	-0.000
866.31	-0.000
866.48	-0.000
866.65	-0.000
866.82	-0.000
866.99	-0.000
867.16	-0.000
867.34	-0.000
867.51	-0.000
867.68	-0.000
867.85	-0.000
868.02	-0.000
868.19	-0.000
868.36	-0.000
868.53	-0.000
868.70	-0.000
868.87	-0.000
869.04	-0.000
869.21	-0.000
869.38	-0.000
869.55	-0.000
869.72	-0.000
869.89	-0.000
870.06	-0.000
870.24	-0.000
870.41	-0.000
870.58	-0.000
870.75	-0.000
870.92	-0.000
871.09	-0.000
871.26	-0.000
871.43	-0.000
871.60	-0.000
871.77	-0.000
871.94	-0.000
872.11	-0.000
872.28	-0.000
872.45	-0.000
872.62	-0.000
872.79	-0.000
872.96	-0.000
873.13	-0.000
873.30	-0.000
873.47	-0.000
873.64	-0.000
873.81	-0.000
873.98	-0.000
874.15	-0.000
874.32	-0.000
874.49	-0.000
874.66	-0.000
874.83	-0.000
875.00	-0.000
875.17	-0.000
875.34	-0.000
875.51	-0.000
875.68	-0.000
875.85	-0.000
876.02	-0.000
876.19	-0.000
876.36	-0.000
876.53	-0.000
876.70	-0.000
876.87	-0.000
877.04	-0.000
877.21	-0.000
877.38	-0.000
877.55	-0.000
877.72	-0.000
877.89	-0.000
878.06	-0.000
878.23	-0.000
878.39	-0.000
878.56	-0.000
878.73	-0.000
878.90	-0.000
879.07	-0.000
879.24	-0.000
879.41	-0.000
879.58	-0.000
879.75	-0.000
879.92	-0.000
880.09	-0.000
880.26	-0.000
880.43	-0.000
880.60	-0.000
880.77	-0.000
880.94	-0.000
881.11	-0.000
881.27	-0.000
881.44	-0.000
881.61	-0.000
881.78	-0.000
881.95	-0.000
882.12	-0.000
882.29	-0.000
882.46	-0.000
882.63	-0.000
882.80	-0.000
882.97	-0.000
883.14	-0.000
883.30	-0.000
883.47	-0.000
883.64	-0.000
883.81	-0.000
883.98	-0.000
884.15	-0.000
884.32	-0.000
884.49	-0.000
884.66	-0.000
884.82	-0.000
884.99	-0.000
885.16	-0.000
885.33	-0.000
885.50	-0.000
885.67	-0.000
885.84	-0.000
886.01	-0.000
886.17	-0.000
886.34	-0.000
886.51	-0.000
886.68	-0.000
886.85	-0.000
887.02	-0.000
887.19	-0.000
887.36	-0.000
887.52	-0.000
887.69	-0.000
887.86	-0.000
888.03	-0.000
888.20	-0.000
888.37	-0.000
888.54	-0.000
888.70	-0.000
888.87	-0.000
889.04	-0.000
889.21	-0.000
889.38	-0.000
889.55	-0.000
889.71	-0.000
889.88	-0.000
890.05	-0.000
890.22	-0.000
890.39	-0.000
>>>>>End Processed Spectral Data<<<<<
