SpectraSuite Data File
++++++++++++++++++++++++++++++++++++
Date: Fri Jun 19 14:57:38 CEST 2015
User: introlabs
Dark Spectrum Present: Yes
Reference Spectrum Present: Yes
Number of Sampled Component Spectra: 1
Spectrometers: USB4H08886
Integration Time (usec): 745692 (USB4H08886)
Spectra Averaged: 5 (USB4H08886)
Boxcar Smoothing: 5 (USB4H08886)
Correct for Electrical Dark: Yes (USB4H08886)
Strobe/Lamp Enabled: No (USB4H08886)
Correct for Detector Non-linearity: Yes (USB4H08886)
Correct for Stray Light: Yes (USB4H08886)
Number of Pixels in Processed Spectrum: 3648
>>>>>Begin Processed Spectral Data<<<<<
178.14	-0.000
178.36	-0.000
178.57	-0.000
178.79	-0.000
179.01	-0.000
179.22	-0.000
179.44	-0.000
179.65	-0.000
179.87	-0.000
180.08	-0.000
180.30	-0.000
180.52	-0.000
180.73	-0.000
180.95	-0.000
181.16	-0.000
181.38	-0.000
181.59	-0.000
181.81	-0.000
182.03	-0.000
182.24	-0.000
182.46	-0.000
182.67	-0.000
182.89	-0.000
183.10	-0.000
183.32	-0.000
183.54	-0.000
183.75	-0.000
183.97	-0.000
184.18	-0.000
184.40	-0.000
184.61	-0.000
184.83	-0.000
185.04	-0.000
185.26	-0.000
185.48	-0.000
185.69	-0.000
185.91	-0.000
186.12	-0.000
186.34	-0.000
186.55	-0.000
186.77	-0.000
186.98	-0.000
187.20	-0.000
187.42	-0.000
187.63	-0.000
187.85	-0.000
188.06	-0.000
188.28	-0.000
188.49	-0.000
188.71	-0.000
188.92	-0.000
189.14	-0.000
189.36	-0.000
189.57	-0.000
189.79	-0.000
190.00	-0.000
190.22	-0.000
190.43	-0.000
190.65	-0.000
190.86	-0.000
191.08	-0.000
191.29	-0.000
191.51	-0.000
191.72	-0.000
191.94	-0.000
192.16	-0.000
192.37	-0.000
192.59	-0.000
192.80	-0.000
193.02	-0.000
193.23	-0.000
193.45	-0.000
193.66	-0.000
193.88	-0.000
194.09	-0.000
194.31	-0.000
194.52	-0.000
194.74	-0.000
194.95	-0.000
195.17	-0.000
195.38	-0.000
195.60	-0.000
195.81	-0.000
196.03	-0.000
196.25	-0.000
196.46	-0.000
196.68	-0.000
196.89	-0.000
197.11	-0.000
197.32	-0.000
197.54	-0.000
197.75	-0.000
197.97	-0.000
198.18	-0.000
198.40	-0.000
198.61	-0.000
198.83	-0.000
199.04	-0.000
199.26	-0.000
199.47	-0.000
199.69	-0.000
199.90	-0.000
200.12	-0.000
200.33	-0.000
200.55	-0.000
200.76	-0.000
200.98	-0.000
201.19	-0.000
201.41	-0.000
201.62	-0.000
201.84	-0.000
202.05	-0.000
202.27	-0.000
202.48	-0.000
202.70	-0.000
202.91	-0.000
203.13	-0.000
203.34	-0.000
203.56	-0.000
203.77	-0.000
203.99	-0.000
204.20	-0.000
204.42	-0.000
204.63	-0.000
204.85	-0.000
205.06	-0.000
205.28	-0.000
205.49	-0.000
205.71	-0.000
205.92	-0.000
206.14	-0.000
206.35	-0.000
206.56	-0.000
206.78	-0.000
206.99	-0.000
207.21	-0.000
207.42	-0.000
207.64	-0.000
207.85	-0.000
208.07	-0.000
208.28	-0.000
208.50	-0.000
208.71	-0.000
208.93	-0.000
209.14	-0.000
209.36	-0.000
209.57	-0.000
209.79	-0.000
210.00	-0.000
210.22	-0.000
210.43	-0.000
210.64	-0.000
210.86	-0.000
211.07	-0.000
211.29	-0.000
211.50	-0.000
211.72	-0.000
211.93	-0.000
212.15	-0.000
212.36	-0.000
212.58	-0.000
212.79	-0.000
213.01	-0.000
213.22	-0.000
213.43	-0.000
213.65	-0.000
213.86	-0.000
214.08	-0.000
214.29	-0.000
214.51	-0.000
214.72	-0.000
214.94	-0.000
215.15	-0.000
215.36	-0.000
215.58	-0.000
215.79	-0.000
216.01	-0.000
216.22	-0.000
216.44	-0.000
216.65	-0.000
216.87	-0.000
217.08	-0.000
217.29	-0.000
217.51	-0.000
217.72	-0.000
217.94	-0.000
218.15	-0.000
218.37	-0.000
218.58	-0.000
218.80	-0.000
219.01	-0.000
219.22	-0.000
219.44	-0.000
219.65	-0.000
219.87	-0.000
220.08	-0.000
220.30	-0.000
220.51	-0.000
220.72	-0.000
220.94	-0.000
221.15	-0.000
221.37	-0.000
221.58	-0.000
221.79	-0.000
222.01	-0.000
222.22	-0.000
222.44	-0.000
222.65	-0.000
222.87	-0.000
223.08	-0.000
223.29	-0.000
223.51	-0.000
223.72	-0.000
223.94	-0.000
224.15	-0.000
224.36	-0.000
224.58	-0.000
224.79	-0.000
225.01	-0.000
225.22	-0.000
225.44	-0.000
225.65	-0.000
225.86	-0.000
226.08	-0.000
226.29	-0.000
226.51	-0.000
226.72	-0.000
226.93	-0.000
227.15	-0.000
227.36	-0.000
227.58	-0.000
227.79	-0.000
228.00	-0.000
228.22	-0.000
228.43	-0.000
228.65	-0.000
228.86	-0.000
229.07	-0.000
229.29	-0.000
229.50	-0.000
229.72	-0.000
229.93	-0.000
230.14	-0.000
230.36	-0.000
230.57	-0.000
230.78	-0.000
231.00	-0.000
231.21	-0.000
231.43	-0.000
231.64	-0.000
231.85	-0.000
232.07	-0.000
232.28	-0.000
232.50	-0.000
232.71	-0.000
232.92	-0.000
233.14	-0.000
233.35	-0.000
233.56	-0.000
233.78	-0.000
233.99	-0.000
234.21	-0.000
234.42	-0.000
234.63	-0.000
234.85	-0.000
235.06	-0.000
235.27	-0.000
235.49	-0.000
235.70	-0.000
235.91	-0.000
236.13	-0.000
236.34	-0.000
236.56	-0.000
236.77	-0.000
236.98	-0.000
237.20	-0.000
237.41	-0.000
237.62	-0.000
237.84	-0.000
238.05	-0.000
238.26	-0.000
238.48	-0.000
238.69	-0.000
238.91	-0.000
239.12	-0.000
239.33	-0.000
239.55	-0.000
239.76	-0.000
239.97	-0.000
240.19	-0.000
240.40	-0.000
240.61	-0.000
240.83	-0.000
241.04	-0.000
241.25	-0.000
241.47	-0.000
241.68	-0.000
241.89	-0.000
242.11	-0.000
242.32	-0.000
242.53	-0.000
242.75	-0.000
242.96	-0.000
243.17	-0.000
243.39	-0.000
243.60	-0.000
243.81	-0.000
244.03	-0.000
244.24	-0.000
244.45	-0.000
244.67	-0.000
244.88	-0.000
245.09	-0.000
245.31	-0.000
245.52	-0.000
245.73	-0.000
245.95	-0.000
246.16	-0.000
246.37	-0.000
246.59	-0.000
246.80	-0.000
247.01	-0.000
247.23	-0.000
247.44	-0.000
247.65	-0.000
247.87	-0.000
248.08	-0.000
248.29	-0.000
248.51	-0.000
248.72	-0.000
248.93	-0.000
249.15	-0.000
249.36	-0.000
249.57	-0.000
249.78	-0.000
250.00	-0.000
250.21	-0.000
250.42	-0.000
250.64	-0.000
250.85	-0.000
251.06	-0.000
251.28	-0.000
251.49	-0.000
251.70	-0.000
251.92	-0.000
252.13	-0.000
252.34	-0.000
252.55	-0.000
252.77	-0.000
252.98	-0.000
253.19	-0.000
253.41	-0.000
253.62	-0.000
253.83	-0.000
254.05	-0.000
254.26	-0.000
254.47	-0.000
254.68	-0.000
254.90	-0.000
255.11	-0.000
255.32	-0.000
255.54	-0.000
255.75	-0.000
255.96	-0.000
256.17	-0.000
256.39	-0.000
256.60	-0.000
256.81	-0.000
257.03	-0.000
257.24	-0.000
257.45	-0.000
257.66	-0.000
257.88	-0.000
258.09	-0.000
258.30	-0.000
258.51	-0.000
258.73	-0.000
258.94	-0.000
259.15	-0.000
259.37	-0.000
259.58	-0.000
259.79	-0.000
260.00	-0.000
260.22	-0.000
260.43	-0.000
260.64	-0.000
260.85	-0.000
261.07	-0.000
261.28	-0.000
261.49	-0.000
261.71	-0.000
261.92	-0.000
262.13	-0.000
262.34	-0.000
262.56	-0.000
262.77	-0.000
262.98	-0.000
263.19	-0.000
263.41	-0.000
263.62	-0.000
263.83	-0.000
264.04	-0.000
264.26	-0.000
264.47	-0.000
264.68	-0.000
264.89	-0.000
265.11	-0.000
265.32	-0.000
265.53	-0.000
265.74	-0.000
265.96	-0.000
266.17	-0.000
266.38	-0.000
266.59	-0.000
266.81	-0.000
267.02	-0.000
267.23	-0.000
267.44	-0.000
267.65	-0.000
267.87	-0.000
268.08	-0.000
268.29	-0.000
268.50	-0.000
268.72	-0.000
268.93	-0.000
269.14	-0.000
269.35	-0.000
269.57	-0.000
269.78	-0.000
269.99	-0.000
270.20	-0.000
270.41	-0.000
270.63	-0.000
270.84	-0.000
271.05	-0.000
271.26	-0.000
271.48	-0.000
271.69	-0.000
271.90	-0.000
272.11	-0.000
272.32	-0.000
272.54	-0.000
272.75	-0.000
272.96	-0.000
273.17	-0.000
273.39	-0.000
273.60	-0.000
273.81	-0.000
274.02	-0.000
274.23	-0.000
274.45	-0.000
274.66	-0.000
274.87	-0.000
275.08	-0.000
275.29	-0.000
275.51	-0.000
275.72	-0.000
275.93	-0.000
276.14	-0.000
276.35	-0.000
276.57	-0.000
276.78	-0.000
276.99	-0.000
277.20	-0.000
277.41	-0.000
277.63	-0.000
277.84	-0.000
278.05	-0.000
278.26	-0.000
278.47	-0.000
278.69	-0.000
278.90	-0.000
279.11	-0.000
279.32	-0.000
279.53	-0.000
279.74	-0.000
279.96	-0.000
280.17	-0.000
280.38	-0.000
280.59	-0.000
280.80	-0.000
281.02	-0.000
281.23	-0.000
281.44	-0.000
281.65	-0.000
281.86	-0.000
282.07	-0.000
282.29	-0.000
282.50	-0.000
282.71	-0.000
282.92	-0.000
283.13	-0.000
283.35	-0.000
283.56	-0.000
283.77	-0.000
283.98	-0.000
284.19	-0.000
284.40	-0.000
284.62	-0.000
284.83	-0.000
285.04	-0.000
285.25	-0.000
285.46	-0.000
285.67	-0.000
285.88	-0.000
286.10	-0.000
286.31	-0.000
286.52	-0.000
286.73	-0.000
286.94	-0.000
287.15	-0.000
287.37	-0.000
287.58	-0.000
287.79	-0.000
288.00	-0.000
288.21	-0.000
288.42	-0.000
288.63	-0.000
288.85	-0.000
289.06	-0.000
289.27	-0.000
289.48	-0.000
289.69	-0.000
289.90	-0.000
290.11	-0.000
290.33	-0.000
290.54	-0.000
290.75	-0.000
290.96	-0.000
291.17	-0.000
291.38	-0.000
291.59	-0.000
291.81	-0.000
292.02	-0.000
292.23	-0.000
292.44	-0.000
292.65	-0.000
292.86	-0.000
293.07	-0.000
293.28	-0.000
293.50	-0.000
293.71	-0.000
293.92	-0.000
294.13	-0.000
294.34	-0.000
294.55	-0.000
294.76	-0.000
294.97	-0.000
295.19	-0.000
295.40	-0.000
295.61	-0.000
295.82	-0.000
296.03	-0.000
296.24	-0.000
296.45	2.459
296.66	1.907
296.87	1.940
297.09	2.059
297.30	2.423
297.51	1.833
297.72	1.779
297.93	1.881
298.14	1.851
298.35	1.784
298.56	1.763
298.77	1.930
298.99	1.894
299.20	1.863
299.41	1.833
299.62	1.770
299.83	1.751
300.04	1.685
300.25	1.686
300.46	1.727
300.67	1.696
300.88	1.624
301.10	1.625
301.31	1.707
301.52	1.626
301.73	1.562
301.94	1.566
302.15	1.589
302.36	1.532
302.57	1.462
302.78	1.473
302.99	1.519
303.20	1.545
303.41	1.448
303.63	1.427
303.84	1.434
304.05	1.434
304.26	1.371
304.47	1.374
304.68	1.379
304.89	1.364
305.10	1.321
305.31	1.307
305.52	1.354
305.73	1.349
305.94	1.309
306.15	1.302
306.37	1.321
306.58	1.326
306.79	1.296
307.00	1.319
307.21	1.366
307.42	1.355
307.63	1.319
307.84	1.280
308.05	1.316
308.26	1.316
308.47	1.292
308.68	1.289
308.89	1.288
309.10	1.284
309.31	1.241
309.52	1.233
309.73	1.249
309.95	1.244
310.16	1.214
310.37	1.203
310.58	1.221
310.79	1.220
311.00	1.217
311.21	1.221
311.42	1.220
311.63	1.213
311.84	1.192
312.05	1.191
312.26	1.214
312.47	1.225
312.68	1.202
312.89	1.185
313.10	1.191
313.31	1.162
313.52	1.161
313.73	1.164
313.94	1.169
314.15	1.153
314.36	1.129
314.57	1.121
314.78	1.111
314.99	1.106
315.21	1.094
315.42	1.100
315.63	1.113
315.84	1.090
316.05	1.076
316.26	1.084
316.47	1.102
316.68	1.098
316.89	1.079
317.10	1.099
317.31	1.102
317.52	1.104
317.73	1.081
317.94	1.082
318.15	1.125
318.36	1.124
318.57	1.107
318.78	1.096
318.99	1.134
319.20	1.131
319.41	1.096
319.62	1.098
319.83	1.113
320.04	1.108
320.25	1.094
320.46	1.059
320.67	1.063
320.88	1.057
321.09	1.042
321.30	1.026
321.51	1.042
321.72	1.042
321.93	1.025
322.14	1.017
322.35	1.044
322.56	1.046
322.77	1.034
322.98	1.045
323.19	1.055
323.40	1.063
323.61	1.040
323.82	1.033
324.03	1.036
324.24	1.033
324.45	1.019
324.66	0.999
324.87	0.995
325.08	0.995
325.29	0.976
325.50	0.969
325.71	0.974
325.92	0.981
326.13	0.968
326.34	0.969
326.55	0.978
326.76	0.977
326.97	0.968
327.18	0.962
327.39	0.987
327.60	0.988
327.80	0.990
328.01	0.987
328.22	0.987
328.43	0.992
328.64	0.980
328.85	0.984
329.06	0.986
329.27	0.986
329.48	0.981
329.69	0.962
329.90	0.973
330.11	0.965
330.32	0.958
330.53	0.951
330.74	0.950
330.95	0.949
331.16	0.932
331.37	0.941
331.58	0.940
331.79	0.940
332.00	0.931
332.21	0.923
332.42	0.926
332.63	0.918
332.83	0.914
333.04	0.916
333.25	0.929
333.46	0.929
333.67	0.915
333.88	0.917
334.09	0.927
334.30	0.924
334.51	0.916
334.72	0.912
334.93	0.915
335.14	0.914
335.35	0.908
335.56	0.902
335.77	0.911
335.98	0.910
336.18	0.904
336.39	0.896
336.60	0.899
336.81	0.897
337.02	0.896
337.23	0.900
337.44	0.902
337.65	0.902
337.86	0.892
338.07	0.886
338.28	0.890
338.49	0.889
338.70	0.882
338.91	0.890
339.11	0.897
339.32	0.893
339.53	0.882
339.74	0.879
339.95	0.876
340.16	0.874
340.37	0.867
340.58	0.865
340.79	0.869
341.00	0.868
341.21	0.857
341.41	0.857
341.62	0.858
341.83	0.858
342.04	0.852
342.25	0.864
342.46	0.868
342.67	0.866
342.88	0.859
343.09	0.858
343.30	0.865
343.50	0.867
343.71	0.859
343.92	0.856
344.13	0.860
344.34	0.859
344.55	0.843
344.76	0.842
344.97	0.846
345.18	0.846
345.38	0.843
345.59	0.837
345.80	0.837
346.01	0.834
346.22	0.832
346.43	0.827
346.64	0.837
346.85	0.835
347.06	0.829
347.26	0.829
347.47	0.831
347.68	0.825
347.89	0.821
348.10	0.817
348.31	0.824
348.52	0.822
348.73	0.819
348.93	0.815
349.14	0.819
349.35	0.818
349.56	0.813
349.77	0.809
349.98	0.815
350.19	0.812
350.39	0.806
350.60	0.803
350.81	0.819
351.02	0.818
351.23	0.814
351.44	0.815
351.65	0.818
351.86	0.815
352.06	0.812
352.27	0.812
352.48	0.813
352.69	0.813
352.90	0.807
353.11	0.794
353.31	0.802
353.52	0.798
353.73	0.790
353.94	0.792
354.15	0.797
354.36	0.797
354.57	0.789
354.77	0.792
354.98	0.791
355.19	0.790
355.40	0.789
355.61	0.794
355.82	0.798
356.02	0.797
356.23	0.790
356.44	0.792
356.65	0.796
356.86	0.796
357.07	0.789
357.27	0.793
357.48	0.796
357.69	0.791
357.90	0.776
358.11	0.773
358.32	0.776
358.52	0.779
358.73	0.769
358.94	0.770
359.15	0.776
359.36	0.777
359.56	0.773
359.77	0.769
359.98	0.776
360.19	0.776
360.40	0.773
360.61	0.774
360.81	0.773
361.02	0.774
361.23	0.765
361.44	0.763
361.65	0.762
361.85	0.762
362.06	0.759
362.27	0.761
362.48	0.761
362.69	0.763
362.89	0.757
363.10	0.759
363.31	0.763
363.52	0.766
363.73	0.761
363.93	0.762
364.14	0.762
364.35	0.764
364.56	0.754
364.77	0.756
364.97	0.758
365.18	0.758
365.39	0.753
365.60	0.750
365.81	0.751
366.01	0.751
366.22	0.747
366.43	0.747
366.64	0.748
366.84	0.754
367.05	0.751
367.26	0.750
367.47	0.751
367.68	0.751
367.88	0.748
368.09	0.745
368.30	0.747
368.51	0.746
368.71	0.746
368.92	0.750
369.13	0.748
369.34	0.747
369.55	0.747
369.75	0.747
369.96	0.754
370.17	0.754
370.38	0.751
370.58	0.751
370.79	0.756
371.00	0.755
371.21	0.746
371.41	0.751
371.62	0.755
371.83	0.751
372.04	0.748
372.24	0.741
372.45	0.741
372.66	0.742
372.87	0.738
373.07	0.736
373.28	0.736
373.49	0.739
373.70	0.731
373.90	0.730
374.11	0.739
374.32	0.738
374.53	0.737
374.73	0.739
374.94	0.740
375.15	0.741
375.36	0.738
375.56	0.747
375.77	0.746
375.98	0.747
376.19	0.744
376.39	0.738
376.60	0.742
376.81	0.743
377.02	0.740
377.22	0.740
377.43	0.740
377.64	0.740
377.84	0.731
378.05	0.736
378.26	0.742
378.47	0.741
378.67	0.738
378.88	0.734
379.09	0.735
379.30	0.736
379.50	0.734
379.71	0.736
379.92	0.739
380.12	0.738
380.33	0.730
380.54	0.726
380.75	0.733
380.95	0.733
381.16	0.732
381.37	0.732
381.57	0.732
381.78	0.732
381.99	0.731
382.20	0.732
382.40	0.735
382.61	0.735
382.82	0.732
383.02	0.725
383.23	0.727
383.44	0.727
383.64	0.726
383.85	0.728
384.06	0.731
384.27	0.729
384.47	0.727
384.68	0.728
384.89	0.733
385.09	0.732
385.30	0.732
385.51	0.731
385.71	0.734
385.92	0.735
386.13	0.734
386.33	0.736
386.54	0.738
386.75	0.737
386.95	0.733
387.16	0.729
387.37	0.732
387.58	0.732
387.78	0.730
387.99	0.728
388.20	0.729
388.40	0.726
388.61	0.722
388.82	0.725
389.02	0.727
389.23	0.727
389.44	0.725
389.64	0.725
389.85	0.736
390.06	0.737
390.26	0.737
390.47	0.737
390.68	0.739
390.88	0.737
391.09	0.733
391.30	0.732
391.50	0.732
391.71	0.732
391.92	0.729
392.12	0.721
392.33	0.722
392.53	0.722
392.74	0.722
392.95	0.720
393.15	0.723
393.36	0.725
393.57	0.723
393.77	0.727
393.98	0.728
394.19	0.728
394.39	0.727
394.60	0.729
394.81	0.732
395.01	0.730
395.22	0.728
395.43	0.728
395.63	0.733
395.84	0.735
396.04	0.731
396.25	0.734
396.46	0.735
396.66	0.733
396.87	0.730
397.08	0.728
397.28	0.730
397.49	0.731
397.69	0.728
397.90	0.723
398.11	0.724
398.31	0.724
398.52	0.721
398.73	0.722
398.93	0.721
399.14	0.720
399.34	0.719
399.55	0.720
399.76	0.720
399.96	0.720
400.17	0.719
400.37	0.717
400.58	0.724
400.79	0.726
400.99	0.723
401.20	0.729
401.41	0.732
401.61	0.733
401.82	0.738
402.02	0.738
402.23	0.739
402.44	0.739
402.64	0.739
402.85	0.734
403.05	0.732
403.26	0.732
403.47	0.725
403.67	0.723
403.88	0.724
404.08	0.718
404.29	0.717
404.50	0.716
404.70	0.717
404.91	0.716
405.11	0.713
405.32	0.713
405.52	0.713
405.73	0.713
405.94	0.711
406.14	0.715
406.35	0.717
406.55	0.716
406.76	0.713
406.97	0.714
407.17	0.717
407.38	0.717
407.58	0.716
407.79	0.718
407.99	0.720
408.20	0.722
408.41	0.717
408.61	0.715
408.82	0.717
409.02	0.716
409.23	0.715
409.43	0.713
409.64	0.714
409.84	0.714
410.05	0.711
410.26	0.710
410.46	0.710
410.67	0.709
410.87	0.710
411.08	0.712
411.28	0.713
411.49	0.714
411.69	0.711
411.90	0.712
412.11	0.714
412.31	0.714
412.52	0.712
412.72	0.713
412.93	0.714
413.13	0.713
413.34	0.710
413.54	0.711
413.75	0.713
413.95	0.713
414.16	0.710
414.37	0.713
414.57	0.714
414.78	0.717
414.98	0.714
415.19	0.716
415.39	0.713
415.60	0.714
415.80	0.714
416.01	0.712
416.21	0.714
416.42	0.714
416.62	0.709
416.83	0.709
417.03	0.708
417.24	0.708
417.44	0.706
417.65	0.706
417.86	0.706
418.06	0.704
418.27	0.703
418.47	0.704
418.68	0.705
418.88	0.706
419.09	0.704
419.29	0.705
419.50	0.705
419.70	0.705
419.91	0.704
420.11	0.701
420.32	0.704
420.52	0.703
420.73	0.702
420.93	0.703
421.14	0.704
421.34	0.703
421.55	0.700
421.75	0.700
421.96	0.701
422.16	0.700
422.37	0.699
422.57	0.696
422.78	0.697
422.98	0.694
423.19	0.692
423.39	0.690
423.60	0.694
423.80	0.695
424.01	0.694
424.21	0.696
424.42	0.697
424.62	0.697
424.83	0.697
425.03	0.698
425.23	0.700
425.44	0.699
425.64	0.700
425.85	0.698
426.05	0.698
426.26	0.699
426.46	0.695
426.67	0.695
426.87	0.700
427.08	0.700
427.28	0.697
427.49	0.698
427.69	0.698
427.90	0.697
428.10	0.695
428.31	0.695
428.51	0.696
428.71	0.696
428.92	0.697
429.12	0.693
429.33	0.694
429.53	0.698
429.74	0.702
429.94	0.703
430.15	0.703
430.35	0.702
430.56	0.699
430.76	0.698
430.96	0.699
431.17	0.697
431.37	0.694
431.58	0.692
431.78	0.689
431.99	0.682
432.19	0.684
432.40	0.685
432.60	0.686
432.80	0.689
433.01	0.687
433.21	0.687
433.42	0.688
433.62	0.688
433.83	0.688
434.03	0.690
434.23	0.693
434.44	0.692
434.64	0.689
434.85	0.694
435.05	0.695
435.26	0.695
435.46	0.694
435.66	0.694
435.87	0.694
436.07	0.694
436.28	0.691
436.48	0.688
436.69	0.687
436.89	0.687
437.09	0.681
437.30	0.680
437.50	0.680
437.71	0.692
437.91	0.691
438.11	0.692
438.32	0.696
438.52	0.696
438.73	0.695
438.93	0.693
439.13	0.694
439.34	0.697
439.54	0.694
439.75	0.694
439.95	0.684
440.15	0.689
440.36	0.687
440.56	0.684
440.77	0.685
440.97	0.685
441.17	0.684
441.38	0.685
441.58	0.682
441.79	0.682
441.99	0.681
442.19	0.679
442.40	0.677
442.60	0.676
442.81	0.674
443.01	0.674
443.21	0.675
443.42	0.674
443.62	0.673
443.82	0.673
444.03	0.674
444.23	0.674
444.44	0.675
444.64	0.673
444.84	0.675
445.05	0.674
445.25	0.672
445.45	0.672
445.66	0.674
445.86	0.673
446.06	0.675
446.27	0.674
446.47	0.677
446.68	0.675
446.88	0.674
447.08	0.673
447.29	0.675
447.49	0.675
447.69	0.675
447.90	0.673
448.10	0.677
448.30	0.674
448.51	0.675
448.71	0.672
448.91	0.674
449.12	0.674
449.32	0.675
449.52	0.674
449.73	0.677
449.93	0.676
450.14	0.676
450.34	0.675
450.54	0.677
450.75	0.675
450.95	0.674
451.15	0.673
451.36	0.676
451.56	0.673
451.76	0.672
451.97	0.668
452.17	0.669
452.37	0.667
452.58	0.665
452.78	0.665
452.98	0.667
453.19	0.667
453.39	0.667
453.59	0.666
453.79	0.666
454.00	0.667
454.20	0.666
454.40	0.667
454.61	0.669
454.81	0.670
455.01	0.667
455.22	0.667
455.42	0.669
455.62	0.667
455.83	0.667
456.03	0.670
456.23	0.671
456.44	0.672
456.64	0.670
456.84	0.670
457.04	0.671
457.25	0.671
457.45	0.667
457.65	0.666
457.86	0.667
458.06	0.666
458.26	0.662
458.47	0.661
458.67	0.662
458.87	0.662
459.07	0.659
459.28	0.661
459.48	0.663
459.68	0.664
459.89	0.663
460.09	0.661
460.29	0.662
460.49	0.663
460.70	0.662
460.90	0.662
461.10	0.663
461.31	0.663
461.51	0.660
461.71	0.662
461.91	0.664
462.12	0.663
462.32	0.663
462.52	0.664
462.72	0.666
462.93	0.667
463.13	0.665
463.33	0.666
463.53	0.668
463.74	0.667
463.94	0.663
464.14	0.663
464.35	0.665
464.55	0.665
464.75	0.663
464.95	0.660
465.16	0.661
465.36	0.660
465.56	0.660
465.76	0.659
465.97	0.659
466.17	0.661
466.37	0.659
466.57	0.659
466.78	0.660
466.98	0.660
467.18	0.658
467.38	0.657
467.59	0.658
467.79	0.660
467.99	0.659
468.19	0.659
468.39	0.662
468.60	0.662
468.80	0.660
469.00	0.662
469.20	0.663
469.41	0.663
469.61	0.662
469.81	0.662
470.01	0.662
470.22	0.662
470.42	0.661
470.62	0.659
470.82	0.660
471.02	0.660
471.23	0.658
471.43	0.658
471.63	0.661
471.83	0.661
472.04	0.659
472.24	0.657
472.44	0.663
472.64	0.663
472.84	0.661
473.05	0.660
473.25	0.663
473.45	0.662
473.65	0.660
473.85	0.661
474.06	0.662
474.26	0.662
474.46	0.663
474.66	0.658
474.86	0.659
475.07	0.659
475.27	0.657
475.47	0.654
475.67	0.655
475.87	0.656
476.08	0.653
476.28	0.654
476.48	0.655
476.68	0.654
476.88	0.652
477.09	0.653
477.29	0.656
477.49	0.655
477.69	0.655
477.89	0.656
478.09	0.655
478.30	0.657
478.50	0.655
478.70	0.654
478.90	0.654
479.10	0.657
479.31	0.658
479.51	0.656
479.71	0.656
479.91	0.657
480.11	0.656
480.31	0.656
480.52	0.654
480.72	0.654
480.92	0.654
481.12	0.652
481.32	0.650
481.52	0.647
481.72	0.647
481.93	0.650
482.13	0.651
482.33	0.650
482.53	0.648
482.73	0.649
482.93	0.650
483.14	0.650
483.34	0.650
483.54	0.650
483.74	0.650
483.94	0.649
484.14	0.645
484.34	0.645
484.55	0.646
484.75	0.645
484.95	0.643
485.15	0.643
485.35	0.643
485.55	0.642
485.75	0.641
485.96	0.641
486.16	0.643
486.36	0.643
486.56	0.641
486.76	0.641
486.96	0.642
487.16	0.642
487.36	0.640
487.57	0.640
487.77	0.640
487.97	0.641
488.17	0.639
488.37	0.637
488.57	0.638
488.77	0.638
488.97	0.636
489.18	0.636
489.38	0.638
489.58	0.639
489.78	0.638
489.98	0.637
490.18	0.637
490.38	0.638
490.58	0.638
490.78	0.638
490.98	0.640
491.19	0.640
491.39	0.639
491.59	0.638
491.79	0.640
491.99	0.641
492.19	0.640
492.39	0.643
492.59	0.643
492.79	0.644
492.99	0.645
493.20	0.645
493.40	0.645
493.60	0.647
493.80	0.645
494.00	0.643
494.20	0.644
494.40	0.644
494.60	0.641
494.80	0.645
495.00	0.644
495.20	0.642
495.40	0.641
495.61	0.642
495.81	0.642
496.01	0.646
496.21	0.646
496.41	0.645
496.61	0.646
496.81	0.645
497.01	0.641
497.21	0.640
497.41	0.641
497.61	0.641
497.81	0.639
498.01	0.639
498.21	0.637
498.41	0.635
498.61	0.635
498.82	0.636
499.02	0.638
499.22	0.638
499.42	0.638
499.62	0.639
499.82	0.640
500.02	0.641
500.22	0.639
500.42	0.641
500.62	0.642
500.82	0.642
501.02	0.640
501.22	0.639
501.42	0.639
501.62	0.641
501.82	0.641
502.02	0.640
502.22	0.640
502.42	0.642
502.62	0.640
502.82	0.640
503.02	0.641
503.22	0.641
503.42	0.639
503.63	0.639
503.83	0.637
504.03	0.636
504.23	0.635
504.43	0.635
504.63	0.636
504.83	0.636
505.03	0.635
505.23	0.637
505.43	0.638
505.63	0.639
505.83	0.638
506.03	0.640
506.23	0.642
506.43	0.642
506.63	0.642
506.83	0.640
507.03	0.642
507.23	0.642
507.43	0.639
507.63	0.640
507.83	0.640
508.03	0.641
508.23	0.640
508.43	0.639
508.63	0.641
508.83	0.641
509.03	0.642
509.23	0.641
509.43	0.641
509.63	0.642
509.83	0.641
510.03	0.643
510.23	0.645
510.43	0.646
510.63	0.646
510.83	0.646
511.03	0.647
511.23	0.645
511.43	0.645
511.63	0.647
511.83	0.649
512.03	0.648
512.22	0.645
512.42	0.644
512.62	0.645
512.82	0.644
513.02	0.644
513.22	0.643
513.42	0.645
513.62	0.647
513.82	0.645
514.02	0.644
514.22	0.646
514.42	0.646
514.62	0.646
514.82	0.646
515.02	0.648
515.22	0.651
515.42	0.650
515.62	0.652
515.82	0.651
516.02	0.652
516.22	0.652
516.42	0.654
516.62	0.655
516.82	0.657
517.01	0.655
517.21	0.654
517.41	0.658
517.61	0.659
517.81	0.655
518.01	0.655
518.21	0.655
518.41	0.653
518.61	0.652
518.81	0.653
519.01	0.654
519.21	0.653
519.41	0.653
519.61	0.647
519.81	0.650
520.00	0.650
520.20	0.650
520.40	0.653
520.60	0.654
520.80	0.653
521.00	0.654
521.20	0.654
521.40	0.659
521.60	0.659
521.80	0.658
522.00	0.657
522.20	0.660
522.39	0.660
522.59	0.656
522.79	0.658
522.99	0.660
523.19	0.658
523.39	0.656
523.59	0.654
523.79	0.657
523.99	0.660
524.19	0.658
524.38	0.657
524.58	0.658
524.78	0.658
524.98	0.657
525.18	0.659
525.38	0.660
525.58	0.661
525.78	0.659
525.98	0.657
526.18	0.657
526.37	0.657
526.57	0.660
526.77	0.659
526.97	0.660
527.17	0.660
527.37	0.657
527.57	0.659
527.77	0.661
527.96	0.660
528.16	0.659
528.36	0.660
528.56	0.662
528.76	0.659
528.96	0.658
529.16	0.659
529.36	0.662
529.55	0.661
529.75	0.658
529.95	0.658
530.15	0.660
530.35	0.663
530.55	0.660
530.75	0.661
530.94	0.663
531.14	0.663
531.34	0.662
531.54	0.659
531.74	0.663
531.94	0.666
532.13	0.664
532.33	0.665
532.53	0.663
532.73	0.663
532.93	0.661
533.13	0.662
533.33	0.662
533.52	0.663
533.72	0.666
533.92	0.664
534.12	0.662
534.32	0.663
534.52	0.661
534.71	0.664
534.91	0.666
535.11	0.668
535.31	0.666
535.51	0.668
535.71	0.670
535.90	0.667
536.10	0.669
536.30	0.671
536.50	0.671
536.70	0.671
536.89	0.668
537.09	0.668
537.29	0.670
537.49	0.670
537.69	0.668
537.89	0.669
538.08	0.668
538.28	0.666
538.48	0.667
538.68	0.668
538.88	0.670
539.07	0.670
539.27	0.668
539.47	0.667
539.67	0.667
539.87	0.668
540.06	0.666
540.26	0.668
540.46	0.670
540.66	0.667
540.86	0.665
541.05	0.665
541.25	0.666
541.45	0.666
541.65	0.665
541.84	0.667
542.04	0.667
542.24	0.668
542.44	0.667
542.64	0.669
542.83	0.671
543.03	0.671
543.23	0.669
543.43	0.670
543.62	0.671
543.82	0.672
544.02	0.670
544.22	0.670
544.42	0.674
544.61	0.674
544.81	0.670
545.01	0.669
545.21	0.672
545.40	0.672
545.60	0.671
545.80	0.674
546.00	0.674
546.19	0.674
546.39	0.672
546.59	0.669
546.79	0.671
546.98	0.671
547.18	0.670
547.38	0.671
547.58	0.673
547.77	0.673
547.97	0.670
548.17	0.672
548.37	0.672
548.56	0.672
548.76	0.671
548.96	0.673
549.16	0.676
549.35	0.676
549.55	0.673
549.75	0.674
549.95	0.677
550.14	0.677
550.34	0.675
550.54	0.681
550.73	0.685
550.93	0.686
551.13	0.683
551.33	0.682
551.52	0.683
551.72	0.684
551.92	0.682
552.12	0.682
552.31	0.682
552.51	0.683
552.71	0.677
552.90	0.677
553.10	0.678
553.30	0.678
553.50	0.677
553.69	0.678
553.89	0.678
554.09	0.678
554.28	0.675
554.48	0.677
554.68	0.679
554.87	0.679
555.07	0.676
555.27	0.676
555.47	0.677
555.66	0.678
555.86	0.676
556.06	0.678
556.25	0.679
556.45	0.687
556.65	0.685
556.84	0.687
557.04	0.690
557.24	0.692
557.43	0.692
557.63	0.695
557.83	0.696
558.02	0.697
558.22	0.701
558.42	0.701
558.61	0.694
558.81	0.694
559.01	0.691
559.21	0.691
559.40	0.692
559.60	0.692
559.80	0.688
559.99	0.689
560.19	0.692
560.39	0.686
560.58	0.684
560.78	0.685
560.97	0.688
561.17	0.687
561.37	0.685
561.56	0.686
561.76	0.688
561.96	0.688
562.15	0.685
562.35	0.686
562.55	0.687
562.74	0.687
562.94	0.685
563.14	0.683
563.33	0.683
563.53	0.684
563.73	0.682
563.92	0.683
564.12	0.685
564.31	0.688
564.51	0.686
564.71	0.689
564.90	0.692
565.10	0.692
565.30	0.696
565.49	0.697
565.69	0.699
565.89	0.699
566.08	0.696
566.28	0.697
566.47	0.698
566.67	0.696
566.87	0.694
567.06	0.696
567.26	0.702
567.46	0.698
567.65	0.697
567.85	0.699
568.04	0.702
568.24	0.700
568.44	0.698
568.63	0.696
568.83	0.697
569.02	0.696
569.22	0.691
569.42	0.687
569.61	0.689
569.81	0.688
570.00	0.686
570.20	0.687
570.40	0.688
570.59	0.688
570.79	0.687
570.98	0.686
571.18	0.687
571.38	0.687
571.57	0.684
571.77	0.682
571.96	0.685
572.16	0.683
572.35	0.678
572.55	0.679
572.75	0.676
572.94	0.676
573.14	0.674
573.33	0.674
573.53	0.675
573.73	0.674
573.92	0.672
574.12	0.670
574.31	0.672
574.51	0.673
574.70	0.671
574.90	0.672
575.09	0.675
575.29	0.675
575.49	0.672
575.68	0.673
575.88	0.675
576.07	0.676
576.27	0.674
576.46	0.672
576.66	0.672
576.86	0.671
577.05	0.669
577.25	0.667
577.44	0.669
577.64	0.669
577.83	0.666
578.03	0.667
578.22	0.667
578.42	0.666
578.61	0.665
578.81	0.665
579.00	0.665
579.20	0.665
579.40	0.664
579.59	0.663
579.79	0.663
579.98	0.663
580.18	0.662
580.37	0.662
580.57	0.664
580.76	0.668
580.96	0.666
581.15	0.667
581.35	0.669
581.54	0.669
581.74	0.669
581.93	0.671
582.13	0.672
582.32	0.669
582.52	0.667
582.71	0.666
582.91	0.663
583.10	0.662
583.30	0.661
583.49	0.660
583.69	0.664
583.88	0.664
584.08	0.663
584.27	0.666
584.47	0.669
584.66	0.670
584.86	0.669
585.05	0.671
585.25	0.674
585.44	0.673
585.64	0.671
585.83	0.668
586.03	0.669
586.22	0.667
586.42	0.663
586.61	0.665
586.81	0.666
587.00	0.666
587.20	0.664
587.39	0.664
587.59	0.666
587.78	0.667
587.98	0.667
588.17	0.668
588.37	0.671
588.56	0.673
588.76	0.668
588.95	0.669
589.15	0.673
589.34	0.676
589.54	0.674
589.73	0.675
589.92	0.678
590.12	0.679
590.31	0.676
590.51	0.682
590.70	0.684
590.90	0.685
591.09	0.683
591.29	0.681
591.48	0.681
591.68	0.681
591.87	0.680
592.06	0.679
592.26	0.681
592.45	0.681
592.65	0.674
592.84	0.673
593.04	0.675
593.23	0.677
593.43	0.675
593.62	0.675
593.81	0.675
594.01	0.675
594.20	0.673
594.40	0.672
594.59	0.673
594.79	0.675
594.98	0.673
595.17	0.672
595.37	0.673
595.56	0.675
595.76	0.674
595.95	0.675
596.14	0.678
596.34	0.680
596.53	0.678
596.73	0.680
596.92	0.681
597.12	0.684
597.31	0.683
597.50	0.683
597.70	0.685
597.89	0.684
598.09	0.681
598.28	0.682
598.47	0.684
598.67	0.683
598.86	0.679
599.06	0.682
599.25	0.682
599.44	0.680
599.64	0.677
599.83	0.675
600.03	0.677
600.22	0.677
600.41	0.677
600.61	0.675
600.80	0.678
601.00	0.678
601.19	0.674
601.38	0.672
601.58	0.675
601.77	0.676
601.96	0.678
602.16	0.679
602.35	0.687
602.55	0.685
602.74	0.686
602.93	0.687
603.13	0.692
603.32	0.694
603.51	0.694
603.71	0.697
603.90	0.698
604.09	0.699
604.29	0.696
604.48	0.691
604.68	0.692
604.87	0.690
605.06	0.687
605.26	0.684
605.45	0.684
605.64	0.683
605.84	0.679
606.03	0.678
606.22	0.677
606.42	0.676
606.61	0.672
606.80	0.672
607.00	0.674
607.19	0.674
607.38	0.672
607.58	0.673
607.77	0.676
607.96	0.676
608.16	0.674
608.35	0.679
608.54	0.681
608.74	0.685
608.93	0.689
609.12	0.693
609.32	0.695
609.51	0.698
609.70	0.697
609.90	0.699
610.09	0.703
610.28	0.709
610.48	0.702
610.67	0.704
610.86	0.705
611.06	0.700
611.25	0.698
611.44	0.699
611.64	0.699
611.83	0.702
612.02	0.698
612.21	0.697
612.41	0.695
612.60	0.694
612.79	0.691
612.99	0.690
613.18	0.692
613.37	0.690
613.57	0.687
613.76	0.688
613.95	0.686
614.14	0.685
614.34	0.683
614.53	0.684
614.72	0.687
614.92	0.687
615.11	0.684
615.30	0.682
615.49	0.683
615.69	0.686
615.88	0.681
616.07	0.682
616.26	0.684
616.46	0.685
616.65	0.682
616.84	0.680
617.04	0.681
617.23	0.684
617.42	0.684
617.61	0.688
617.81	0.689
618.00	0.691
618.19	0.690
618.38	0.694
618.58	0.698
618.77	0.699
618.96	0.698
619.15	0.701
619.35	0.702
619.54	0.703
619.73	0.698
619.92	0.700
620.12	0.704
620.31	0.705
620.50	0.700
620.69	0.700
620.89	0.703
621.08	0.704
621.27	0.704
621.46	0.702
621.66	0.706
621.85	0.706
622.04	0.702
622.23	0.703
622.43	0.704
622.62	0.704
622.81	0.703
623.00	0.703
623.19	0.706
623.39	0.704
623.58	0.702
623.77	0.700
623.96	0.704
624.16	0.703
624.35	0.697
624.54	0.699
624.73	0.703
624.92	0.700
625.12	0.697
625.31	0.698
625.50	0.700
625.69	0.701
625.88	0.698
626.08	0.697
626.27	0.699
626.46	0.700
626.65	0.697
626.84	0.697
627.04	0.703
627.23	0.704
627.42	0.700
627.61	0.702
627.80	0.705
628.00	0.705
628.19	0.703
628.38	0.706
628.57	0.708
628.76	0.708
628.96	0.705
629.15	0.706
629.34	0.708
629.53	0.709
629.72	0.703
629.91	0.704
630.11	0.708
630.30	0.708
630.49	0.710
630.68	0.711
630.87	0.714
631.06	0.716
631.26	0.711
631.45	0.713
631.64	0.721
631.83	0.722
632.02	0.720
632.21	0.719
632.41	0.726
632.60	0.721
632.79	0.719
632.98	0.720
633.17	0.721
633.36	0.722
633.55	0.719
633.75	0.715
633.94	0.717
634.13	0.717
634.32	0.714
634.51	0.708
634.70	0.711
634.89	0.710
635.09	0.706
635.28	0.706
635.47	0.707
635.66	0.710
635.85	0.706
636.04	0.707
636.23	0.712
636.43	0.713
636.62	0.711
636.81	0.710
637.00	0.712
637.19	0.715
637.38	0.712
637.57	0.712
637.76	0.713
637.95	0.714
638.15	0.710
638.34	0.707
638.53	0.711
638.72	0.713
638.91	0.711
639.10	0.710
639.29	0.711
639.48	0.712
639.67	0.712
639.87	0.711
640.06	0.717
640.25	0.716
640.44	0.716
640.63	0.717
640.82	0.720
641.01	0.719
641.20	0.719
641.39	0.720
641.58	0.722
641.78	0.721
641.97	0.717
642.16	0.731
642.35	0.731
642.54	0.730
642.73	0.724
642.92	0.721
643.11	0.725
643.30	0.725
643.49	0.720
643.68	0.721
643.87	0.723
644.06	0.723
644.25	0.703
644.45	0.705
644.64	0.706
644.83	0.707
645.02	0.704
645.21	0.703
645.40	0.705
645.59	0.705
645.78	0.700
645.97	0.701
646.16	0.702
646.35	0.702
646.54	0.701
646.73	0.703
646.92	0.705
647.11	0.704
647.30	0.700
647.49	0.702
647.68	0.702
647.88	0.700
648.07	0.694
648.26	0.696
648.45	0.699
648.64	0.695
648.83	0.693
649.02	0.695
649.21	0.705
649.40	0.705
649.59	0.699
649.78	0.699
649.97	0.714
650.16	0.714
650.35	0.709
650.54	0.711
650.73	0.718
650.92	0.715
651.11	0.709
651.30	0.705
651.49	0.709
651.68	0.710
651.87	0.708
652.06	0.698
652.25	0.700
652.44	0.704
652.63	0.702
652.82	0.703
653.01	0.703
653.20	0.701
653.39	0.690
653.58	0.688
653.77	0.688
653.96	0.684
654.15	0.676
654.34	0.674
654.53	0.669
654.72	0.662
654.91	0.653
655.10	0.649
655.29	0.647
655.48	0.646
655.67	0.640
655.86	0.638
656.05	0.636
656.24	0.636
656.43	0.631
656.62	0.630
656.81	0.629
657.00	0.626
657.19	0.622
657.38	0.622
657.57	0.620
657.76	0.622
657.95	0.620
658.14	0.622
658.33	0.625
658.51	0.630
658.70	0.630
658.89	0.632
659.08	0.641
659.27	0.649
659.46	0.649
659.65	0.655
659.84	0.658
660.03	0.662
660.22	0.662
660.41	0.666
660.60	0.665
660.79	0.667
660.98	0.673
661.17	0.672
661.36	0.671
661.55	0.672
661.74	0.669
661.92	0.673
662.11	0.675
662.30	0.674
662.49	0.667
662.68	0.666
662.87	0.669
663.06	0.663
663.25	0.664
663.44	0.664
663.63	0.665
663.82	0.664
664.01	0.659
664.20	0.658
664.38	0.659
664.57	0.660
664.76	0.660
664.95	0.661
665.14	0.665
665.33	0.660
665.52	0.667
665.71	0.671
665.90	0.671
666.09	0.672
666.28	0.670
666.46	0.669
666.65	0.669
666.84	0.668
667.03	0.662
667.22	0.660
667.41	0.662
667.60	0.653
667.79	0.646
667.98	0.648
668.16	0.649
668.35	0.649
668.54	0.645
668.73	0.646
668.92	0.647
669.11	0.646
669.30	0.641
669.49	0.637
669.67	0.639
669.86	0.641
670.05	0.639
670.24	0.637
670.43	0.634
670.62	0.633
670.81	0.629
671.00	0.630
671.18	0.629
671.37	0.628
671.56	0.627
671.75	0.626
671.94	0.623
672.13	0.620
672.32	0.616
672.50	0.615
672.69	0.615
672.88	0.616
673.07	0.611
673.26	0.613
673.45	0.614
673.63	0.614
673.82	0.610
674.01	0.612
674.20	0.612
674.39	0.611
674.58	0.611
674.76	0.611
674.95	0.610
675.14	0.610
675.33	0.606
675.52	0.604
675.71	0.604
675.89	0.603
676.08	0.599
676.27	0.599
676.46	0.599
676.65	0.599
676.84	0.598
677.02	0.599
677.21	0.601
677.40	0.600
677.59	0.598
677.78	0.598
677.96	0.600
678.15	0.600
678.34	0.598
678.53	0.598
678.72	0.598
678.90	0.594
679.09	0.590
679.28	0.587
679.47	0.588
679.66	0.588
679.84	0.585
680.03	0.583
680.22	0.582
680.41	0.584
680.60	0.581
680.78	0.580
680.97	0.582
681.16	0.583
681.35	0.581
681.53	0.580
681.72	0.581
681.91	0.583
682.10	0.582
682.29	0.584
682.47	0.581
682.66	0.581
682.85	0.579
683.04	0.578
683.22	0.577
683.41	0.579
683.60	0.578
683.79	0.579
683.97	0.578
684.16	0.576
684.35	0.573
684.54	0.574
684.72	0.574
684.91	0.574
685.10	0.573
685.29	0.574
685.47	0.571
685.66	0.570
685.85	0.567
686.04	0.566
686.22	0.568
686.41	0.571
686.60	0.568
686.79	0.571
686.97	0.572
687.16	0.573
687.35	0.570
687.54	0.574
687.72	0.577
687.91	0.576
688.10	0.578
688.29	0.578
688.47	0.577
688.66	0.576
688.85	0.572
689.03	0.569
689.22	0.574
689.41	0.575
689.60	0.570
689.78	0.568
689.97	0.569
690.16	0.566
690.34	0.563
690.53	0.563
690.72	0.563
690.91	0.561
691.09	0.560
691.28	0.554
691.47	0.552
691.65	0.551
691.84	0.549
692.03	0.548
692.21	0.545
692.40	0.545
692.59	0.542
692.77	0.542
692.96	0.543
693.15	0.543
693.34	0.541
693.52	0.540
693.71	0.540
693.90	0.542
694.08	0.542
694.27	0.544
694.46	0.553
694.64	0.554
694.83	0.553
695.02	0.552
695.20	0.552
695.39	0.551
695.58	0.551
695.76	0.552
695.95	0.551
696.14	0.550
696.32	0.548
696.51	0.538
696.70	0.538
696.88	0.539
697.07	0.538
697.26	0.539
697.44	0.540
697.63	0.539
697.81	0.538
698.00	0.538
698.19	0.537
698.37	0.537
698.56	0.536
698.75	0.536
698.93	0.536
699.12	0.535
699.31	0.534
699.49	0.534
699.68	0.534
699.87	0.537
700.05	0.536
700.24	0.535
700.42	0.538
700.61	0.537
700.80	0.536
700.98	0.536
701.17	0.537
701.36	0.537
701.54	0.536
701.73	0.537
701.91	0.535
702.10	0.535
702.29	0.533
702.47	0.532
702.66	0.533
702.84	0.533
703.03	0.531
703.22	0.532
703.40	0.531
703.59	0.533
703.77	0.532
703.96	0.532
704.15	0.532
704.33	0.532
704.52	0.532
704.70	0.531
704.89	0.532
705.08	0.531
705.26	0.527
705.45	0.527
705.63	0.527
705.82	0.524
706.00	0.523
706.19	0.523
706.38	0.522
706.56	0.521
706.75	0.519
706.93	0.517
707.12	0.518
707.30	0.519
707.49	0.517
707.68	0.515
707.86	0.514
708.05	0.514
708.23	0.511
708.42	0.512
708.60	0.515
708.79	0.515
708.98	0.514
709.16	0.513
709.35	0.515
709.53	0.518
709.72	0.518
709.90	0.519
710.09	0.521
710.27	0.523
710.46	0.526
710.64	0.525
710.83	0.527
711.02	0.528
711.20	0.527
711.39	0.525
711.57	0.523
711.76	0.523
711.94	0.522
712.13	0.524
712.31	0.524
712.50	0.519
712.68	0.517
712.87	0.518
713.05	0.518
713.24	0.519
713.42	0.517
713.61	0.518
713.79	0.518
713.98	0.518
714.16	0.518
714.35	0.518
714.54	0.519
714.72	0.519
714.91	0.516
715.09	0.523
715.28	0.526
715.46	0.526
715.65	0.524
715.83	0.524
716.02	0.526
716.20	0.523
716.39	0.522
716.57	0.523
716.76	0.525
716.94	0.526
717.12	0.518
717.31	0.519
717.49	0.522
717.68	0.523
717.86	0.523
718.05	0.525
718.23	0.527
718.42	0.530
718.60	0.531
718.79	0.538
718.97	0.540
719.16	0.539
719.34	0.537
719.53	0.536
719.71	0.536
719.90	0.537
720.08	0.534
720.27	0.534
720.45	0.533
720.63	0.532
720.82	0.526
721.00	0.529
721.19	0.533
721.37	0.532
721.56	0.532
721.74	0.535
721.93	0.544
722.11	0.551
722.30	0.551
722.48	0.556
722.66	0.557
722.85	0.558
723.03	0.558
723.22	0.556
723.40	0.559
723.59	0.559
723.77	0.563
723.95	0.556
724.14	0.557
724.32	0.558
724.51	0.557
724.69	0.558
724.88	0.558
725.06	0.557
725.24	0.558
725.43	0.559
725.61	0.562
725.80	0.556
725.98	0.554
726.16	0.552
726.35	0.557
726.53	0.557
726.72	0.555
726.90	0.565
727.09	0.565
727.27	0.570
727.45	0.567
727.64	0.576
727.82	0.585
728.01	0.589
728.19	0.586
728.37	0.591
728.56	0.595
728.74	0.603
728.92	0.591
729.11	0.593
729.29	0.592
729.48	0.594
729.66	0.583
729.84	0.582
730.03	0.586
730.21	0.587
730.40	0.578
730.58	0.579
730.76	0.578
730.95	0.581
731.13	0.581
731.31	0.594
731.50	0.602
731.68	0.606
731.86	0.604
732.05	0.617
732.23	0.622
732.42	0.625
732.60	0.628
732.78	0.633
732.97	0.651
733.15	0.656
733.33	0.645
733.52	0.654
733.70	0.662
733.88	0.671
734.07	0.657
734.25	0.681
734.43	0.688
734.62	0.690
734.80	0.684
734.98	0.675
735.17	0.682
735.35	0.688
735.53	0.675
735.72	0.679
735.90	0.698
736.08	0.715
736.27	0.694
736.45	0.702
736.63	0.712
736.82	0.723
737.00	0.722
737.18	0.732
737.37	0.760
737.55	0.783
737.73	0.776
737.92	0.779
738.10	0.776
738.28	0.794
738.46	0.782
738.65	0.795
738.83	0.812
739.01	0.864
739.20	0.855
739.38	0.838
739.56	0.829
739.75	0.836
739.93	0.804
740.11	0.826
740.29	0.826
740.48	0.833
740.66	0.816
740.84	0.814
741.03	0.781
741.21	0.791
741.39	0.776
741.57	0.784
741.76	0.795
741.94	0.802
742.12	0.770
742.31	0.775
742.49	0.794
742.67	0.814
742.85	0.824
743.04	0.826
743.22	0.833
743.40	0.882
743.58	0.869
743.77	0.885
743.95	0.914
744.13	0.961
744.31	0.941
744.50	0.932
744.68	0.929
744.86	0.906
745.04	0.914
745.23	0.970
745.41	0.950
745.59	0.955
745.77	0.926
745.96	0.918
746.14	0.923
746.32	0.922
746.50	0.917
746.69	0.902
746.87	0.909
747.05	0.900
747.23	0.834
747.42	0.819
747.60	0.839
747.78	0.842
747.96	0.863
748.14	0.827
748.33	0.851
748.51	0.848
748.69	0.841
748.87	0.866
749.06	0.855
749.24	0.856
749.42	0.848
749.60	0.833
749.78	0.840
749.97	0.803
750.15	0.796
750.33	0.798
750.51	0.817
750.69	0.820
750.88	0.826
751.06	0.838
751.24	0.857
751.42	0.847
751.60	0.845
751.79	0.914
751.97	0.951
752.15	0.952
752.33	0.925
752.51	0.987
752.69	1.005
752.88	0.970
753.06	1.007
753.24	0.987
753.42	1.022
753.60	1.163
753.78	1.029
753.97	1.046
754.15	1.061
754.33	1.087
754.51	0.979
754.69	0.960
754.87	0.990
755.06	0.929
755.24	0.932
755.42	0.936
755.60	0.849
755.78	0.859
755.96	0.811
756.15	0.810
756.33	0.814
756.51	0.830
756.69	0.822
756.87	0.789
757.05	0.812
757.23	0.797
757.42	0.767
757.60	0.764
757.78	0.755
757.96	0.754
758.14	0.739
758.32	0.725
758.50	0.736
758.69	0.733
758.87	0.728
759.05	0.730
759.23	0.738
759.41	0.741
759.59	0.737
759.77	0.756
759.95	0.777
760.13	0.825
760.32	0.825
760.50	0.820
760.68	0.842
760.86	0.842
761.04	0.819
761.22	0.821
761.40	0.864
761.58	0.862
761.76	0.838
761.95	0.824
762.13	0.780
762.31	0.782
762.49	0.755
762.67	0.769
762.85	0.779
763.03	0.773
763.21	0.759
763.39	0.743
763.57	0.743
763.75	0.736
763.94	0.721
764.12	0.724
764.30	0.744
764.48	0.748
764.66	0.718
764.84	0.718
765.02	0.752
765.20	0.758
765.38	0.740
765.56	0.748
765.74	0.786
765.92	0.788
766.10	0.794
766.28	0.788
766.46	0.815
766.65	0.816
766.83	0.806
767.01	0.791
767.19	0.797
767.37	0.796
767.55	0.785
767.73	0.768
767.91	0.772
768.09	0.760
768.27	0.751
768.45	0.740
768.63	0.743
768.81	0.744
768.99	0.719
769.17	0.742
769.35	0.755
769.53	0.755
769.71	0.737
769.89	0.745
770.07	0.752
770.25	0.736
770.43	0.718
770.61	0.738
770.79	0.743
770.97	0.752
771.15	0.723
771.33	0.726
771.51	0.727
771.69	0.738
771.87	0.744
772.05	0.746
772.24	0.751
772.42	0.757
772.60	0.740
772.78	0.795
772.96	0.818
773.14	0.816
773.32	0.796
773.49	0.803
773.67	0.800
773.85	0.782
774.03	0.774
774.21	0.802
774.39	0.812
774.57	0.832
774.75	0.766
774.93	0.764
775.11	0.783
775.29	0.790
775.47	0.790
775.65	0.798
775.83	0.810
776.01	0.829
776.19	0.789
776.37	0.792
776.55	0.792
776.73	0.787
776.91	0.781
777.09	0.763
777.27	0.758
777.45	0.747
777.63	0.728
777.81	0.726
777.99	0.715
778.17	0.715
778.35	0.696
778.53	0.684
778.71	0.689
778.89	0.678
779.07	0.670
779.24	0.678
779.42	0.681
779.60	0.698
779.78	0.696
779.96	0.700
780.14	0.706
780.32	0.727
780.50	0.712
780.68	0.710
780.86	0.704
781.04	0.722
781.22	0.724
781.40	0.734
781.58	0.725
781.75	0.716
781.93	0.700
782.11	0.698
782.29	0.683
782.47	0.680
782.65	0.671
782.83	0.693
783.01	0.684
783.19	0.678
783.37	0.662
783.55	0.664
783.72	0.681
783.90	0.690
784.08	0.685
784.26	0.698
784.44	0.718
784.62	0.721
784.80	0.692
784.98	0.700
785.16	0.706
785.33	0.720
785.51	0.708
785.69	0.697
785.87	0.697
786.05	0.710
786.23	0.706
786.41	0.703
786.59	0.710
786.77	0.711
786.94	0.700
787.12	0.703
787.30	0.703
787.48	0.702
787.66	0.689
787.84	0.690
788.02	0.679
788.19	0.676
788.37	0.663
788.55	0.664
788.73	0.665
788.91	0.658
789.09	0.642
789.27	0.633
789.44	0.644
789.62	0.649
789.80	0.657
789.98	0.679
790.16	0.667
790.34	0.664
790.51	0.653
790.69	0.669
790.87	0.674
791.05	0.673
791.23	0.666
791.41	0.668
791.58	0.674
791.76	0.654
791.94	0.626
792.12	0.633
792.30	0.634
792.48	0.631
792.65	0.627
792.83	0.635
793.01	0.641
793.19	0.640
793.37	0.625
793.54	0.622
793.72	0.633
793.90	0.633
794.08	0.624
794.26	0.625
794.43	0.635
794.61	0.619
794.79	0.606
794.97	0.606
795.15	0.610
795.32	0.614
795.50	0.604
795.68	0.598
795.86	0.601
796.04	0.604
796.21	0.597
796.39	0.596
796.57	0.609
796.75	0.617
796.92	0.617
797.10	0.622
797.28	0.623
797.46	0.626
797.64	0.629
797.81	0.636
797.99	0.637
798.17	0.641
798.35	0.634
798.52	0.637
798.70	0.632
798.88	0.641
799.06	0.641
799.23	0.645
799.41	0.653
799.59	0.647
799.77	0.637
799.94	0.645
800.12	0.653
800.30	0.670
800.48	0.670
800.65	0.670
800.83	0.660
801.01	0.651
801.19	0.651
801.36	0.645
801.54	0.647
801.72	0.657
801.90	0.646
802.07	0.643
802.25	0.630
802.43	0.614
802.60	0.612
802.78	0.620
802.96	0.625
803.14	0.618
803.31	0.619
803.49	0.618
803.67	0.614
803.84	0.618
804.02	0.610
804.20	0.614
804.38	0.620
804.55	0.619
804.73	0.604
804.91	0.604
805.08	0.616
805.26	0.614
805.44	0.678
805.61	0.681
805.79	0.681
805.97	0.682
806.15	0.673
806.32	0.666
806.50	0.671
806.68	0.671
806.85	0.664
807.03	0.654
807.21	0.670
807.38	0.605
807.56	0.596
807.74	0.604
807.91	0.609
808.09	0.611
808.27	0.628
808.44	0.652
808.62	0.660
808.80	0.662
808.97	0.657
809.15	0.650
809.33	0.665
809.50	0.673
809.68	0.660
809.86	0.668
810.03	0.698
810.21	0.682
810.39	0.667
810.56	0.673
810.74	0.696
810.91	0.766
811.09	0.755
811.27	0.777
811.44	0.780
811.62	0.783
811.80	0.768
811.97	0.738
812.15	0.738
812.33	0.731
812.50	0.719
812.68	0.705
812.85	0.650
813.03	0.653
813.21	0.623
813.38	0.618
813.56	0.620
813.74	0.628
813.91	0.634
814.09	0.660
814.26	0.651
814.44	0.655
814.62	0.646
814.79	0.648
814.97	0.652
815.14	0.656
815.32	0.659
815.50	0.674
815.67	0.676
815.85	0.668
816.02	0.660
816.20	0.669
816.38	0.681
816.55	0.687
816.73	0.688
816.90	0.698
817.08	0.725
817.26	0.731
817.43	0.711
817.61	0.734
817.78	0.750
817.96	0.730
818.13	0.722
818.31	0.723
818.49	0.734
818.66	0.723
818.84	0.709
819.01	0.689
819.19	0.694
819.36	0.696
819.54	0.670
819.71	0.709
819.89	0.721
820.07	0.732
820.24	0.726
820.42	0.725
820.59	0.744
820.77	0.767
820.94	0.762
821.12	0.781
821.29	0.794
821.47	0.793
821.64	0.736
821.82	0.748
822.00	0.744
822.17	0.743
822.35	0.740
822.52	0.742
822.70	0.732
822.87	0.733
823.05	0.712
823.22	0.723
823.40	0.747
823.57	0.767
823.75	0.748
823.92	0.774
824.10	0.789
824.27	0.823
824.45	0.811
824.62	0.867
824.80	0.893
824.97	0.904
825.15	0.897
825.32	0.917
825.50	0.920
825.67	0.931
825.85	0.900
826.02	0.913
826.20	0.929
826.37	1.042
826.55	0.964
826.72	1.121
826.90	1.176
827.07	1.207
827.25	1.149
827.42	1.268
827.60	1.361
827.77	1.498
827.95	1.477
828.12	1.572
828.30	1.298
828.47	1.401
828.65	1.121
828.82	1.168
829.00	1.217
829.17	1.288
829.34	1.284
829.52	1.307
829.69	-0.000
829.87	-0.000
830.04	-0.000
830.22	-0.000
830.39	-0.000
830.57	-0.000
830.74	-0.000
830.92	-0.000
831.09	-0.000
831.26	-0.000
831.44	-0.000
831.61	-0.000
831.79	-0.000
831.96	-0.000
832.14	-0.000
832.31	-0.000
832.49	-0.000
832.66	-0.000
832.83	-0.000
833.01	-0.000
833.18	-0.000
833.36	-0.000
833.53	-0.000
833.70	-0.000
833.88	-0.000
834.05	-0.000
834.23	-0.000
834.40	-0.000
834.58	-0.000
834.75	-0.000
834.92	-0.000
835.10	-0.000
835.27	-0.000
835.45	-0.000
835.62	-0.000
835.79	-0.000
835.97	-0.000
836.14	-0.000
836.32	-0.000
836.49	-0.000
836.66	-0.000
836.84	-0.000
837.01	-0.000
837.18	-0.000
837.36	-0.000
837.53	-0.000
837.71	-0.000
837.88	-0.000
838.05	-0.000
838.23	-0.000
838.40	-0.000
838.58	-0.000
838.75	-0.000
838.92	-0.000
839.10	-0.000
839.27	-0.000
839.44	-0.000
839.62	-0.000
839.79	-0.000
839.96	-0.000
840.14	-0.000
840.31	-0.000
840.48	-0.000
840.66	-0.000
840.83	-0.000
841.01	-0.000
841.18	-0.000
841.35	-0.000
841.53	-0.000
841.70	-0.000
841.87	-0.000
842.05	-0.000
842.22	-0.000
842.39	-0.000
842.57	-0.000
842.74	-0.000
842.91	-0.000
843.09	-0.000
843.26	-0.000
843.43	-0.000
843.60	-0.000
843.78	-0.000
843.95	-0.000
844.12	-0.000
844.30	-0.000
844.47	-0.000
844.64	-0.000
844.82	-0.000
844.99	-0.000
845.16	-0.000
845.34	-0.000
845.51	-0.000
845.68	-0.000
845.85	-0.000
846.03	-0.000
846.20	-0.000
846.37	-0.000
846.55	-0.000
846.72	-0.000
846.89	-0.000
847.06	-0.000
847.24	-0.000
847.41	-0.000
847.58	-0.000
847.76	-0.000
847.93	-0.000
848.10	-0.000
848.27	-0.000
848.45	-0.000
848.62	-0.000
848.79	-0.000
848.97	-0.000
849.14	-0.000
849.31	-0.000
849.48	-0.000
849.66	-0.000
849.83	-0.000
850.00	-0.000
850.17	-0.000
850.35	-0.000
850.52	-0.000
850.69	-0.000
850.86	-0.000
851.04	-0.000
851.21	-0.000
851.38	-0.000
851.55	-0.000
851.72	-0.000
851.90	-0.000
852.07	-0.000
852.24	-0.000
852.41	-0.000
852.59	-0.000
852.76	-0.000
852.93	-0.000
853.10	-0.000
853.28	-0.000
853.45	-0.000
853.62	-0.000
853.79	-0.000
853.96	-0.000
854.14	-0.000
854.31	-0.000
854.48	-0.000
854.65	-0.000
854.82	-0.000
855.00	-0.000
855.17	-0.000
855.34	-0.000
855.51	-0.000
855.68	-0.000
855.86	-0.000
856.03	-0.000
856.20	-0.000
856.37	-0.000
856.54	-0.000
856.72	-0.000
856.89	-0.000
857.06	-0.000
857.23	-0.000
857.40	-0.000
857.57	-0.000
857.75	-0.000
857.92	-0.000
858.09	-0.000
858.26	-0.000
858.43	-0.000
858.60	-0.000
858.78	-0.000
858.95	-0.000
859.12	-0.000
859.29	-0.000
859.46	-0.000
859.63	-0.000
859.81	-0.000
859.98	-0.000
860.15	-0.000
860.32	-0.000
860.49	-0.000
860.66	-0.000
860.83	-0.000
861.01	-0.000
861.18	-0.000
861.35	-0.000
861.52	-0.000
861.69	-0.000
861.86	-0.000
862.03	-0.000
862.21	-0.000
862.38	-0.000
862.55	-0.000
862.72	-0.000
862.89	-0.000
863.06	-0.000
863.23	-0.000
863.40	-0.000
863.58	-0.000
863.75	-0.000
863.92	-0.000
864.09	-0.000
864.26	-0.000
864.43	-0.000
864.60	-0.000
864.77	-0.000
864.94	-0.000
865.11	-0.000
865.29	-0.000
865.46	-0.000
865.63	-0.000
865.80	-0.000
865.97	-0.000
866.14	-0.000
866.31	-0.000
866.48	-0.000
866.65	-0.000
866.82	-0.000
866.99	-0.000
867.16	-0.000
867.34	-0.000
867.51	-0.000
867.68	-0.000
867.85	-0.000
868.02	-0.000
868.19	-0.000
868.36	-0.000
868.53	-0.000
868.70	-0.000
868.87	-0.000
869.04	-0.000
869.21	-0.000
869.38	-0.000
869.55	-0.000
869.72	-0.000
869.89	-0.000
870.06	-0.000
870.24	-0.000
870.41	-0.000
870.58	-0.000
870.75	-0.000
870.92	-0.000
871.09	-0.000
871.26	-0.000
871.43	-0.000
871.60	-0.000
871.77	-0.000
871.94	-0.000
872.11	-0.000
872.28	-0.000
872.45	-0.000
872.62	-0.000
872.79	-0.000
872.96	-0.000
873.13	-0.000
873.30	-0.000
873.47	-0.000
873.64	-0.000
873.81	-0.000
873.98	-0.000
874.15	-0.000
874.32	-0.000
874.49	-0.000
874.66	-0.000
874.83	-0.000
875.00	-0.000
875.17	-0.000
875.34	-0.000
875.51	-0.000
875.68	-0.000
875.85	-0.000
876.02	-0.000
876.19	-0.000
876.36	-0.000
876.53	-0.000
876.70	-0.000
876.87	-0.000
877.04	-0.000
877.21	-0.000
877.38	-0.000
877.55	-0.000
877.72	-0.000
877.89	-0.000
878.06	-0.000
878.23	-0.000
878.39	-0.000
878.56	-0.000
878.73	-0.000
878.90	-0.000
879.07	-0.000
879.24	-0.000
879.41	-0.000
879.58	-0.000
879.75	-0.000
879.92	-0.000
880.09	-0.000
880.26	-0.000
880.43	-0.000
880.60	-0.000
880.77	-0.000
880.94	-0.000
881.11	-0.000
881.27	-0.000
881.44	-0.000
881.61	-0.000
881.78	-0.000
881.95	-0.000
882.12	-0.000
882.29	-0.000
882.46	-0.000
882.63	-0.000
882.80	-0.000
882.97	-0.000
883.14	-0.000
883.30	-0.000
883.47	-0.000
883.64	-0.000
883.81	-0.000
883.98	-0.000
884.15	-0.000
884.32	-0.000
884.49	-0.000
884.66	-0.000
884.82	-0.000
884.99	-0.000
885.16	-0.000
885.33	-0.000
885.50	-0.000
885.67	-0.000
885.84	-0.000
886.01	-0.000
886.17	-0.000
886.34	-0.000
886.51	-0.000
886.68	-0.000
886.85	-0.000
887.02	-0.000
887.19	-0.000
887.36	-0.000
887.52	-0.000
887.69	-0.000
887.86	-0.000
888.03	-0.000
888.20	-0.000
888.37	-0.000
888.54	-0.000
888.70	-0.000
888.87	-0.000
889.04	-0.000
889.21	-0.000
889.38	-0.000
889.55	-0.000
889.71	-0.000
889.88	-0.000
890.05	-0.000
890.22	-0.000
890.39	-0.000
>>>>>End Processed Spectral Data<<<<<
