SpectraSuite Data File
++++++++++++++++++++++++++++++++++++
Date: Fri Jun 19 11:42:37 CEST 2015
User: introlabs
Dark Spectrum Present: Yes
Reference Spectrum Present: Yes
Number of Sampled Component Spectra: 1
Spectrometers: USB4H08886
Integration Time (usec): 5245692 (USB4H08886)
Spectra Averaged: 5 (USB4H08886)
Boxcar Smoothing: 5 (USB4H08886)
Correct for Electrical Dark: Yes (USB4H08886)
Strobe/Lamp Enabled: No (USB4H08886)
Correct for Detector Non-linearity: Yes (USB4H08886)
Correct for Stray Light: Yes (USB4H08886)
Number of Pixels in Processed Spectrum: 3648
>>>>>Begin Processed Spectral Data<<<<<
178.14	-0.000
178.36	-0.000
178.57	-0.000
178.79	-0.000
179.01	-0.000
179.22	-0.000
179.44	-0.000
179.65	-0.000
179.87	-0.000
180.08	-0.000
180.30	-0.000
180.52	-0.000
180.73	-0.000
180.95	-0.000
181.16	-0.000
181.38	-0.000
181.59	-0.000
181.81	-0.000
182.03	-0.000
182.24	-0.000
182.46	-0.000
182.67	-0.000
182.89	-0.000
183.10	-0.000
183.32	-0.000
183.54	-0.000
183.75	-0.000
183.97	-0.000
184.18	-0.000
184.40	-0.000
184.61	-0.000
184.83	-0.000
185.04	-0.000
185.26	-0.000
185.48	-0.000
185.69	-0.000
185.91	-0.000
186.12	-0.000
186.34	-0.000
186.55	-0.000
186.77	-0.000
186.98	-0.000
187.20	-0.000
187.42	-0.000
187.63	-0.000
187.85	-0.000
188.06	-0.000
188.28	-0.000
188.49	-0.000
188.71	-0.000
188.92	-0.000
189.14	-0.000
189.36	-0.000
189.57	-0.000
189.79	-0.000
190.00	-0.000
190.22	-0.000
190.43	-0.000
190.65	-0.000
190.86	-0.000
191.08	-0.000
191.29	-0.000
191.51	-0.000
191.72	-0.000
191.94	-0.000
192.16	-0.000
192.37	-0.000
192.59	-0.000
192.80	-0.000
193.02	-0.000
193.23	-0.000
193.45	-0.000
193.66	-0.000
193.88	-0.000
194.09	-0.000
194.31	-0.000
194.52	-0.000
194.74	-0.000
194.95	-0.000
195.17	-0.000
195.38	-0.000
195.60	-0.000
195.81	-0.000
196.03	-0.000
196.25	-0.000
196.46	-0.000
196.68	-0.000
196.89	-0.000
197.11	-0.000
197.32	-0.000
197.54	-0.000
197.75	-0.000
197.97	-0.000
198.18	-0.000
198.40	-0.000
198.61	-0.000
198.83	-0.000
199.04	-0.000
199.26	-0.000
199.47	-0.000
199.69	-0.000
199.90	-0.000
200.12	-0.000
200.33	-0.000
200.55	-0.000
200.76	-0.000
200.98	-0.000
201.19	-0.000
201.41	-0.000
201.62	-0.000
201.84	-0.000
202.05	-0.000
202.27	-0.000
202.48	-0.000
202.70	-0.000
202.91	-0.000
203.13	-0.000
203.34	-0.000
203.56	-0.000
203.77	-0.000
203.99	-0.000
204.20	-0.000
204.42	-0.000
204.63	-0.000
204.85	-0.000
205.06	-0.000
205.28	-0.000
205.49	-0.000
205.71	-0.000
205.92	-0.000
206.14	-0.000
206.35	-0.000
206.56	-0.000
206.78	-0.000
206.99	-0.000
207.21	-0.000
207.42	-0.000
207.64	-0.000
207.85	-0.000
208.07	-0.000
208.28	-0.000
208.50	-0.000
208.71	-0.000
208.93	-0.000
209.14	-0.000
209.36	-0.000
209.57	-0.000
209.79	-0.000
210.00	-0.000
210.22	-0.000
210.43	-0.000
210.64	-0.000
210.86	-0.000
211.07	-0.000
211.29	-0.000
211.50	-0.000
211.72	-0.000
211.93	-0.000
212.15	-0.000
212.36	-0.000
212.58	-0.000
212.79	-0.000
213.01	-0.000
213.22	-0.000
213.43	-0.000
213.65	-0.000
213.86	-0.000
214.08	-0.000
214.29	-0.000
214.51	-0.000
214.72	-0.000
214.94	-0.000
215.15	-0.000
215.36	-0.000
215.58	-0.000
215.79	-0.000
216.01	-0.000
216.22	-0.000
216.44	-0.000
216.65	-0.000
216.87	-0.000
217.08	-0.000
217.29	-0.000
217.51	-0.000
217.72	-0.000
217.94	-0.000
218.15	-0.000
218.37	-0.000
218.58	-0.000
218.80	-0.000
219.01	-0.000
219.22	-0.000
219.44	-0.000
219.65	-0.000
219.87	-0.000
220.08	-0.000
220.30	-0.000
220.51	-0.000
220.72	-0.000
220.94	-0.000
221.15	-0.000
221.37	-0.000
221.58	-0.000
221.79	-0.000
222.01	-0.000
222.22	-0.000
222.44	-0.000
222.65	-0.000
222.87	-0.000
223.08	-0.000
223.29	-0.000
223.51	-0.000
223.72	-0.000
223.94	-0.000
224.15	-0.000
224.36	-0.000
224.58	-0.000
224.79	-0.000
225.01	-0.000
225.22	-0.000
225.44	-0.000
225.65	-0.000
225.86	-0.000
226.08	-0.000
226.29	-0.000
226.51	-0.000
226.72	-0.000
226.93	-0.000
227.15	-0.000
227.36	-0.000
227.58	-0.000
227.79	-0.000
228.00	-0.000
228.22	-0.000
228.43	-0.000
228.65	-0.000
228.86	-0.000
229.07	-0.000
229.29	-0.000
229.50	-0.000
229.72	-0.000
229.93	-0.000
230.14	-0.000
230.36	-0.000
230.57	-0.000
230.78	-0.000
231.00	-0.000
231.21	-0.000
231.43	-0.000
231.64	-0.000
231.85	-0.000
232.07	-0.000
232.28	-0.000
232.50	-0.000
232.71	-0.000
232.92	-0.000
233.14	-0.000
233.35	-0.000
233.56	-0.000
233.78	-0.000
233.99	-0.000
234.21	-0.000
234.42	-0.000
234.63	-0.000
234.85	-0.000
235.06	-0.000
235.27	-0.000
235.49	-0.000
235.70	-0.000
235.91	-0.000
236.13	-0.000
236.34	-0.000
236.56	-0.000
236.77	-0.000
236.98	-0.000
237.20	-0.000
237.41	-0.000
237.62	-0.000
237.84	-0.000
238.05	-0.000
238.26	-0.000
238.48	-0.000
238.69	-0.000
238.91	-0.000
239.12	-0.000
239.33	-0.000
239.55	-0.000
239.76	-0.000
239.97	-0.000
240.19	-0.000
240.40	-0.000
240.61	-0.000
240.83	-0.000
241.04	-0.000
241.25	-0.000
241.47	-0.000
241.68	-0.000
241.89	-0.000
242.11	-0.000
242.32	-0.000
242.53	-0.000
242.75	-0.000
242.96	-0.000
243.17	-0.000
243.39	-0.000
243.60	-0.000
243.81	-0.000
244.03	-0.000
244.24	-0.000
244.45	-0.000
244.67	-0.000
244.88	-0.000
245.09	-0.000
245.31	-0.000
245.52	-0.000
245.73	-0.000
245.95	-0.000
246.16	-0.000
246.37	-0.000
246.59	-0.000
246.80	-0.000
247.01	-0.000
247.23	-0.000
247.44	-0.000
247.65	-0.000
247.87	-0.000
248.08	-0.000
248.29	-0.000
248.51	-0.000
248.72	-0.000
248.93	-0.000
249.15	-0.000
249.36	-0.000
249.57	-0.000
249.78	-0.000
250.00	-0.000
250.21	-0.000
250.42	-0.000
250.64	-0.000
250.85	-0.000
251.06	-0.000
251.28	-0.000
251.49	-0.000
251.70	-0.000
251.92	-0.000
252.13	-0.000
252.34	-0.000
252.55	-0.000
252.77	-0.000
252.98	-0.000
253.19	-0.000
253.41	-0.000
253.62	-0.000
253.83	-0.000
254.05	-0.000
254.26	-0.000
254.47	-0.000
254.68	-0.000
254.90	-0.000
255.11	-0.000
255.32	-0.000
255.54	-0.000
255.75	-0.000
255.96	-0.000
256.17	-0.000
256.39	-0.000
256.60	-0.000
256.81	-0.000
257.03	-0.000
257.24	-0.000
257.45	-0.000
257.66	-0.000
257.88	-0.000
258.09	-0.000
258.30	-0.000
258.51	-0.000
258.73	-0.000
258.94	-0.000
259.15	-0.000
259.37	-0.000
259.58	-0.000
259.79	-0.000
260.00	-0.000
260.22	-0.000
260.43	-0.000
260.64	-0.000
260.85	-0.000
261.07	-0.000
261.28	-0.000
261.49	-0.000
261.71	-0.000
261.92	-0.000
262.13	-0.000
262.34	-0.000
262.56	-0.000
262.77	-0.000
262.98	-0.000
263.19	-0.000
263.41	-0.000
263.62	-0.000
263.83	-0.000
264.04	-0.000
264.26	-0.000
264.47	-0.000
264.68	-0.000
264.89	-0.000
265.11	-0.000
265.32	-0.000
265.53	-0.000
265.74	-0.000
265.96	-0.000
266.17	-0.000
266.38	-0.000
266.59	-0.000
266.81	-0.000
267.02	-0.000
267.23	-0.000
267.44	-0.000
267.65	-0.000
267.87	-0.000
268.08	-0.000
268.29	-0.000
268.50	-0.000
268.72	-0.000
268.93	-0.000
269.14	-0.000
269.35	-0.000
269.57	-0.000
269.78	-0.000
269.99	-0.000
270.20	-0.000
270.41	-0.000
270.63	-0.000
270.84	-0.000
271.05	-0.000
271.26	-0.000
271.48	-0.000
271.69	-0.000
271.90	-0.000
272.11	-0.000
272.32	-0.000
272.54	-0.000
272.75	-0.000
272.96	-0.000
273.17	-0.000
273.39	-0.000
273.60	-0.000
273.81	-0.000
274.02	-0.000
274.23	-0.000
274.45	-0.000
274.66	-0.000
274.87	-0.000
275.08	-0.000
275.29	-0.000
275.51	-0.000
275.72	-0.000
275.93	-0.000
276.14	-0.000
276.35	-0.000
276.57	-0.000
276.78	-0.000
276.99	-0.000
277.20	-0.000
277.41	-0.000
277.63	-0.000
277.84	-0.000
278.05	-0.000
278.26	-0.000
278.47	-0.000
278.69	-0.000
278.90	-0.000
279.11	-0.000
279.32	-0.000
279.53	-0.000
279.74	-0.000
279.96	-0.000
280.17	-0.000
280.38	-0.000
280.59	-0.000
280.80	-0.000
281.02	-0.000
281.23	-0.000
281.44	-0.000
281.65	-0.000
281.86	-0.000
282.07	-0.000
282.29	-0.000
282.50	-0.000
282.71	-0.000
282.92	-0.000
283.13	-0.000
283.35	-0.000
283.56	-0.000
283.77	-0.000
283.98	-0.000
284.19	-0.000
284.40	-0.000
284.62	-0.000
284.83	-0.000
285.04	-0.000
285.25	-0.000
285.46	-0.000
285.67	3.211
285.88	3.394
286.10	2.338
286.31	-0.000
286.52	-0.000
286.73	-0.000
286.94	-0.000
287.15	2.245
287.37	3.987
287.58	2.879
287.79	2.486
288.00	3.202
288.21	2.399
288.42	1.750
288.63	1.589
288.85	1.407
289.06	1.300
289.27	1.297
289.48	1.275
289.69	1.186
289.90	1.157
290.11	1.152
290.33	1.103
290.54	1.075
290.75	1.110
290.96	1.070
291.17	1.084
291.38	1.085
291.59	1.059
291.81	1.071
292.02	1.066
292.23	1.066
292.44	1.049
292.65	1.045
292.86	1.026
293.07	0.992
293.28	1.001
293.50	0.971
293.71	0.969
293.92	0.967
294.13	0.943
294.34	0.934
294.55	0.921
294.76	0.922
294.97	0.926
295.19	0.918
295.40	0.906
295.61	0.900
295.82	0.919
296.03	0.914
296.24	0.903
296.45	0.909
296.66	0.930
296.87	0.929
297.09	0.930
297.30	0.906
297.51	0.915
297.72	0.910
297.93	0.898
298.14	0.881
298.35	0.871
298.56	0.885
298.77	0.875
298.99	0.862
299.20	0.854
299.41	0.846
299.62	0.853
299.83	0.844
300.04	0.840
300.25	0.844
300.46	0.847
300.67	0.848
300.88	0.835
301.10	0.830
301.31	0.817
301.52	0.816
301.73	0.813
301.94	0.810
302.15	0.811
302.36	0.817
302.57	0.814
302.78	0.803
302.99	0.807
303.20	0.799
303.41	0.800
303.63	0.810
303.84	0.818
304.05	0.810
304.26	0.811
304.47	0.802
304.68	0.794
304.89	0.792
305.10	0.803
305.31	0.792
305.52	0.792
305.73	0.795
305.94	0.787
306.15	0.777
306.37	0.775
306.58	0.765
306.79	0.769
307.00	0.769
307.21	0.768
307.42	0.758
307.63	0.759
307.84	0.768
308.05	0.761
308.26	0.756
308.47	0.761
308.68	0.757
308.89	0.759
309.10	0.752
309.31	0.756
309.52	0.748
309.73	0.746
309.95	0.748
310.16	0.736
310.37	0.734
310.58	0.733
310.79	0.725
311.00	0.723
311.21	0.722
311.42	0.732
311.63	0.725
311.84	0.725
312.05	0.720
312.26	0.714
312.47	0.712
312.68	0.711
312.89	0.716
313.10	0.722
313.31	0.723
313.52	0.717
313.73	0.707
313.94	0.711
314.15	0.717
314.36	0.715
314.57	0.718
314.78	0.725
314.99	0.722
315.21	0.717
315.42	0.710
315.63	0.708
315.84	0.712
316.05	0.714
316.26	0.706
316.47	0.700
316.68	0.706
316.89	0.706
317.10	0.699
317.31	0.703
317.52	0.702
317.73	0.707
317.94	0.706
318.15	0.709
318.36	0.713
318.57	0.720
318.78	0.725
318.99	0.716
319.20	0.718
319.41	0.721
319.62	0.719
319.83	0.724
320.04	0.720
320.25	0.717
320.46	0.712
320.67	0.707
320.88	0.703
321.09	0.700
321.30	0.700
321.51	0.694
321.72	0.692
321.93	0.692
322.14	0.684
322.35	0.680
322.56	0.680
322.77	0.677
322.98	0.672
323.19	0.667
323.40	0.662
323.61	0.663
323.82	0.660
324.03	0.660
324.24	0.661
324.45	0.662
324.66	0.665
324.87	0.667
325.08	0.666
325.29	0.673
325.50	0.674
325.71	0.678
325.92	0.674
326.13	0.676
326.34	0.677
326.55	0.679
326.76	0.679
326.97	0.679
327.18	0.681
327.39	0.679
327.60	0.672
327.80	0.670
328.01	0.666
328.22	0.670
328.43	0.668
328.64	0.665
328.85	0.659
329.06	0.658
329.27	0.656
329.48	0.653
329.69	0.656
329.90	0.656
330.11	0.659
330.32	0.658
330.53	0.656
330.74	0.655
330.95	0.655
331.16	0.656
331.37	0.656
331.58	0.653
331.79	0.653
332.00	0.650
332.21	0.651
332.42	0.651
332.63	0.653
332.83	0.657
333.04	0.661
333.25	0.657
333.46	0.660
333.67	0.659
333.88	0.660
334.09	0.657
334.30	0.660
334.51	0.662
334.72	0.659
334.93	0.659
335.14	0.654
335.35	0.647
335.56	0.649
335.77	0.644
335.98	0.646
336.18	0.644
336.39	0.643
336.60	0.642
336.81	0.642
337.02	0.639
337.23	0.637
337.44	0.638
337.65	0.638
337.86	0.638
338.07	0.638
338.28	0.634
338.49	0.637
338.70	0.638
338.91	0.633
339.11	0.632
339.32	0.632
339.53	0.637
339.74	0.638
339.95	0.638
340.16	0.641
340.37	0.643
340.58	0.645
340.79	0.640
341.00	0.639
341.21	0.639
341.41	0.635
341.62	0.638
341.83	0.632
342.04	0.630
342.25	0.628
342.46	0.625
342.67	0.624
342.88	0.624
343.09	0.623
343.30	0.621
343.50	0.621
343.71	0.621
343.92	0.619
344.13	0.618
344.34	0.616
344.55	0.617
344.76	0.619
344.97	0.615
345.18	0.616
345.38	0.616
345.59	0.620
345.80	0.621
346.01	0.625
346.22	0.628
346.43	0.628
346.64	0.627
346.85	0.626
347.06	0.626
347.26	0.626
347.47	0.624
347.68	0.628
347.89	0.624
348.10	0.625
348.31	0.619
348.52	0.618
348.73	0.617
348.93	0.619
349.14	0.619
349.35	0.620
349.56	0.621
349.77	0.621
349.98	0.620
350.19	0.620
350.39	0.620
350.60	0.625
350.81	0.620
351.02	0.620
351.23	0.618
351.44	0.616
351.65	0.616
351.86	0.616
352.06	0.613
352.27	0.610
352.48	0.611
352.69	0.611
352.90	0.608
353.11	0.608
353.31	0.609
353.52	0.612
353.73	0.615
353.94	0.611
354.15	0.610
354.36	0.610
354.57	0.612
354.77	0.610
354.98	0.610
355.19	0.610
355.40	0.611
355.61	0.609
355.82	0.607
356.02	0.605
356.23	0.605
356.44	0.605
356.65	0.606
356.86	0.603
357.07	0.604
357.27	0.602
357.48	0.601
357.69	0.601
357.90	0.603
358.11	0.603
358.32	0.603
358.52	0.601
358.73	0.602
358.94	0.600
359.15	0.602
359.36	0.599
359.56	0.601
359.77	0.601
359.98	0.599
360.19	0.598
360.40	0.599
360.61	0.599
360.81	0.600
361.02	0.598
361.23	0.600
361.44	0.601
361.65	0.602
361.85	0.601
362.06	0.604
362.27	0.603
362.48	0.604
362.69	0.600
362.89	0.602
363.10	0.604
363.31	0.604
363.52	0.602
363.73	0.599
363.93	0.601
364.14	0.600
364.35	0.596
364.56	0.602
364.77	0.600
364.97	0.601
365.18	0.597
365.39	0.598
365.60	0.597
365.81	0.598
366.01	0.598
366.22	0.595
366.43	0.594
366.64	0.595
366.84	0.589
367.05	0.588
367.26	0.586
367.47	0.589
367.68	0.586
367.88	0.588
368.09	0.588
368.30	0.587
368.51	0.588
368.71	0.586
368.92	0.584
369.13	0.588
369.34	0.589
369.55	0.589
369.75	0.588
369.96	0.587
370.17	0.588
370.38	0.590
370.58	0.590
370.79	0.588
371.00	0.589
371.21	0.592
371.41	0.589
371.62	0.588
371.83	0.590
372.04	0.588
372.24	0.589
372.45	0.587
372.66	0.584
372.87	0.588
373.07	0.588
373.28	0.589
373.49	0.585
373.70	0.587
373.90	0.585
374.11	0.583
374.32	0.584
374.53	0.585
374.73	0.587
374.94	0.586
375.15	0.583
375.36	0.583
375.56	0.580
375.77	0.580
375.98	0.578
376.19	0.578
376.39	0.581
376.60	0.580
376.81	0.578
377.02	0.577
377.22	0.579
377.43	0.579
377.64	0.580
377.84	0.580
378.05	0.580
378.26	0.578
378.47	0.579
378.67	0.578
378.88	0.578
379.09	0.578
379.30	0.576
379.50	0.574
379.71	0.573
379.92	0.571
380.12	0.571
380.33	0.574
380.54	0.575
380.75	0.573
380.95	0.572
381.16	0.574
381.37	0.573
381.57	0.575
381.78	0.575
381.99	0.574
382.20	0.574
382.40	0.576
382.61	0.574
382.82	0.575
383.02	0.576
383.23	0.576
383.44	0.576
383.64	0.577
383.85	0.575
384.06	0.574
384.27	0.575
384.47	0.576
384.68	0.575
384.89	0.574
385.09	0.574
385.30	0.575
385.51	0.575
385.71	0.573
385.92	0.571
386.13	0.570
386.33	0.571
386.54	0.571
386.75	0.568
386.95	0.569
387.16	0.570
387.37	0.570
387.58	0.569
387.78	0.568
387.99	0.568
388.20	0.568
388.40	0.570
388.61	0.567
388.82	0.568
389.02	0.567
389.23	0.565
389.44	0.566
389.64	0.567
389.85	0.564
390.06	0.563
390.26	0.561
390.47	0.562
390.68	0.561
390.88	0.563
391.09	0.561
391.30	0.563
391.50	0.563
391.71	0.562
391.92	0.561
392.12	0.562
392.33	0.562
392.53	0.562
392.74	0.561
392.95	0.559
393.15	0.558
393.36	0.557
393.57	0.558
393.77	0.556
393.98	0.557
394.19	0.557
394.39	0.557
394.60	0.555
394.81	0.556
395.01	0.557
395.22	0.558
395.43	0.557
395.63	0.556
395.84	0.553
396.04	0.555
396.25	0.552
396.46	0.552
396.66	0.551
396.87	0.551
397.08	0.551
397.28	0.551
397.49	0.550
397.69	0.551
397.90	0.551
398.11	0.552
398.31	0.550
398.52	0.551
398.73	0.551
398.93	0.552
399.14	0.552
399.34	0.552
399.55	0.551
399.76	0.552
399.96	0.550
400.17	0.551
400.37	0.552
400.58	0.552
400.79	0.550
400.99	0.548
401.20	0.547
401.41	0.547
401.61	0.546
401.82	0.545
402.02	0.545
402.23	0.547
402.44	0.546
402.64	0.544
402.85	0.544
403.05	0.546
403.26	0.546
403.47	0.547
403.67	0.546
403.88	0.547
404.08	0.546
404.29	0.546
404.50	0.546
404.70	0.545
404.91	0.546
405.11	0.547
405.32	0.547
405.52	0.547
405.73	0.546
405.94	0.547
406.14	0.546
406.35	0.546
406.55	0.546
406.76	0.544
406.97	0.543
407.17	0.543
407.38	0.543
407.58	0.542
407.79	0.541
407.99	0.540
408.20	0.539
408.41	0.540
408.61	0.540
408.82	0.539
409.02	0.540
409.23	0.541
409.43	0.540
409.64	0.538
409.84	0.539
410.05	0.540
410.26	0.540
410.46	0.540
410.67	0.541
410.87	0.540
411.08	0.539
411.28	0.538
411.49	0.537
411.69	0.538
411.90	0.539
412.11	0.539
412.31	0.539
412.52	0.538
412.72	0.538
412.93	0.537
413.13	0.537
413.34	0.538
413.54	0.539
413.75	0.541
413.95	0.542
414.16	0.542
414.37	0.540
414.57	0.541
414.78	0.540
414.98	0.541
415.19	0.542
415.39	0.542
415.60	0.541
415.80	0.540
416.01	0.538
416.21	0.536
416.42	0.536
416.62	0.537
416.83	0.536
417.03	0.536
417.24	0.536
417.44	0.535
417.65	0.535
417.86	0.536
418.06	0.537
418.27	0.537
418.47	0.537
418.68	0.536
418.88	0.535
419.09	0.535
419.29	0.535
419.50	0.535
419.70	0.536
419.91	0.535
420.11	0.535
420.32	0.534
420.52	0.534
420.73	0.533
420.93	0.532
421.14	0.534
421.34	0.535
421.55	0.536
421.75	0.534
421.96	0.534
422.16	0.533
422.37	0.533
422.57	0.534
422.78	0.534
422.98	0.535
423.19	0.537
423.39	0.536
423.60	0.536
423.80	0.534
424.01	0.535
424.21	0.534
424.42	0.534
424.62	0.534
424.83	0.534
425.03	0.534
425.23	0.533
425.44	0.531
425.64	0.530
425.85	0.529
426.05	0.529
426.26	0.528
426.46	0.528
426.67	0.528
426.87	0.527
427.08	0.526
427.28	0.527
427.49	0.526
427.69	0.526
427.90	0.526
428.10	0.528
428.31	0.528
428.51	0.530
428.71	0.531
428.92	0.531
429.12	0.533
429.33	0.533
429.53	0.533
429.74	0.532
429.94	0.533
430.15	0.534
430.35	0.532
430.56	0.532
430.76	0.531
430.96	0.531
431.17	0.532
431.37	0.532
431.58	0.532
431.78	0.533
431.99	0.534
432.19	0.532
432.40	0.532
432.60	0.535
432.80	0.534
433.01	0.535
433.21	0.534
433.42	0.534
433.62	0.534
433.83	0.534
434.03	0.534
434.23	0.534
434.44	0.534
434.64	0.534
434.85	0.532
435.05	0.534
435.26	0.533
435.46	0.533
435.66	0.533
435.87	0.533
436.07	0.533
436.28	0.534
436.48	0.536
436.69	0.538
436.89	0.537
437.09	0.538
437.30	0.537
437.50	0.538
437.71	0.535
437.91	0.535
438.11	0.536
438.32	0.535
438.52	0.534
438.73	0.534
438.93	0.534
439.13	0.534
439.34	0.534
439.54	0.533
439.75	0.534
439.95	0.537
440.15	0.537
440.36	0.536
440.56	0.537
440.77	0.537
440.97	0.537
441.17	0.535
441.38	0.536
441.58	0.537
441.79	0.536
441.99	0.536
442.19	0.535
442.40	0.535
442.60	0.534
442.81	0.534
443.01	0.535
443.21	0.535
443.42	0.536
443.62	0.534
443.82	0.534
444.03	0.536
444.23	0.535
444.44	0.534
444.64	0.536
444.84	0.537
445.05	0.538
445.25	0.539
445.45	0.538
445.66	0.536
445.86	0.538
446.06	0.537
446.27	0.536
446.47	0.534
446.68	0.535
446.88	0.535
447.08	0.534
447.29	0.533
447.49	0.533
447.69	0.533
447.90	0.534
448.10	0.531
448.30	0.532
448.51	0.531
448.71	0.532
448.91	0.532
449.12	0.533
449.32	0.531
449.52	0.532
449.73	0.530
449.93	0.531
450.14	0.531
450.34	0.532
450.54	0.531
450.75	0.532
450.95	0.532
451.15	0.532
451.36	0.531
451.56	0.534
451.76	0.534
451.97	0.536
452.17	0.537
452.37	0.538
452.58	0.539
452.78	0.541
452.98	0.542
453.19	0.543
453.39	0.543
453.59	0.543
453.79	0.542
454.00	0.543
454.20	0.542
454.40	0.543
454.61	0.543
454.81	0.542
455.01	0.541
455.22	0.541
455.42	0.540
455.62	0.541
455.83	0.540
456.03	0.539
456.23	0.539
456.44	0.538
456.64	0.537
456.84	0.537
457.04	0.538
457.25	0.540
457.45	0.540
457.65	0.540
457.86	0.542
458.06	0.543
458.26	0.545
458.47	0.545
458.67	0.545
458.87	0.544
459.07	0.543
459.28	0.540
459.48	0.539
459.68	0.538
459.89	0.537
460.09	0.536
460.29	0.535
460.49	0.533
460.70	0.533
460.90	0.534
461.10	0.534
461.31	0.536
461.51	0.537
461.71	0.539
461.91	0.538
462.12	0.540
462.32	0.541
462.52	0.540
462.72	0.541
462.93	0.541
463.13	0.540
463.33	0.541
463.53	0.540
463.74	0.541
463.94	0.540
464.14	0.542
464.35	0.541
464.55	0.541
464.75	0.542
464.95	0.542
465.16	0.542
465.36	0.543
465.56	0.542
465.76	0.543
465.97	0.543
466.17	0.542
466.37	0.540
466.57	0.538
466.78	0.539
466.98	0.538
467.18	0.538
467.38	0.538
467.59	0.537
467.79	0.537
467.99	0.537
468.19	0.536
468.39	0.535
468.60	0.536
468.80	0.536
469.00	0.535
469.20	0.537
469.41	0.538
469.61	0.538
469.81	0.537
470.01	0.539
470.22	0.539
470.42	0.540
470.62	0.541
470.82	0.542
471.02	0.543
471.23	0.543
471.43	0.542
471.63	0.543
471.83	0.544
472.04	0.544
472.24	0.542
472.44	0.541
472.64	0.541
472.84	0.542
473.05	0.540
473.25	0.539
473.45	0.539
473.65	0.537
473.85	0.535
474.06	0.534
474.26	0.533
474.46	0.532
474.66	0.533
474.86	0.533
475.07	0.532
475.27	0.534
475.47	0.535
475.67	0.534
475.87	0.533
476.08	0.534
476.28	0.535
476.48	0.536
476.68	0.537
476.88	0.536
477.09	0.533
477.29	0.533
477.49	0.533
477.69	0.533
477.89	0.533
478.09	0.535
478.30	0.534
478.50	0.534
478.70	0.532
478.90	0.533
479.10	0.533
479.31	0.532
479.51	0.533
479.71	0.532
479.91	0.532
480.11	0.531
480.31	0.530
480.52	0.530
480.72	0.530
480.92	0.529
481.12	0.529
481.32	0.530
481.52	0.531
481.72	0.530
481.93	0.529
482.13	0.529
482.33	0.531
482.53	0.532
482.73	0.533
482.93	0.532
483.14	0.533
483.34	0.532
483.54	0.532
483.74	0.531
483.94	0.531
484.14	0.531
484.34	0.531
484.55	0.530
484.75	0.529
484.95	0.528
485.15	0.528
485.35	0.528
485.55	0.529
485.75	0.529
485.96	0.529
486.16	0.529
486.36	0.529
486.56	0.529
486.76	0.530
486.96	0.531
487.16	0.532
487.36	0.532
487.57	0.532
487.77	0.531
487.97	0.531
488.17	0.531
488.37	0.532
488.57	0.532
488.77	0.533
488.97	0.532
489.18	0.532
489.38	0.531
489.58	0.530
489.78	0.531
489.98	0.531
490.18	0.532
490.38	0.531
490.58	0.531
490.78	0.531
490.98	0.530
491.19	0.531
491.39	0.531
491.59	0.531
491.79	0.531
491.99	0.530
492.19	0.531
492.39	0.530
492.59	0.531
492.79	0.530
492.99	0.529
493.20	0.529
493.40	0.528
493.60	0.527
493.80	0.528
494.00	0.529
494.20	0.528
494.40	0.528
494.60	0.527
494.80	0.527
495.00	0.526
495.20	0.527
495.40	0.527
495.61	0.526
495.81	0.527
496.01	0.526
496.21	0.525
496.41	0.526
496.61	0.526
496.81	0.527
497.01	0.528
497.21	0.529
497.41	0.529
497.61	0.529
497.81	0.530
498.01	0.530
498.21	0.530
498.41	0.531
498.61	0.530
498.82	0.530
499.02	0.529
499.22	0.528
499.42	0.529
499.62	0.529
499.82	0.530
500.02	0.529
500.22	0.530
500.42	0.529
500.62	0.530
500.82	0.530
501.02	0.530
501.22	0.530
501.42	0.531
501.62	0.530
501.82	0.529
502.02	0.530
502.22	0.529
502.42	0.530
502.62	0.530
502.82	0.530
503.02	0.531
503.22	0.531
503.42	0.531
503.63	0.531
503.83	0.531
504.03	0.532
504.23	0.532
504.43	0.533
504.63	0.534
504.83	0.534
505.03	0.534
505.23	0.533
505.43	0.533
505.63	0.532
505.83	0.533
506.03	0.533
506.23	0.532
506.43	0.531
506.63	0.531
506.83	0.530
507.03	0.530
507.23	0.530
507.43	0.530
507.63	0.530
507.83	0.531
508.03	0.532
508.23	0.532
508.43	0.533
508.63	0.534
508.83	0.533
509.03	0.532
509.23	0.533
509.43	0.534
509.63	0.535
509.83	0.535
510.03	0.535
510.23	0.534
510.43	0.534
510.63	0.533
510.83	0.532
511.03	0.533
511.23	0.534
511.43	0.534
511.63	0.532
511.83	0.531
512.03	0.532
512.22	0.533
512.42	0.535
512.62	0.536
512.82	0.537
513.02	0.537
513.22	0.537
513.42	0.538
513.62	0.538
513.82	0.539
514.02	0.539
514.22	0.539
514.42	0.538
514.62	0.537
514.82	0.535
515.02	0.535
515.22	0.535
515.42	0.536
515.62	0.534
515.82	0.537
516.02	0.536
516.22	0.536
516.42	0.537
516.62	0.537
516.82	0.536
517.01	0.538
517.21	0.538
517.41	0.538
517.61	0.538
517.81	0.540
518.01	0.539
518.21	0.540
518.41	0.542
518.61	0.541
518.81	0.541
519.01	0.543
519.21	0.543
519.41	0.544
519.61	0.546
519.81	0.547
520.00	0.547
520.20	0.547
520.40	0.546
520.60	0.545
520.80	0.546
521.00	0.545
521.20	0.545
521.40	0.543
521.60	0.542
521.80	0.541
522.00	0.539
522.20	0.537
522.39	0.537
522.59	0.538
522.79	0.540
522.99	0.539
523.19	0.541
523.39	0.543
523.59	0.545
523.79	0.545
523.99	0.544
524.19	0.544
524.38	0.545
524.58	0.546
524.78	0.546
524.98	0.544
525.18	0.544
525.38	0.543
525.58	0.541
525.78	0.541
525.98	0.541
526.18	0.542
526.37	0.543
526.57	0.542
526.77	0.542
526.97	0.541
527.17	0.542
527.37	0.543
527.57	0.542
527.77	0.542
527.96	0.542
528.16	0.543
528.36	0.545
528.56	0.544
528.76	0.546
528.96	0.547
529.16	0.548
529.36	0.547
529.55	0.548
529.75	0.550
529.95	0.551
530.15	0.550
530.35	0.549
530.55	0.549
530.75	0.547
530.94	0.548
531.14	0.548
531.34	0.548
531.54	0.550
531.74	0.548
531.94	0.545
532.13	0.545
532.33	0.546
532.53	0.547
532.73	0.549
532.93	0.549
533.13	0.548
533.33	0.548
533.52	0.547
533.72	0.545
533.92	0.547
534.12	0.550
534.32	0.550
534.52	0.548
534.71	0.548
534.91	0.546
535.11	0.547
535.31	0.546
535.51	0.546
535.71	0.545
535.90	0.546
536.10	0.544
536.30	0.543
536.50	0.543
536.70	0.544
536.89	0.544
537.09	0.545
537.29	0.545
537.49	0.545
537.69	0.545
537.89	0.546
538.08	0.547
538.28	0.548
538.48	0.547
538.68	0.546
538.88	0.547
539.07	0.547
539.27	0.546
539.47	0.547
539.67	0.548
539.87	0.548
540.06	0.548
540.26	0.548
540.46	0.548
540.66	0.550
540.86	0.551
541.05	0.552
541.25	0.552
541.45	0.554
541.65	0.552
541.84	0.553
542.04	0.553
542.24	0.553
542.44	0.553
542.64	0.553
542.83	0.552
543.03	0.552
543.23	0.554
543.43	0.553
543.62	0.554
543.82	0.553
544.02	0.553
544.22	0.552
544.42	0.552
544.61	0.553
544.81	0.554
545.01	0.554
545.21	0.553
545.40	0.551
545.60	0.551
545.80	0.548
546.00	0.549
546.19	0.550
546.39	0.550
546.59	0.551
546.79	0.552
546.98	0.553
547.18	0.551
547.38	0.551
547.58	0.552
547.77	0.552
547.97	0.554
548.17	0.554
548.37	0.554
548.56	0.556
548.76	0.556
548.96	0.554
549.16	0.553
549.35	0.556
549.55	0.558
549.75	0.557
549.95	0.557
550.14	0.557
550.34	0.558
550.54	0.557
550.73	0.555
550.93	0.556
551.13	0.559
551.33	0.559
551.52	0.557
551.72	0.557
551.92	0.558
552.12	0.559
552.31	0.558
552.51	0.559
552.71	0.559
552.90	0.560
553.10	0.558
553.30	0.557
553.50	0.558
553.69	0.559
553.89	0.559
554.09	0.558
554.28	0.558
554.48	0.557
554.68	0.556
554.87	0.556
555.07	0.559
555.27	0.559
555.47	0.559
555.66	0.559
555.86	0.561
556.06	0.561
556.25	0.564
556.45	0.563
556.65	0.566
556.84	0.567
557.04	0.570
557.24	0.568
557.43	0.569
557.63	0.570
557.83	0.571
558.02	0.571
558.22	0.570
558.42	0.569
558.61	0.572
558.81	0.570
559.01	0.569
559.21	0.567
559.40	0.567
559.60	0.568
559.80	0.567
559.99	0.566
560.19	0.564
560.39	0.566
560.58	0.565
560.78	0.566
560.97	0.563
561.17	0.565
561.37	0.567
561.56	0.566
561.76	0.565
561.96	0.566
562.15	0.566
562.35	0.565
562.55	0.563
562.74	0.564
562.94	0.563
563.14	0.564
563.33	0.565
563.53	0.564
563.73	0.565
563.92	0.565
564.12	0.564
564.31	0.562
564.51	0.563
564.71	0.563
564.90	0.561
565.10	0.561
565.30	0.561
565.49	0.561
565.69	0.561
565.89	0.562
566.08	0.563
566.28	0.563
566.47	0.564
566.67	0.565
566.87	0.567
567.06	0.567
567.26	0.565
567.46	0.567
567.65	0.565
567.85	0.563
568.04	0.562
568.24	0.559
568.44	0.558
568.63	0.559
568.83	0.559
569.02	0.558
569.22	0.558
569.42	0.559
569.61	0.557
569.81	0.557
570.00	0.555
570.20	0.553
570.40	0.554
570.59	0.553
570.79	0.551
570.98	0.549
571.18	0.548
571.38	0.547
571.57	0.547
571.77	0.547
571.96	0.545
572.16	0.547
572.35	0.547
572.55	0.546
572.75	0.547
572.94	0.547
573.14	0.546
573.33	0.546
573.53	0.546
573.73	0.544
573.92	0.545
574.12	0.546
574.31	0.545
574.51	0.545
574.70	0.544
574.90	0.544
575.09	0.543
575.29	0.543
575.49	0.543
575.68	0.543
575.88	0.543
576.07	0.541
576.27	0.540
576.46	0.539
576.66	0.539
576.86	0.540
577.05	0.541
577.25	0.542
577.44	0.542
577.64	0.542
577.83	0.542
578.03	0.542
578.22	0.543
578.42	0.544
578.61	0.543
578.81	0.543
579.00	0.542
579.20	0.542
579.40	0.540
579.59	0.541
579.79	0.542
579.98	0.541
580.18	0.541
580.37	0.541
580.57	0.540
580.76	0.541
580.96	0.541
581.15	0.542
581.35	0.541
581.54	0.542
581.74	0.540
581.93	0.540
582.13	0.540
582.32	0.540
582.52	0.539
582.71	0.540
582.91	0.541
583.10	0.541
583.30	0.540
583.49	0.541
583.69	0.540
583.88	0.541
584.08	0.540
584.27	0.540
584.47	0.540
584.66	0.541
584.86	0.541
585.05	0.539
585.25	0.539
585.44	0.540
585.64	0.540
585.83	0.542
586.03	0.542
586.22	0.543
586.42	0.543
586.61	0.543
586.81	0.543
587.00	0.543
587.20	0.542
587.39	0.542
587.59	0.543
587.78	0.542
587.98	0.541
588.17	0.541
588.37	0.541
588.56	0.541
588.76	0.542
588.95	0.542
589.15	0.544
589.34	0.544
589.54	0.545
589.73	0.546
589.92	0.546
590.12	0.547
590.31	0.549
590.51	0.549
590.70	0.550
590.90	0.550
591.09	0.550
591.29	0.549
591.48	0.549
591.68	0.548
591.87	0.548
592.06	0.548
592.26	0.547
592.45	0.546
592.65	0.545
592.84	0.545
593.04	0.545
593.23	0.545
593.43	0.545
593.62	0.545
593.81	0.546
594.01	0.546
594.20	0.546
594.40	0.547
594.59	0.547
594.79	0.547
594.98	0.548
595.17	0.549
595.37	0.551
595.56	0.550
595.76	0.552
595.95	0.553
596.14	0.553
596.34	0.553
596.53	0.552
596.73	0.551
596.92	0.551
597.12	0.549
597.31	0.548
597.50	0.545
597.70	0.545
597.89	0.543
598.09	0.543
598.28	0.541
598.47	0.539
598.67	0.539
598.86	0.540
599.06	0.540
599.25	0.539
599.44	0.540
599.64	0.539
599.83	0.541
600.03	0.539
600.22	0.539
600.41	0.539
600.61	0.539
600.80	0.539
601.00	0.538
601.19	0.540
601.38	0.540
601.58	0.541
601.77	0.543
601.96	0.542
602.16	0.544
602.35	0.544
602.55	0.547
602.74	0.547
602.93	0.548
603.13	0.548
603.32	0.547
603.51	0.549
603.71	0.548
603.90	0.547
604.09	0.547
604.29	0.546
604.48	0.546
604.68	0.545
604.87	0.545
605.06	0.545
605.26	0.545
605.45	0.544
605.64	0.542
605.84	0.542
606.03	0.542
606.22	0.541
606.42	0.543
606.61	0.544
606.80	0.544
607.00	0.546
607.19	0.545
607.38	0.547
607.58	0.549
607.77	0.550
607.96	0.550
608.16	0.553
608.35	0.553
608.54	0.553
608.74	0.553
608.93	0.552
609.12	0.551
609.32	0.553
609.51	0.551
609.70	0.551
609.90	0.551
610.09	0.552
610.28	0.551
610.48	0.553
610.67	0.554
610.86	0.557
611.06	0.557
611.25	0.557
611.44	0.556
611.64	0.558
611.83	0.558
612.02	0.559
612.21	0.558
612.41	0.559
612.60	0.559
612.79	0.558
612.99	0.556
613.18	0.556
613.37	0.557
613.57	0.559
613.76	0.556
613.95	0.558
614.14	0.556
614.34	0.556
614.53	0.556
614.72	0.554
614.92	0.556
615.11	0.556
615.30	0.558
615.49	0.560
615.69	0.558
615.88	0.562
616.07	0.562
616.26	0.565
616.46	0.566
616.65	0.569
616.84	0.572
617.04	0.572
617.23	0.571
617.42	0.571
617.61	0.568
617.81	0.569
618.00	0.570
618.19	0.571
618.38	0.570
618.58	0.573
618.77	0.573
618.96	0.574
619.15	0.577
619.35	0.582
619.54	0.583
619.73	0.586
619.92	0.587
620.12	0.585
620.31	0.585
620.50	0.584
620.69	0.583
620.89	0.583
621.08	0.583
621.27	0.579
621.46	0.578
621.66	0.576
621.85	0.576
622.04	0.578
622.23	0.581
622.43	0.581
622.62	0.582
622.81	0.580
623.00	0.579
623.19	0.577
623.39	0.577
623.58	0.577
623.77	0.579
623.96	0.579
624.16	0.578
624.35	0.579
624.54	0.578
624.73	0.577
624.92	0.580
625.12	0.580
625.31	0.579
625.50	0.579
625.69	0.578
625.88	0.580
626.08	0.582
626.27	0.583
626.46	0.582
626.65	0.583
626.84	0.581
627.04	0.580
627.23	0.583
627.42	0.586
627.61	0.586
627.80	0.585
628.00	0.585
628.19	0.583
628.38	0.579
628.57	0.580
628.76	0.583
628.96	0.584
629.15	0.585
629.34	0.588
629.53	0.589
629.72	0.592
629.91	0.594
630.11	0.592
630.30	0.594
630.49	0.595
630.68	0.595
630.87	0.596
631.06	0.596
631.26	0.599
631.45	0.598
631.64	0.596
631.83	0.595
632.02	0.598
632.21	0.600
632.41	0.602
632.60	0.604
632.79	0.604
632.98	0.602
633.17	0.605
633.36	0.603
633.55	0.605
633.75	0.608
633.94	0.609
634.13	0.607
634.32	0.608
634.51	0.609
634.70	0.610
634.89	0.610
635.09	0.611
635.28	0.608
635.47	0.610
635.66	0.606
635.85	0.608
636.04	0.608
636.23	0.610
636.43	0.607
636.62	0.609
636.81	0.607
637.00	0.605
637.19	0.603
637.38	0.607
637.57	0.609
637.76	0.614
637.95	0.610
638.15	0.609
638.34	0.610
638.53	0.610
638.72	0.607
638.91	0.611
639.10	0.613
639.29	0.614
639.48	0.612
639.67	0.608
639.87	0.608
640.06	0.613
640.25	0.613
640.44	0.609
640.63	0.611
640.82	0.614
641.01	0.615
641.20	0.618
641.39	0.620
641.58	0.623
641.78	0.623
641.97	0.624
642.16	0.617
642.35	0.617
642.54	0.617
642.73	0.619
642.92	0.618
643.11	0.618
643.30	0.616
643.49	0.614
643.68	0.609
643.87	0.610
644.06	0.606
644.25	0.613
644.45	0.618
644.64	0.623
644.83	0.619
645.02	0.623
645.21	0.622
645.40	0.620
645.59	0.622
645.78	0.624
645.97	0.624
646.16	0.622
646.35	0.618
646.54	0.611
646.73	0.607
646.92	0.609
647.11	0.607
647.30	0.606
647.49	0.603
647.68	0.602
647.88	0.600
648.07	0.603
648.26	0.602
648.45	0.600
648.64	0.604
648.83	0.601
649.02	0.596
649.21	0.592
649.40	0.591
649.59	0.592
649.78	0.593
649.97	0.590
650.16	0.586
650.35	0.586
650.54	0.588
650.73	0.584
650.92	0.586
651.11	0.589
651.30	0.589
651.49	0.588
651.68	0.587
651.87	0.587
652.06	0.590
652.25	0.593
652.44	0.595
652.63	0.592
652.82	0.590
653.01	0.586
653.20	0.578
653.39	0.578
653.58	0.572
653.77	0.566
653.96	0.561
654.15	0.557
654.34	0.550
654.53	0.547
654.72	0.543
654.91	0.543
655.10	0.541
655.29	0.541
655.48	0.539
655.67	0.539
655.86	0.539
656.05	0.539
656.24	0.537
656.43	0.537
656.62	0.537
656.81	0.536
657.00	0.534
657.19	0.536
657.38	0.536
657.57	0.539
657.76	0.539
657.95	0.542
658.14	0.545
658.33	0.551
658.51	0.554
658.70	0.558
658.89	0.563
659.08	0.569
659.27	0.570
659.46	0.576
659.65	0.578
659.84	0.586
660.03	0.587
660.22	0.588
660.41	0.588
660.60	0.593
660.79	0.595
660.98	0.595
661.17	0.594
661.36	0.598
661.55	0.600
661.74	0.597
661.92	0.593
662.11	0.594
662.30	0.594
662.49	0.595
662.68	0.593
662.87	0.589
663.06	0.591
663.25	0.590
663.44	0.588
663.63	0.587
663.82	0.587
664.01	0.587
664.20	0.587
664.38	0.587
664.57	0.584
664.76	0.581
664.95	0.581
665.14	0.579
665.33	0.583
665.52	0.581
665.71	0.577
665.90	0.580
666.09	0.579
666.28	0.578
666.46	0.572
666.65	0.573
666.84	0.575
667.03	0.579
667.22	0.579
667.41	0.577
667.60	0.580
667.79	0.581
667.98	0.576
668.16	0.575
668.35	0.573
668.54	0.577
668.73	0.576
668.92	0.576
669.11	0.575
669.30	0.577
669.49	0.577
669.67	0.577
669.86	0.575
670.05	0.574
670.24	0.574
670.43	0.577
670.62	0.574
670.81	0.574
671.00	0.570
671.18	0.566
671.37	0.564
671.56	0.563
671.75	0.559
671.94	0.563
672.13	0.564
672.32	0.566
672.50	0.565
672.69	0.564
672.88	0.563
673.07	0.565
673.26	0.566
673.45	0.566
673.63	0.566
673.82	0.569
674.01	0.566
674.20	0.566
674.39	0.566
674.58	0.567
674.76	0.570
674.95	0.573
675.14	0.574
675.33	0.574
675.52	0.574
675.71	0.575
675.89	0.575
676.08	0.577
676.27	0.576
676.46	0.576
676.65	0.575
676.84	0.571
677.02	0.567
677.21	0.564
677.40	0.563
677.59	0.564
677.78	0.561
677.96	0.558
678.15	0.557
678.34	0.558
678.53	0.553
678.72	0.550
678.90	0.553
679.09	0.555
679.28	0.556
679.47	0.557
679.66	0.555
679.84	0.558
680.03	0.558
680.22	0.560
680.41	0.556
680.60	0.559
680.78	0.560
680.97	0.560
681.16	0.559
681.35	0.557
681.53	0.555
681.72	0.556
681.91	0.553
682.10	0.551
682.29	0.548
682.47	0.549
682.66	0.549
682.85	0.548
683.04	0.547
683.22	0.545
683.41	0.544
683.60	0.545
683.79	0.542
683.97	0.541
684.16	0.542
684.35	0.543
684.54	0.542
684.72	0.541
684.91	0.540
685.10	0.538
685.29	0.538
685.47	0.540
685.66	0.540
685.85	0.541
686.04	0.541
686.22	0.539
686.41	0.537
686.60	0.536
686.79	0.536
686.97	0.536
687.16	0.535
687.35	0.535
687.54	0.533
687.72	0.531
687.91	0.531
688.10	0.530
688.29	0.531
688.47	0.531
688.66	0.533
688.85	0.533
689.03	0.534
689.22	0.533
689.41	0.533
689.60	0.534
689.78	0.536
689.97	0.536
690.16	0.536
690.34	0.537
690.53	0.538
690.72	0.535
690.91	0.535
691.09	0.536
691.28	0.538
691.47	0.541
691.65	0.541
691.84	0.540
692.03	0.540
692.21	0.541
692.40	0.538
692.59	0.539
692.77	0.540
692.96	0.540
693.15	0.538
693.34	0.538
693.52	0.536
693.71	0.534
693.90	0.533
694.08	0.531
694.27	0.532
694.46	0.531
694.64	0.529
694.83	0.528
695.02	0.528
695.20	0.530
695.39	0.530
695.58	0.529
695.76	0.528
695.95	0.527
696.14	0.527
696.32	0.525
696.51	0.526
696.70	0.526
696.88	0.524
697.07	0.522
697.26	0.520
697.44	0.520
697.63	0.519
697.81	0.519
698.00	0.521
698.19	0.521
698.37	0.521
698.56	0.520
698.75	0.522
698.93	0.522
699.12	0.524
699.31	0.524
699.49	0.523
699.68	0.525
699.87	0.524
700.05	0.522
700.24	0.522
700.42	0.522
700.61	0.523
700.80	0.524
700.98	0.524
701.17	0.523
701.36	0.523
701.54	0.521
701.73	0.519
701.91	0.521
702.10	0.521
702.29	0.524
702.47	0.525
702.66	0.526
702.84	0.523
703.03	0.524
703.22	0.524
703.40	0.525
703.59	0.526
703.77	0.526
703.96	0.526
704.15	0.527
704.33	0.526
704.52	0.523
704.70	0.521
704.89	0.521
705.08	0.523
705.26	0.522
705.45	0.519
705.63	0.518
705.82	0.519
706.00	0.518
706.19	0.517
706.38	0.516
706.56	0.516
706.75	0.517
706.93	0.517
707.12	0.515
707.30	0.513
707.49	0.514
707.68	0.515
707.86	0.513
708.05	0.511
708.23	0.512
708.42	0.511
708.60	0.510
708.79	0.508
708.98	0.509
709.16	0.508
709.35	0.508
709.53	0.507
709.72	0.508
709.90	0.507
710.09	0.508
710.27	0.507
710.46	0.505
710.64	0.506
710.83	0.505
711.02	0.504
711.20	0.507
711.39	0.507
711.57	0.508
711.76	0.506
711.94	0.509
712.13	0.509
712.31	0.509
712.50	0.511
712.68	0.513
712.87	0.513
713.05	0.512
713.24	0.510
713.42	0.509
713.61	0.508
713.79	0.508
713.98	0.506
714.16	0.505
714.35	0.505
714.54	0.506
714.72	0.506
714.91	0.505
715.09	0.503
715.28	0.501
715.46	0.501
715.65	0.502
715.83	0.503
716.02	0.503
716.20	0.505
716.39	0.506
716.57	0.504
716.76	0.503
716.94	0.504
717.12	0.506
717.31	0.506
717.49	0.507
717.68	0.505
717.86	0.504
718.05	0.501
718.23	0.498
718.42	0.495
718.60	0.493
718.79	0.490
718.97	0.488
719.16	0.488
719.34	0.487
719.53	0.487
719.71	0.490
719.90	0.488
720.08	0.489
720.27	0.489
720.45	0.490
720.63	0.490
720.82	0.490
721.00	0.489
721.19	0.489
721.37	0.490
721.56	0.487
721.74	0.486
721.93	0.485
722.11	0.483
722.30	0.484
722.48	0.483
722.66	0.484
722.85	0.484
723.03	0.483
723.22	0.485
723.40	0.486
723.59	0.487
723.77	0.485
723.95	0.486
724.14	0.485
724.32	0.483
724.51	0.482
724.69	0.483
724.88	0.485
725.06	0.484
725.24	0.482
725.43	0.483
725.61	0.485
725.80	0.487
725.98	0.490
726.16	0.490
726.35	0.489
726.53	0.490
726.72	0.488
726.90	0.484
727.09	0.484
727.27	0.479
727.45	0.478
727.64	0.469
727.82	0.465
728.01	0.459
728.19	0.460
728.37	0.457
728.56	0.455
728.74	0.450
728.92	0.453
729.11	0.452
729.29	0.453
729.48	0.449
729.66	0.453
729.84	0.451
730.03	0.451
730.21	0.447
730.40	0.446
730.58	0.448
730.76	0.449
730.95	0.447
731.13	0.444
731.31	0.439
731.50	0.433
731.68	0.429
731.86	0.430
732.05	0.423
732.23	0.421
732.42	0.422
732.60	0.416
732.78	0.410
732.97	0.402
733.15	0.397
733.33	0.397
733.52	0.395
733.70	0.393
733.88	0.387
734.07	0.388
734.25	0.382
734.43	0.381
734.62	0.380
734.80	0.383
734.98	0.384
735.17	0.383
735.35	0.382
735.53	0.383
735.72	0.378
735.90	0.374
736.08	0.372
736.27	0.374
736.45	0.372
736.63	0.373
736.82	0.367
737.00	0.364
737.18	0.364
737.37	0.359
737.55	0.354
737.73	0.353
737.92	0.353
738.10	0.358
738.28	0.355
738.46	0.352
738.65	0.347
738.83	0.350
739.01	0.347
739.20	0.346
739.38	0.348
739.56	0.354
739.75	0.357
739.93	0.364
740.11	0.357
740.29	0.357
740.48	0.359
740.66	0.365
740.84	0.365
741.03	0.371
741.21	0.371
741.39	0.381
741.57	0.382
741.76	0.382
741.94	0.380
742.12	0.390
742.31	0.393
742.49	0.398
742.67	0.396
742.85	0.392
743.04	0.399
743.22	0.402
743.40	0.389
743.58	0.396
743.77	0.397
743.95	0.405
744.13	0.396
744.31	0.397
744.50	0.389
744.68	0.388
744.86	0.391
745.04	0.383
745.23	0.381
745.41	0.385
745.59	0.381
745.77	0.389
745.96	0.391
746.14	0.393
746.32	0.400
746.50	0.403
746.69	0.411
746.87	0.417
747.05	0.416
747.23	0.432
747.42	0.441
747.60	0.435
747.78	0.427
747.96	0.411
748.14	0.413
748.33	0.409
748.51	0.411
748.69	0.415
748.87	0.409
749.06	0.418
749.24	0.404
749.42	0.395
749.60	0.399
749.78	0.398
749.97	0.407
750.15	0.414
750.33	0.409
750.51	0.408
750.69	0.396
750.88	0.391
751.06	0.388
751.24	0.388
751.42	0.394
751.60	0.389
751.79	0.381
751.97	0.385
752.15	0.380
752.33	0.383
752.51	0.377
752.69	0.387
752.88	0.387
753.06	0.381
753.24	0.386
753.42	0.381
753.60	0.376
753.78	0.386
753.97	0.373
754.15	0.377
754.33	0.370
754.51	0.378
754.69	0.372
754.87	0.369
755.06	0.374
755.24	0.364
755.42	0.366
755.60	0.373
755.78	0.363
755.96	0.363
756.15	0.359
756.33	0.359
756.51	0.349
756.69	0.350
756.87	0.354
757.05	0.351
757.23	0.353
757.42	0.351
757.60	0.350
757.78	0.355
757.96	0.354
758.14	0.353
758.32	0.352
758.50	0.351
758.69	0.346
758.87	0.347
759.05	0.344
759.23	0.342
759.41	0.341
759.59	0.343
759.77	0.341
759.95	0.342
760.13	0.336
760.32	0.335
760.50	0.337
760.68	0.335
760.86	0.333
761.04	0.335
761.22	0.341
761.40	0.336
761.58	0.328
761.76	0.326
761.95	0.321
762.13	0.327
762.31	0.328
762.49	0.332
762.67	0.330
762.85	0.331
763.03	0.335
763.21	0.335
763.39	0.337
763.57	0.341
763.75	0.343
763.94	0.347
764.12	0.344
764.30	0.343
764.48	0.341
764.66	0.347
764.84	0.346
765.02	0.339
765.20	0.333
765.38	0.337
765.56	0.339
765.74	0.334
765.92	0.335
766.10	0.335
766.28	0.335
766.46	0.333
766.65	0.333
766.83	0.332
767.01	0.333
767.19	0.335
767.37	0.337
767.55	0.335
767.73	0.336
767.91	0.339
768.09	0.345
768.27	0.345
768.45	0.347
768.63	0.345
768.81	0.344
768.99	0.351
769.17	0.348
769.35	0.344
769.53	0.344
769.71	0.347
769.89	0.344
770.07	0.347
770.25	0.352
770.43	0.358
770.61	0.356
770.79	0.355
770.97	0.350
771.15	0.352
771.33	0.352
771.51	0.356
771.69	0.354
771.87	0.353
772.05	0.350
772.24	0.349
772.42	0.343
772.60	0.345
772.78	0.346
772.96	0.346
773.14	0.353
773.32	0.360
773.49	0.359
773.67	0.362
773.85	0.366
774.03	0.366
774.21	0.365
774.39	0.374
774.57	0.374
774.75	0.379
774.93	0.379
775.11	0.374
775.29	0.370
775.47	0.367
775.65	0.369
775.83	0.373
776.01	0.370
776.19	0.378
776.37	0.375
776.55	0.379
776.73	0.380
776.91	0.382
777.09	0.389
777.27	0.398
777.45	0.406
777.63	0.414
777.81	0.412
777.99	0.415
778.17	0.413
778.35	0.415
778.53	0.420
778.71	0.419
778.89	0.419
779.07	0.419
779.24	0.416
779.42	0.409
779.60	0.402
779.78	0.394
779.96	0.393
780.14	0.393
780.32	0.385
780.50	0.383
780.68	0.381
780.86	0.384
781.04	0.378
781.22	0.370
781.40	0.369
781.58	0.371
781.75	0.375
781.93	0.379
782.11	0.375
782.29	0.379
782.47	0.379
782.65	0.385
782.83	0.383
783.01	0.387
783.19	0.389
783.37	0.391
783.55	0.390
783.72	0.392
783.90	0.386
784.08	0.388
784.26	0.396
784.44	0.391
784.62	0.391
784.80	0.396
784.98	0.394
785.16	0.400
785.33	0.399
785.51	0.408
785.69	0.411
785.87	0.419
786.05	0.418
786.23	0.409
786.41	0.419
786.59	0.419
786.77	0.417
786.94	0.417
787.12	0.412
787.30	0.411
787.48	0.405
787.66	0.408
787.84	0.403
788.02	0.409
788.19	0.409
788.37	0.406
788.55	0.403
788.73	0.405
788.91	0.406
789.09	0.410
789.27	0.417
789.44	0.421
789.62	0.417
789.80	0.415
789.98	0.412
790.16	0.419
790.34	0.420
790.51	0.427
790.69	0.425
790.87	0.432
791.05	0.438
791.23	0.434
791.41	0.431
791.58	0.430
791.76	0.437
791.94	0.439
792.12	0.437
792.30	0.434
792.48	0.433
792.65	0.431
792.83	0.424
793.01	0.422
793.19	0.425
793.37	0.427
793.54	0.431
793.72	0.425
793.90	0.426
794.08	0.426
794.26	0.431
794.43	0.432
794.61	0.440
794.79	0.441
794.97	0.443
795.15	0.441
795.32	0.439
795.50	0.443
795.68	0.448
795.86	0.450
796.04	0.454
796.21	0.455
796.39	0.457
796.57	0.453
796.75	0.458
796.92	0.454
797.10	0.456
797.28	0.465
797.46	0.462
797.64	0.462
797.81	0.463
797.99	0.461
798.17	0.459
798.35	0.459
798.52	0.460
798.70	0.460
798.88	0.462
799.06	0.460
799.23	0.456
799.41	0.457
799.59	0.459
799.77	0.463
799.94	0.462
800.12	0.462
800.30	0.458
800.48	0.459
800.65	0.465
800.83	0.470
801.01	0.476
801.19	0.475
801.36	0.475
801.54	0.481
801.72	0.477
801.90	0.482
802.07	0.481
802.25	0.490
802.43	0.501
802.60	0.497
802.78	0.493
802.96	0.500
803.14	0.507
803.31	0.505
803.49	0.504
803.67	0.507
803.84	0.502
804.02	0.507
804.20	0.506
804.38	0.497
804.55	0.498
804.73	0.502
804.91	0.496
805.08	0.489
805.26	0.491
805.44	0.481
805.61	0.480
805.79	0.486
805.97	0.485
806.15	0.485
806.32	0.490
806.50	0.492
806.68	0.492
806.85	0.486
807.03	0.491
807.21	0.485
807.38	0.493
807.56	0.500
807.74	0.494
807.91	0.499
808.09	0.499
808.27	0.494
808.44	0.489
808.62	0.489
808.80	0.498
808.97	0.499
809.15	0.502
809.33	0.499
809.50	0.495
809.68	0.501
809.86	0.498
810.03	0.494
810.21	0.498
810.39	0.498
810.56	0.496
810.74	0.490
810.91	0.481
811.09	0.488
811.27	0.487
811.44	0.491
811.62	0.491
811.80	0.492
811.97	0.498
812.15	0.502
812.33	0.502
812.50	0.512
812.68	0.513
812.85	0.523
813.03	0.520
813.21	0.527
813.38	0.530
813.56	0.530
813.74	0.523
813.91	0.518
814.09	0.509
814.26	0.515
814.44	0.505
814.62	0.507
814.79	0.506
814.97	0.505
815.14	0.505
815.32	0.488
815.50	0.484
815.67	0.489
815.85	0.493
816.02	0.495
816.20	0.492
816.38	0.500
816.55	0.498
816.73	0.498
816.90	0.495
817.08	0.493
817.26	0.503
817.43	0.511
817.61	0.506
817.78	0.503
817.96	0.513
818.13	0.513
818.31	0.510
818.49	0.509
818.66	0.516
818.84	0.519
819.01	0.522
819.19	0.524
819.36	0.524
819.54	0.531
819.71	0.529
819.89	0.521
820.07	0.521
820.24	0.513
820.42	0.519
820.59	0.515
820.77	0.509
820.94	0.509
821.12	0.506
821.29	0.501
821.47	0.509
821.64	0.517
821.82	0.518
822.00	0.519
822.17	0.531
822.35	0.529
822.52	0.531
822.70	0.544
822.87	0.544
823.05	0.551
823.22	0.554
823.40	0.551
823.57	0.545
823.75	0.557
823.92	0.557
824.10	0.548
824.27	0.539
824.45	0.547
824.62	0.536
824.80	0.534
824.97	0.537
825.15	0.528
825.32	0.525
825.50	0.526
825.67	0.513
825.85	0.512
826.02	0.516
826.20	0.518
826.37	0.498
826.55	0.515
826.72	0.507
826.90	0.499
827.07	0.500
827.25	0.503
827.42	0.497
827.60	0.497
827.77	0.499
827.95	0.510
828.12	0.517
828.30	0.537
828.47	0.521
828.65	0.530
828.82	0.549
829.00	0.560
829.17	0.568
829.34	0.586
829.52	0.600
829.69	0.596
829.87	0.602
830.04	0.601
830.22	0.587
830.39	0.596
830.57	0.616
830.74	0.599
830.92	0.588
831.09	0.559
831.26	0.569
831.44	0.560
831.61	0.583
831.79	0.563
831.96	0.560
832.14	0.605
832.31	0.605
832.49	0.595
832.66	0.614
832.83	0.676
833.01	0.731
833.18	0.782
833.36	0.766
833.53	0.746
833.70	0.734
833.88	0.777
834.05	0.703
834.23	0.770
834.40	0.781
834.58	0.744
834.75	0.689
834.92	0.657
835.10	0.629
835.27	0.666
835.45	0.682
835.62	0.722
835.79	0.705
835.97	0.740
836.14	0.723
836.32	0.740
836.49	0.837
836.66	0.816
836.84	0.815
837.01	0.790
837.18	0.785
837.36	0.879
837.53	0.860
837.71	0.942
837.88	0.986
838.05	0.891
838.23	0.900
838.40	0.903
838.58	0.968
838.75	1.021
838.92	1.162
839.10	1.261
839.27	1.065
839.44	1.145
839.62	1.030
839.79	0.933
839.96	1.007
840.14	0.943
840.31	0.922
840.48	1.008
840.66	1.059
840.83	0.941
841.01	0.968
841.18	1.182
841.35	1.004
841.53	1.094
841.70	1.120
841.87	1.201
842.05	1.415
842.22	1.253
842.39	1.036
842.57	1.219
842.74	1.278
842.91	1.094
843.09	0.956
843.26	0.970
843.43	1.021
843.60	1.078
843.78	0.998
843.95	0.990
844.12	1.158
844.30	1.237
844.47	1.143
844.64	1.196
844.82	1.435
844.99	1.345
845.16	1.454
845.34	2.067
845.51	2.112
845.68	-0.000
845.85	2.096
846.03	1.377
846.20	-0.000
846.37	-0.000
846.55	-0.000
846.72	-0.000
846.89	-0.000
847.06	-0.000
847.24	-0.000
847.41	-0.000
847.58	-0.000
847.76	-0.000
847.93	-0.000
848.10	3.512
848.27	1.726
848.45	-0.000
848.62	-0.000
848.79	-0.000
848.97	-0.000
849.14	-0.000
849.31	-0.000
849.48	-0.000
849.66	-0.000
849.83	-0.000
850.00	-0.000
850.17	-0.000
850.35	-0.000
850.52	-0.000
850.69	-0.000
850.86	-0.000
851.04	-0.000
851.21	-0.000
851.38	-0.000
851.55	-0.000
851.72	-0.000
851.90	-0.000
852.07	-0.000
852.24	-0.000
852.41	-0.000
852.59	-0.000
852.76	-0.000
852.93	-0.000
853.10	-0.000
853.28	-0.000
853.45	2.678
853.62	-0.000
853.79	-0.000
853.96	-0.000
854.14	-0.000
854.31	-0.000
854.48	-0.000
854.65	-0.000
854.82	-0.000
855.00	-0.000
855.17	-0.000
855.34	-0.000
855.51	-0.000
855.68	-0.000
855.86	-0.000
856.03	-0.000
856.20	-0.000
856.37	-0.000
856.54	-0.000
856.72	-0.000
856.89	-0.000
857.06	-0.000
857.23	-0.000
857.40	-0.000
857.57	-0.000
857.75	-0.000
857.92	-0.000
858.09	-0.000
858.26	-0.000
858.43	-0.000
858.60	-0.000
858.78	-0.000
858.95	-0.000
859.12	-0.000
859.29	-0.000
859.46	-0.000
859.63	-0.000
859.81	-0.000
859.98	-0.000
860.15	-0.000
860.32	-0.000
860.49	-0.000
860.66	-0.000
860.83	-0.000
861.01	-0.000
861.18	-0.000
861.35	-0.000
861.52	-0.000
861.69	-0.000
861.86	-0.000
862.03	-0.000
862.21	-0.000
862.38	-0.000
862.55	-0.000
862.72	-0.000
862.89	-0.000
863.06	-0.000
863.23	-0.000
863.40	-0.000
863.58	-0.000
863.75	-0.000
863.92	-0.000
864.09	-0.000
864.26	-0.000
864.43	-0.000
864.60	-0.000
864.77	-0.000
864.94	-0.000
865.11	-0.000
865.29	-0.000
865.46	-0.000
865.63	-0.000
865.80	-0.000
865.97	-0.000
866.14	-0.000
866.31	-0.000
866.48	-0.000
866.65	-0.000
866.82	-0.000
866.99	-0.000
867.16	-0.000
867.34	-0.000
867.51	-0.000
867.68	-0.000
867.85	-0.000
868.02	-0.000
868.19	-0.000
868.36	-0.000
868.53	-0.000
868.70	-0.000
868.87	-0.000
869.04	-0.000
869.21	-0.000
869.38	-0.000
869.55	-0.000
869.72	-0.000
869.89	-0.000
870.06	-0.000
870.24	-0.000
870.41	-0.000
870.58	-0.000
870.75	-0.000
870.92	-0.000
871.09	-0.000
871.26	-0.000
871.43	-0.000
871.60	-0.000
871.77	-0.000
871.94	-0.000
872.11	-0.000
872.28	-0.000
872.45	-0.000
872.62	-0.000
872.79	-0.000
872.96	-0.000
873.13	-0.000
873.30	-0.000
873.47	-0.000
873.64	-0.000
873.81	-0.000
873.98	-0.000
874.15	-0.000
874.32	-0.000
874.49	-0.000
874.66	-0.000
874.83	-0.000
875.00	-0.000
875.17	-0.000
875.34	-0.000
875.51	-0.000
875.68	-0.000
875.85	-0.000
876.02	-0.000
876.19	-0.000
876.36	-0.000
876.53	-0.000
876.70	-0.000
876.87	-0.000
877.04	-0.000
877.21	-0.000
877.38	-0.000
877.55	-0.000
877.72	-0.000
877.89	-0.000
878.06	-0.000
878.23	-0.000
878.39	-0.000
878.56	-0.000
878.73	-0.000
878.90	-0.000
879.07	-0.000
879.24	-0.000
879.41	-0.000
879.58	-0.000
879.75	-0.000
879.92	-0.000
880.09	-0.000
880.26	-0.000
880.43	-0.000
880.60	-0.000
880.77	-0.000
880.94	-0.000
881.11	-0.000
881.27	-0.000
881.44	-0.000
881.61	-0.000
881.78	-0.000
881.95	-0.000
882.12	-0.000
882.29	-0.000
882.46	-0.000
882.63	-0.000
882.80	-0.000
882.97	-0.000
883.14	-0.000
883.30	-0.000
883.47	-0.000
883.64	-0.000
883.81	-0.000
883.98	-0.000
884.15	-0.000
884.32	-0.000
884.49	-0.000
884.66	-0.000
884.82	-0.000
884.99	-0.000
885.16	-0.000
885.33	-0.000
885.50	-0.000
885.67	-0.000
885.84	-0.000
886.01	-0.000
886.17	-0.000
886.34	-0.000
886.51	-0.000
886.68	-0.000
886.85	-0.000
887.02	-0.000
887.19	-0.000
887.36	-0.000
887.52	-0.000
887.69	-0.000
887.86	-0.000
888.03	-0.000
888.20	-0.000
888.37	-0.000
888.54	-0.000
888.70	-0.000
888.87	-0.000
889.04	-0.000
889.21	-0.000
889.38	-0.000
889.55	-0.000
889.71	-0.000
889.88	-0.000
890.05	-0.000
890.22	-0.000
890.39	-0.000
>>>>>End Processed Spectral Data<<<<<
