SpectraSuite Data File
++++++++++++++++++++++++++++++++++++
Date: Fri Jun 19 12:32:55 CEST 2015
User: introlabs
Dark Spectrum Present: Yes
Reference Spectrum Present: Yes
Number of Sampled Component Spectra: 1
Spectrometers: USB4H08886
Integration Time (usec): 745692 (USB4H08886)
Spectra Averaged: 5 (USB4H08886)
Boxcar Smoothing: 5 (USB4H08886)
Correct for Electrical Dark: Yes (USB4H08886)
Strobe/Lamp Enabled: No (USB4H08886)
Correct for Detector Non-linearity: Yes (USB4H08886)
Correct for Stray Light: Yes (USB4H08886)
Number of Pixels in Processed Spectrum: 3648
>>>>>Begin Processed Spectral Data<<<<<
178.14	-0.000
178.36	-0.000
178.57	-0.000
178.79	-0.000
179.01	-0.000
179.22	-0.000
179.44	-0.000
179.65	-0.000
179.87	-0.000
180.08	-0.000
180.30	-0.000
180.52	-0.000
180.73	-0.000
180.95	-0.000
181.16	-0.000
181.38	-0.000
181.59	-0.000
181.81	-0.000
182.03	-0.000
182.24	-0.000
182.46	-0.000
182.67	-0.000
182.89	-0.000
183.10	-0.000
183.32	-0.000
183.54	-0.000
183.75	-0.000
183.97	-0.000
184.18	-0.000
184.40	-0.000
184.61	-0.000
184.83	-0.000
185.04	-0.000
185.26	-0.000
185.48	-0.000
185.69	-0.000
185.91	-0.000
186.12	-0.000
186.34	-0.000
186.55	-0.000
186.77	-0.000
186.98	-0.000
187.20	-0.000
187.42	-0.000
187.63	-0.000
187.85	-0.000
188.06	-0.000
188.28	-0.000
188.49	-0.000
188.71	-0.000
188.92	-0.000
189.14	-0.000
189.36	-0.000
189.57	-0.000
189.79	-0.000
190.00	-0.000
190.22	-0.000
190.43	-0.000
190.65	-0.000
190.86	-0.000
191.08	-0.000
191.29	-0.000
191.51	-0.000
191.72	-0.000
191.94	-0.000
192.16	-0.000
192.37	-0.000
192.59	-0.000
192.80	-0.000
193.02	-0.000
193.23	-0.000
193.45	-0.000
193.66	-0.000
193.88	-0.000
194.09	-0.000
194.31	-0.000
194.52	-0.000
194.74	-0.000
194.95	-0.000
195.17	-0.000
195.38	-0.000
195.60	-0.000
195.81	-0.000
196.03	-0.000
196.25	-0.000
196.46	-0.000
196.68	-0.000
196.89	-0.000
197.11	-0.000
197.32	-0.000
197.54	-0.000
197.75	-0.000
197.97	-0.000
198.18	-0.000
198.40	-0.000
198.61	-0.000
198.83	-0.000
199.04	-0.000
199.26	-0.000
199.47	-0.000
199.69	-0.000
199.90	-0.000
200.12	-0.000
200.33	-0.000
200.55	-0.000
200.76	-0.000
200.98	-0.000
201.19	-0.000
201.41	-0.000
201.62	-0.000
201.84	-0.000
202.05	-0.000
202.27	-0.000
202.48	-0.000
202.70	-0.000
202.91	-0.000
203.13	-0.000
203.34	-0.000
203.56	-0.000
203.77	-0.000
203.99	-0.000
204.20	-0.000
204.42	-0.000
204.63	-0.000
204.85	-0.000
205.06	-0.000
205.28	-0.000
205.49	-0.000
205.71	-0.000
205.92	-0.000
206.14	-0.000
206.35	-0.000
206.56	-0.000
206.78	-0.000
206.99	-0.000
207.21	-0.000
207.42	-0.000
207.64	-0.000
207.85	-0.000
208.07	-0.000
208.28	-0.000
208.50	-0.000
208.71	-0.000
208.93	-0.000
209.14	-0.000
209.36	-0.000
209.57	-0.000
209.79	-0.000
210.00	-0.000
210.22	-0.000
210.43	-0.000
210.64	-0.000
210.86	-0.000
211.07	-0.000
211.29	-0.000
211.50	-0.000
211.72	-0.000
211.93	-0.000
212.15	-0.000
212.36	-0.000
212.58	-0.000
212.79	-0.000
213.01	-0.000
213.22	-0.000
213.43	-0.000
213.65	-0.000
213.86	-0.000
214.08	-0.000
214.29	-0.000
214.51	-0.000
214.72	-0.000
214.94	-0.000
215.15	-0.000
215.36	-0.000
215.58	-0.000
215.79	-0.000
216.01	-0.000
216.22	-0.000
216.44	-0.000
216.65	-0.000
216.87	-0.000
217.08	-0.000
217.29	-0.000
217.51	-0.000
217.72	-0.000
217.94	-0.000
218.15	-0.000
218.37	-0.000
218.58	-0.000
218.80	-0.000
219.01	-0.000
219.22	-0.000
219.44	-0.000
219.65	-0.000
219.87	-0.000
220.08	-0.000
220.30	-0.000
220.51	-0.000
220.72	-0.000
220.94	-0.000
221.15	-0.000
221.37	-0.000
221.58	-0.000
221.79	-0.000
222.01	-0.000
222.22	-0.000
222.44	-0.000
222.65	-0.000
222.87	-0.000
223.08	-0.000
223.29	-0.000
223.51	-0.000
223.72	-0.000
223.94	-0.000
224.15	-0.000
224.36	-0.000
224.58	-0.000
224.79	-0.000
225.01	-0.000
225.22	-0.000
225.44	-0.000
225.65	-0.000
225.86	-0.000
226.08	-0.000
226.29	-0.000
226.51	-0.000
226.72	-0.000
226.93	-0.000
227.15	-0.000
227.36	-0.000
227.58	-0.000
227.79	-0.000
228.00	-0.000
228.22	-0.000
228.43	-0.000
228.65	-0.000
228.86	-0.000
229.07	-0.000
229.29	-0.000
229.50	-0.000
229.72	-0.000
229.93	-0.000
230.14	-0.000
230.36	-0.000
230.57	-0.000
230.78	-0.000
231.00	-0.000
231.21	-0.000
231.43	-0.000
231.64	-0.000
231.85	-0.000
232.07	-0.000
232.28	-0.000
232.50	-0.000
232.71	-0.000
232.92	-0.000
233.14	-0.000
233.35	-0.000
233.56	-0.000
233.78	-0.000
233.99	-0.000
234.21	-0.000
234.42	-0.000
234.63	-0.000
234.85	-0.000
235.06	-0.000
235.27	-0.000
235.49	-0.000
235.70	-0.000
235.91	-0.000
236.13	-0.000
236.34	-0.000
236.56	-0.000
236.77	-0.000
236.98	-0.000
237.20	-0.000
237.41	-0.000
237.62	-0.000
237.84	-0.000
238.05	-0.000
238.26	-0.000
238.48	-0.000
238.69	-0.000
238.91	-0.000
239.12	-0.000
239.33	-0.000
239.55	-0.000
239.76	-0.000
239.97	-0.000
240.19	-0.000
240.40	-0.000
240.61	-0.000
240.83	-0.000
241.04	-0.000
241.25	-0.000
241.47	-0.000
241.68	-0.000
241.89	-0.000
242.11	-0.000
242.32	-0.000
242.53	-0.000
242.75	-0.000
242.96	-0.000
243.17	-0.000
243.39	-0.000
243.60	-0.000
243.81	-0.000
244.03	-0.000
244.24	-0.000
244.45	-0.000
244.67	-0.000
244.88	-0.000
245.09	-0.000
245.31	-0.000
245.52	-0.000
245.73	-0.000
245.95	-0.000
246.16	-0.000
246.37	-0.000
246.59	-0.000
246.80	-0.000
247.01	-0.000
247.23	-0.000
247.44	-0.000
247.65	-0.000
247.87	-0.000
248.08	-0.000
248.29	-0.000
248.51	-0.000
248.72	-0.000
248.93	-0.000
249.15	-0.000
249.36	-0.000
249.57	-0.000
249.78	-0.000
250.00	-0.000
250.21	-0.000
250.42	-0.000
250.64	-0.000
250.85	-0.000
251.06	-0.000
251.28	-0.000
251.49	-0.000
251.70	-0.000
251.92	-0.000
252.13	-0.000
252.34	-0.000
252.55	-0.000
252.77	-0.000
252.98	-0.000
253.19	-0.000
253.41	-0.000
253.62	-0.000
253.83	-0.000
254.05	-0.000
254.26	-0.000
254.47	-0.000
254.68	-0.000
254.90	-0.000
255.11	-0.000
255.32	-0.000
255.54	-0.000
255.75	-0.000
255.96	-0.000
256.17	-0.000
256.39	-0.000
256.60	-0.000
256.81	-0.000
257.03	-0.000
257.24	-0.000
257.45	-0.000
257.66	-0.000
257.88	-0.000
258.09	-0.000
258.30	-0.000
258.51	-0.000
258.73	-0.000
258.94	-0.000
259.15	-0.000
259.37	-0.000
259.58	-0.000
259.79	-0.000
260.00	-0.000
260.22	-0.000
260.43	-0.000
260.64	-0.000
260.85	-0.000
261.07	-0.000
261.28	-0.000
261.49	-0.000
261.71	-0.000
261.92	-0.000
262.13	-0.000
262.34	-0.000
262.56	-0.000
262.77	-0.000
262.98	-0.000
263.19	-0.000
263.41	-0.000
263.62	-0.000
263.83	-0.000
264.04	-0.000
264.26	-0.000
264.47	-0.000
264.68	-0.000
264.89	-0.000
265.11	-0.000
265.32	-0.000
265.53	-0.000
265.74	-0.000
265.96	-0.000
266.17	-0.000
266.38	-0.000
266.59	-0.000
266.81	-0.000
267.02	-0.000
267.23	-0.000
267.44	-0.000
267.65	-0.000
267.87	-0.000
268.08	-0.000
268.29	-0.000
268.50	-0.000
268.72	-0.000
268.93	-0.000
269.14	-0.000
269.35	-0.000
269.57	-0.000
269.78	-0.000
269.99	-0.000
270.20	-0.000
270.41	-0.000
270.63	-0.000
270.84	-0.000
271.05	-0.000
271.26	-0.000
271.48	-0.000
271.69	-0.000
271.90	-0.000
272.11	-0.000
272.32	-0.000
272.54	-0.000
272.75	-0.000
272.96	-0.000
273.17	-0.000
273.39	-0.000
273.60	-0.000
273.81	-0.000
274.02	-0.000
274.23	-0.000
274.45	-0.000
274.66	-0.000
274.87	-0.000
275.08	-0.000
275.29	-0.000
275.51	-0.000
275.72	-0.000
275.93	-0.000
276.14	-0.000
276.35	-0.000
276.57	-0.000
276.78	-0.000
276.99	-0.000
277.20	-0.000
277.41	-0.000
277.63	-0.000
277.84	-0.000
278.05	-0.000
278.26	-0.000
278.47	-0.000
278.69	-0.000
278.90	-0.000
279.11	-0.000
279.32	-0.000
279.53	-0.000
279.74	-0.000
279.96	-0.000
280.17	-0.000
280.38	-0.000
280.59	-0.000
280.80	-0.000
281.02	-0.000
281.23	-0.000
281.44	-0.000
281.65	-0.000
281.86	-0.000
282.07	-0.000
282.29	-0.000
282.50	-0.000
282.71	-0.000
282.92	-0.000
283.13	-0.000
283.35	-0.000
283.56	-0.000
283.77	-0.000
283.98	-0.000
284.19	-0.000
284.40	-0.000
284.62	-0.000
284.83	-0.000
285.04	-0.000
285.25	-0.000
285.46	-0.000
285.67	-0.000
285.88	-0.000
286.10	-0.000
286.31	-0.000
286.52	-0.000
286.73	-0.000
286.94	-0.000
287.15	-0.000
287.37	-0.000
287.58	-0.000
287.79	-0.000
288.00	-0.000
288.21	-0.000
288.42	-0.000
288.63	-0.000
288.85	-0.000
289.06	-0.000
289.27	-0.000
289.48	-0.000
289.69	-0.000
289.90	-0.000
290.11	-0.000
290.33	-0.000
290.54	-0.000
290.75	-0.000
290.96	-0.000
291.17	-0.000
291.38	-0.000
291.59	-0.000
291.81	-0.000
292.02	-0.000
292.23	-0.000
292.44	-0.000
292.65	3.254
292.86	-0.000
293.07	-0.000
293.28	2.315
293.50	2.870
293.71	-0.000
293.92	-0.000
294.13	-0.000
294.34	-0.000
294.55	-0.000
294.76	-0.000
294.97	2.552
295.19	-0.000
295.40	-0.000
295.61	-0.000
295.82	2.240
296.03	2.002
296.24	2.144
296.45	1.740
296.66	1.523
296.87	1.531
297.09	1.590
297.30	1.689
297.51	1.478
297.72	1.451
297.93	1.515
298.14	1.493
298.35	1.451
298.56	1.429
298.77	1.511
298.99	1.502
299.20	1.471
299.41	1.453
299.62	1.443
299.83	1.436
300.04	1.389
300.25	1.380
300.46	1.416
300.67	1.396
300.88	1.355
301.10	1.358
301.31	1.416
301.52	1.376
301.73	1.327
301.94	1.319
302.15	1.338
302.36	1.304
302.57	1.253
302.78	1.261
302.99	1.293
303.20	1.305
303.41	1.233
303.63	1.214
303.84	1.222
304.05	1.219
304.26	1.175
304.47	1.178
304.68	1.186
304.89	1.179
305.10	1.140
305.31	1.131
305.52	1.166
305.73	1.163
305.94	1.131
306.15	1.128
306.37	1.146
306.58	1.149
306.79	1.122
307.00	1.137
307.21	1.168
307.42	1.165
307.63	1.136
307.84	1.111
308.05	1.139
308.26	1.140
308.47	1.115
308.68	1.116
308.89	1.121
309.10	1.118
309.31	1.084
309.52	1.077
309.73	1.090
309.95	1.085
310.16	1.062
310.37	1.054
310.58	1.073
310.79	1.074
311.00	1.067
311.21	1.070
311.42	1.074
311.63	1.069
311.84	1.052
312.05	1.050
312.26	1.069
312.47	1.079
312.68	1.057
312.89	1.041
313.10	1.046
313.31	1.024
313.52	1.020
313.73	1.021
313.94	1.028
314.15	1.014
314.36	0.996
314.57	0.991
314.78	0.981
314.99	0.976
315.21	0.964
315.42	0.968
315.63	0.981
315.84	0.963
316.05	0.948
316.26	0.953
316.47	0.970
316.68	0.966
316.89	0.948
317.10	0.964
317.31	0.971
317.52	0.972
317.73	0.952
317.94	0.952
318.15	0.989
318.36	0.990
318.57	0.973
318.78	0.961
318.99	0.992
319.20	0.989
319.41	0.961
319.62	0.961
319.83	0.972
320.04	0.970
320.25	0.958
320.46	0.930
320.67	0.935
320.88	0.932
321.09	0.920
321.30	0.908
321.51	0.921
321.72	0.919
321.93	0.905
322.14	0.901
322.35	0.924
322.56	0.925
322.77	0.913
322.98	0.923
323.19	0.932
323.40	0.937
323.61	0.917
323.82	0.913
324.03	0.920
324.24	0.917
324.45	0.903
324.66	0.887
324.87	0.886
325.08	0.885
325.29	0.866
325.50	0.859
325.71	0.865
325.92	0.873
326.13	0.861
326.34	0.861
326.55	0.870
326.76	0.870
326.97	0.859
327.18	0.854
327.39	0.878
327.60	0.880
327.80	0.878
328.01	0.877
328.22	0.877
328.43	0.880
328.64	0.868
328.85	0.872
329.06	0.874
329.27	0.875
329.48	0.869
329.69	0.852
329.90	0.862
330.11	0.856
330.32	0.848
330.53	0.843
330.74	0.846
330.95	0.845
331.16	0.831
331.37	0.838
331.58	0.840
331.79	0.840
332.00	0.831
332.21	0.824
332.42	0.829
332.63	0.821
332.83	0.816
333.04	0.817
333.25	0.828
333.46	0.826
333.67	0.813
333.88	0.814
334.09	0.823
334.30	0.820
334.51	0.812
334.72	0.808
334.93	0.813
335.14	0.812
335.35	0.805
335.56	0.801
335.77	0.810
335.98	0.808
336.18	0.800
336.39	0.795
336.60	0.801
336.81	0.799
337.02	0.797
337.23	0.800
337.44	0.803
337.65	0.804
337.86	0.795
338.07	0.792
338.28	0.798
338.49	0.797
338.70	0.789
338.91	0.795
339.11	0.801
339.32	0.799
339.53	0.789
339.74	0.786
339.95	0.785
340.16	0.783
340.37	0.775
340.58	0.773
340.79	0.780
341.00	0.779
341.21	0.768
341.41	0.770
341.62	0.771
341.83	0.771
342.04	0.766
342.25	0.775
342.46	0.780
342.67	0.779
342.88	0.772
343.09	0.770
343.30	0.779
343.50	0.782
343.71	0.773
343.92	0.774
344.13	0.779
344.34	0.779
344.55	0.765
344.76	0.763
344.97	0.768
345.18	0.767
345.38	0.763
345.59	0.758
345.80	0.759
346.01	0.756
346.22	0.751
346.43	0.745
346.64	0.753
346.85	0.753
347.06	0.746
347.26	0.747
347.47	0.752
347.68	0.748
347.89	0.744
348.10	0.739
348.31	0.746
348.52	0.745
348.73	0.743
348.93	0.740
349.14	0.742
349.35	0.742
349.56	0.736
349.77	0.731
349.98	0.738
350.19	0.735
350.39	0.731
350.60	0.727
350.81	0.742
351.02	0.741
351.23	0.737
351.44	0.740
351.65	0.743
351.86	0.740
352.06	0.739
352.27	0.740
352.48	0.742
352.69	0.742
352.90	0.737
353.11	0.725
353.31	0.732
353.52	0.727
353.73	0.719
353.94	0.721
354.15	0.727
354.36	0.727
354.57	0.718
354.77	0.720
354.98	0.720
355.19	0.718
355.40	0.717
355.61	0.723
355.82	0.729
356.02	0.729
356.23	0.722
356.44	0.723
356.65	0.728
356.86	0.729
357.07	0.722
357.27	0.727
357.48	0.731
357.69	0.727
357.90	0.712
358.11	0.709
358.32	0.714
358.52	0.717
358.73	0.707
358.94	0.709
359.15	0.714
359.36	0.715
359.56	0.710
359.77	0.707
359.98	0.715
360.19	0.714
360.40	0.711
360.61	0.710
360.81	0.711
361.02	0.711
361.23	0.703
361.44	0.701
361.65	0.703
361.85	0.702
362.06	0.699
362.27	0.701
362.48	0.702
362.69	0.705
362.89	0.699
363.10	0.700
363.31	0.705
363.52	0.708
363.73	0.703
363.93	0.703
364.14	0.706
364.35	0.708
364.56	0.698
364.77	0.699
364.97	0.702
365.18	0.703
365.39	0.697
365.60	0.695
365.81	0.696
366.01	0.696
366.22	0.693
366.43	0.692
366.64	0.695
366.84	0.702
367.05	0.699
367.26	0.698
367.47	0.700
367.68	0.700
367.88	0.696
368.09	0.695
368.30	0.698
368.51	0.697
368.71	0.695
368.92	0.699
369.13	0.698
369.34	0.698
369.55	0.696
369.75	0.697
369.96	0.704
370.17	0.704
370.38	0.700
370.58	0.699
370.79	0.706
371.00	0.704
371.21	0.695
371.41	0.700
371.62	0.704
371.83	0.700
372.04	0.697
372.24	0.691
372.45	0.693
372.66	0.694
372.87	0.690
373.07	0.687
373.28	0.687
373.49	0.691
373.70	0.681
373.90	0.680
374.11	0.689
374.32	0.689
374.53	0.688
374.73	0.688
374.94	0.691
375.15	0.692
375.36	0.688
375.56	0.698
375.77	0.699
375.98	0.699
376.19	0.696
376.39	0.690
376.60	0.694
376.81	0.695
377.02	0.692
377.22	0.691
377.43	0.691
377.64	0.691
377.84	0.682
378.05	0.686
378.26	0.692
378.47	0.691
378.67	0.687
378.88	0.684
379.09	0.686
379.30	0.686
379.50	0.683
379.71	0.685
379.92	0.688
380.12	0.687
380.33	0.678
380.54	0.676
380.75	0.683
380.95	0.684
381.16	0.680
381.37	0.680
381.57	0.682
381.78	0.683
381.99	0.682
382.20	0.682
382.40	0.685
382.61	0.686
382.82	0.681
383.02	0.674
383.23	0.678
383.44	0.678
383.64	0.676
383.85	0.679
384.06	0.682
384.27	0.679
384.47	0.676
384.68	0.677
384.89	0.683
385.09	0.683
385.30	0.682
385.51	0.681
385.71	0.684
385.92	0.684
386.13	0.681
386.33	0.683
386.54	0.685
386.75	0.683
386.95	0.678
387.16	0.673
387.37	0.675
387.58	0.675
387.78	0.672
387.99	0.671
388.20	0.673
388.40	0.670
388.61	0.666
388.82	0.669
389.02	0.672
389.23	0.672
389.44	0.670
389.64	0.670
389.85	0.681
390.06	0.681
390.26	0.680
390.47	0.680
390.68	0.682
390.88	0.680
391.09	0.675
391.30	0.673
391.50	0.674
391.71	0.674
391.92	0.671
392.12	0.663
392.33	0.664
392.53	0.664
392.74	0.663
392.95	0.663
393.15	0.666
393.36	0.668
393.57	0.666
393.77	0.668
393.98	0.671
394.19	0.671
394.39	0.670
394.60	0.672
394.81	0.675
395.01	0.673
395.22	0.670
395.43	0.671
395.63	0.675
395.84	0.676
396.04	0.671
396.25	0.673
396.46	0.675
396.66	0.672
396.87	0.668
397.08	0.665
397.28	0.667
397.49	0.667
397.69	0.664
397.90	0.659
398.11	0.661
398.31	0.661
398.52	0.657
398.73	0.657
398.93	0.657
399.14	0.656
399.34	0.655
399.55	0.657
399.76	0.657
399.96	0.658
400.17	0.656
400.37	0.655
400.58	0.661
400.79	0.663
400.99	0.660
401.20	0.666
401.41	0.669
401.61	0.669
401.82	0.673
402.02	0.673
402.23	0.675
402.44	0.674
402.64	0.673
402.85	0.668
403.05	0.667
403.26	0.666
403.47	0.659
403.67	0.658
403.88	0.659
404.08	0.653
404.29	0.651
404.50	0.650
404.70	0.651
404.91	0.650
405.11	0.647
405.32	0.648
405.52	0.649
405.73	0.649
405.94	0.646
406.14	0.648
406.35	0.650
406.55	0.650
406.76	0.647
406.97	0.648
407.17	0.650
407.38	0.650
407.58	0.647
407.79	0.650
407.99	0.652
408.20	0.653
408.41	0.649
408.61	0.647
408.82	0.649
409.02	0.649
409.23	0.646
409.43	0.645
409.64	0.647
409.84	0.647
410.05	0.644
410.26	0.642
410.46	0.642
410.67	0.642
410.87	0.643
411.08	0.645
411.28	0.646
411.49	0.648
411.69	0.645
411.90	0.646
412.11	0.648
412.31	0.649
412.52	0.647
412.72	0.647
412.93	0.649
413.13	0.647
413.34	0.643
413.54	0.645
413.75	0.647
413.95	0.646
414.16	0.643
414.37	0.645
414.57	0.646
414.78	0.649
414.98	0.646
415.19	0.648
415.39	0.646
415.60	0.648
415.80	0.647
416.01	0.645
416.21	0.648
416.42	0.648
416.62	0.643
416.83	0.644
417.03	0.644
417.24	0.644
417.44	0.641
417.65	0.640
417.86	0.641
418.06	0.639
418.27	0.637
418.47	0.638
418.68	0.639
418.88	0.639
419.09	0.637
419.29	0.637
419.50	0.638
419.70	0.638
419.91	0.636
420.11	0.635
420.32	0.638
420.52	0.637
420.73	0.636
420.93	0.637
421.14	0.639
421.34	0.638
421.55	0.634
421.75	0.634
421.96	0.636
422.16	0.637
422.37	0.635
422.57	0.633
422.78	0.635
422.98	0.632
423.19	0.630
423.39	0.629
423.60	0.633
423.80	0.635
424.01	0.633
424.21	0.635
424.42	0.636
424.62	0.636
424.83	0.635
425.03	0.635
425.23	0.638
425.44	0.638
425.64	0.638
425.85	0.637
426.05	0.638
426.26	0.639
426.46	0.636
426.67	0.635
426.87	0.641
427.08	0.641
427.28	0.639
427.49	0.639
427.69	0.641
427.90	0.640
428.10	0.636
428.31	0.636
428.51	0.638
428.71	0.637
428.92	0.637
429.12	0.634
429.33	0.635
429.53	0.639
429.74	0.642
429.94	0.643
430.15	0.643
430.35	0.644
430.56	0.641
430.76	0.640
430.96	0.642
431.17	0.639
431.37	0.636
431.58	0.635
431.78	0.633
431.99	0.626
432.19	0.628
432.40	0.630
432.60	0.631
432.80	0.633
433.01	0.631
433.21	0.632
433.42	0.634
433.62	0.635
433.83	0.634
434.03	0.637
434.23	0.641
434.44	0.639
434.64	0.637
434.85	0.642
435.05	0.643
435.26	0.643
435.46	0.641
435.66	0.641
435.87	0.641
436.07	0.641
436.28	0.636
436.48	0.633
436.69	0.633
436.89	0.633
437.09	0.627
437.30	0.626
437.50	0.627
437.71	0.638
437.91	0.637
438.11	0.639
438.32	0.644
438.52	0.645
438.73	0.644
438.93	0.642
439.13	0.643
439.34	0.646
439.54	0.644
439.75	0.644
439.95	0.635
440.15	0.639
440.36	0.638
440.56	0.635
440.77	0.636
440.97	0.637
441.17	0.635
441.38	0.637
441.58	0.635
441.79	0.634
441.99	0.633
442.19	0.632
442.40	0.631
442.60	0.630
442.81	0.628
443.01	0.628
443.21	0.629
443.42	0.629
443.62	0.627
443.82	0.627
444.03	0.629
444.23	0.629
444.44	0.629
444.64	0.628
444.84	0.629
445.05	0.630
445.25	0.627
445.45	0.628
445.66	0.631
445.86	0.631
446.06	0.632
446.27	0.631
446.47	0.635
446.68	0.634
446.88	0.633
447.08	0.632
447.29	0.634
447.49	0.635
447.69	0.633
447.90	0.631
448.10	0.635
448.30	0.632
448.51	0.633
448.71	0.631
448.91	0.634
449.12	0.633
449.32	0.634
449.52	0.633
449.73	0.637
449.93	0.637
450.14	0.637
450.34	0.637
450.54	0.640
450.75	0.637
450.95	0.636
451.15	0.635
451.36	0.638
451.56	0.636
451.76	0.634
451.97	0.631
452.17	0.632
452.37	0.631
452.58	0.627
452.78	0.627
452.98	0.630
453.19	0.630
453.39	0.630
453.59	0.629
453.79	0.630
454.00	0.631
454.20	0.630
454.40	0.631
454.61	0.633
454.81	0.634
455.01	0.632
455.22	0.632
455.42	0.635
455.62	0.633
455.83	0.632
456.03	0.636
456.23	0.637
456.44	0.637
456.64	0.636
456.84	0.636
457.04	0.638
457.25	0.637
457.45	0.634
457.65	0.632
457.86	0.634
458.06	0.632
458.26	0.627
458.47	0.626
458.67	0.627
458.87	0.627
459.07	0.624
459.28	0.627
459.48	0.629
459.68	0.630
459.89	0.628
460.09	0.628
460.29	0.629
460.49	0.631
460.70	0.630
460.90	0.630
461.10	0.632
461.31	0.632
461.51	0.628
461.71	0.630
461.91	0.631
462.12	0.631
462.32	0.629
462.52	0.630
462.72	0.633
462.93	0.633
463.13	0.631
463.33	0.631
463.53	0.633
463.74	0.633
463.94	0.628
464.14	0.629
464.35	0.631
464.55	0.632
464.75	0.629
464.95	0.627
465.16	0.630
465.36	0.629
465.56	0.627
465.76	0.627
465.97	0.627
466.17	0.628
466.37	0.626
466.57	0.627
466.78	0.628
466.98	0.629
467.18	0.626
467.38	0.625
467.59	0.627
467.79	0.629
467.99	0.628
468.19	0.629
468.39	0.633
468.60	0.633
468.80	0.630
469.00	0.632
469.20	0.633
469.41	0.633
469.61	0.633
469.81	0.633
470.01	0.633
470.22	0.633
470.42	0.630
470.62	0.628
470.82	0.629
471.02	0.629
471.23	0.627
471.43	0.627
471.63	0.629
471.83	0.628
472.04	0.626
472.24	0.625
472.44	0.631
472.64	0.631
472.84	0.629
473.05	0.629
473.25	0.632
473.45	0.631
473.65	0.629
473.85	0.630
474.06	0.632
474.26	0.632
474.46	0.633
474.66	0.630
474.86	0.632
475.07	0.632
475.27	0.630
475.47	0.627
475.67	0.628
475.87	0.631
476.08	0.627
476.28	0.628
476.48	0.629
476.68	0.627
476.88	0.624
477.09	0.625
477.29	0.627
477.49	0.628
477.69	0.626
477.89	0.627
478.09	0.626
478.30	0.629
478.50	0.626
478.70	0.625
478.90	0.626
479.10	0.629
479.31	0.629
479.51	0.627
479.71	0.628
479.91	0.628
480.11	0.627
480.31	0.627
480.52	0.626
480.72	0.626
480.92	0.624
481.12	0.623
481.32	0.622
481.52	0.619
481.72	0.619
481.93	0.623
482.13	0.624
482.33	0.624
482.53	0.621
482.73	0.622
482.93	0.623
483.14	0.622
483.34	0.621
483.54	0.622
483.74	0.622
483.94	0.621
484.14	0.616
484.34	0.616
484.55	0.617
484.75	0.618
484.95	0.616
485.15	0.616
485.35	0.617
485.55	0.616
485.75	0.615
485.96	0.615
486.16	0.617
486.36	0.617
486.56	0.615
486.76	0.615
486.96	0.616
487.16	0.616
487.36	0.614
487.57	0.614
487.77	0.615
487.97	0.615
488.17	0.613
488.37	0.612
488.57	0.613
488.77	0.614
488.97	0.612
489.18	0.611
489.38	0.613
489.58	0.614
489.78	0.613
489.98	0.613
490.18	0.613
490.38	0.614
490.58	0.612
490.78	0.613
490.98	0.615
491.19	0.615
491.39	0.615
491.59	0.614
491.79	0.617
491.99	0.617
492.19	0.616
492.39	0.620
492.59	0.620
492.79	0.622
492.99	0.622
493.20	0.622
493.40	0.622
493.60	0.624
493.80	0.621
494.00	0.620
494.20	0.621
494.40	0.621
494.60	0.617
494.80	0.622
495.00	0.621
495.20	0.619
495.40	0.617
495.61	0.619
495.81	0.620
496.01	0.624
496.21	0.624
496.41	0.623
496.61	0.624
496.81	0.622
497.01	0.617
497.21	0.617
497.41	0.618
497.61	0.618
497.81	0.615
498.01	0.615
498.21	0.613
498.41	0.611
498.61	0.611
498.82	0.613
499.02	0.616
499.22	0.616
499.42	0.616
499.62	0.616
499.82	0.618
500.02	0.619
500.22	0.617
500.42	0.620
500.62	0.621
500.82	0.621
501.02	0.619
501.22	0.618
501.42	0.618
501.62	0.620
501.82	0.619
502.02	0.619
502.22	0.619
502.42	0.621
502.62	0.618
502.82	0.618
503.02	0.619
503.22	0.619
503.42	0.617
503.63	0.618
503.83	0.616
504.03	0.615
504.23	0.613
504.43	0.614
504.63	0.615
504.83	0.614
505.03	0.613
505.23	0.615
505.43	0.617
505.63	0.618
505.83	0.617
506.03	0.619
506.23	0.621
506.43	0.622
506.63	0.620
506.83	0.619
507.03	0.622
507.23	0.622
507.43	0.619
507.63	0.619
507.83	0.620
508.03	0.620
508.23	0.619
508.43	0.617
508.63	0.619
508.83	0.620
509.03	0.621
509.23	0.619
509.43	0.621
509.63	0.621
509.83	0.619
510.03	0.622
510.23	0.624
510.43	0.625
510.63	0.625
510.83	0.625
511.03	0.626
511.23	0.624
511.43	0.623
511.63	0.625
511.83	0.628
512.03	0.628
512.22	0.625
512.42	0.625
512.62	0.626
512.82	0.626
513.02	0.625
513.22	0.625
513.42	0.628
513.62	0.631
513.82	0.629
514.02	0.628
514.22	0.630
514.42	0.630
514.62	0.629
514.82	0.630
515.02	0.633
515.22	0.636
515.42	0.634
515.62	0.636
515.82	0.635
516.02	0.636
516.22	0.635
516.42	0.637
516.62	0.639
516.82	0.640
517.01	0.637
517.21	0.636
517.41	0.640
517.61	0.640
517.81	0.636
518.01	0.636
518.21	0.636
518.41	0.635
518.61	0.633
518.81	0.633
519.01	0.634
519.21	0.634
519.41	0.633
519.61	0.627
519.81	0.630
520.00	0.630
520.20	0.630
520.40	0.633
520.60	0.635
520.80	0.634
521.00	0.634
521.20	0.635
521.40	0.640
521.60	0.641
521.80	0.640
522.00	0.641
522.20	0.644
522.39	0.642
522.59	0.639
522.79	0.641
522.99	0.644
523.19	0.642
523.39	0.640
523.59	0.638
523.79	0.641
523.99	0.644
524.19	0.642
524.38	0.641
524.58	0.644
524.78	0.644
524.98	0.641
525.18	0.644
525.38	0.645
525.58	0.646
525.78	0.643
525.98	0.641
526.18	0.641
526.37	0.641
526.57	0.642
526.77	0.642
526.97	0.643
527.17	0.644
527.37	0.639
527.57	0.642
527.77	0.644
527.96	0.644
528.16	0.643
528.36	0.644
528.56	0.646
528.76	0.643
528.96	0.641
529.16	0.643
529.36	0.646
529.55	0.646
529.75	0.642
529.95	0.642
530.15	0.644
530.35	0.646
530.55	0.644
530.75	0.645
530.94	0.648
531.14	0.648
531.34	0.646
531.54	0.644
531.74	0.648
531.94	0.651
532.13	0.648
532.33	0.650
532.53	0.649
532.73	0.648
532.93	0.646
533.13	0.646
533.33	0.647
533.52	0.647
533.72	0.650
533.92	0.647
534.12	0.646
534.32	0.646
534.52	0.645
534.71	0.647
534.91	0.651
535.11	0.652
535.31	0.650
535.51	0.652
535.71	0.655
535.90	0.652
536.10	0.653
536.30	0.655
536.50	0.656
536.70	0.656
536.89	0.653
537.09	0.652
537.29	0.653
537.49	0.655
537.69	0.652
537.89	0.652
538.08	0.652
538.28	0.650
538.48	0.650
538.68	0.652
538.88	0.654
539.07	0.654
539.27	0.652
539.47	0.652
539.67	0.652
539.87	0.653
540.06	0.650
540.26	0.652
540.46	0.654
540.66	0.652
540.86	0.649
541.05	0.649
541.25	0.651
541.45	0.651
541.65	0.649
541.84	0.651
542.04	0.653
542.24	0.654
542.44	0.653
542.64	0.654
542.83	0.656
543.03	0.657
543.23	0.654
543.43	0.655
543.62	0.657
543.82	0.657
544.02	0.655
544.22	0.655
544.42	0.659
544.61	0.659
544.81	0.656
545.01	0.655
545.21	0.657
545.40	0.658
545.60	0.655
545.80	0.658
546.00	0.659
546.19	0.658
546.39	0.656
546.59	0.654
546.79	0.656
546.98	0.656
547.18	0.656
547.38	0.656
547.58	0.660
547.77	0.660
547.97	0.657
548.17	0.658
548.37	0.659
548.56	0.660
548.76	0.659
548.96	0.661
549.16	0.665
549.35	0.664
549.55	0.661
549.75	0.662
549.95	0.666
550.14	0.666
550.34	0.664
550.54	0.669
550.73	0.673
550.93	0.673
551.13	0.669
551.33	0.667
551.52	0.667
551.72	0.668
551.92	0.665
552.12	0.665
552.31	0.666
552.51	0.666
552.71	0.661
552.90	0.661
553.10	0.663
553.30	0.663
553.50	0.662
553.69	0.665
553.89	0.666
554.09	0.666
554.28	0.663
554.48	0.665
554.68	0.667
554.87	0.668
555.07	0.663
555.27	0.663
555.47	0.665
555.66	0.665
555.86	0.663
556.06	0.665
556.25	0.667
556.45	0.675
556.65	0.672
556.84	0.676
557.04	0.679
557.24	0.682
557.43	0.681
557.63	0.683
557.83	0.686
558.02	0.685
558.22	0.688
558.42	0.689
558.61	0.682
558.81	0.682
559.01	0.677
559.21	0.677
559.40	0.677
559.60	0.678
559.80	0.673
559.99	0.675
560.19	0.678
560.39	0.672
560.58	0.669
560.78	0.670
560.97	0.674
561.17	0.672
561.37	0.669
561.56	0.670
561.76	0.673
561.96	0.673
562.15	0.669
562.35	0.672
562.55	0.675
562.74	0.675
562.94	0.673
563.14	0.671
563.33	0.673
563.53	0.673
563.73	0.670
563.92	0.671
564.12	0.675
564.31	0.677
564.51	0.675
564.71	0.675
564.90	0.679
565.10	0.679
565.30	0.681
565.49	0.683
565.69	0.686
565.89	0.686
566.08	0.683
566.28	0.684
566.47	0.686
566.67	0.683
566.87	0.680
567.06	0.681
567.26	0.689
567.46	0.684
567.65	0.682
567.85	0.684
568.04	0.687
568.24	0.686
568.44	0.682
568.63	0.680
568.83	0.682
569.02	0.681
569.22	0.676
569.42	0.672
569.61	0.675
569.81	0.673
570.00	0.671
570.20	0.672
570.40	0.674
570.59	0.674
570.79	0.672
570.98	0.670
571.18	0.672
571.38	0.672
571.57	0.669
571.77	0.667
571.96	0.671
572.16	0.669
572.35	0.663
572.55	0.665
572.75	0.663
572.94	0.663
573.14	0.661
573.33	0.662
573.53	0.662
573.73	0.662
573.92	0.660
574.12	0.658
574.31	0.660
574.51	0.661
574.70	0.658
574.90	0.660
575.09	0.662
575.29	0.662
575.49	0.660
575.68	0.661
575.88	0.663
576.07	0.664
576.27	0.662
576.46	0.661
576.66	0.660
576.86	0.659
577.05	0.656
577.25	0.654
577.44	0.656
577.64	0.656
577.83	0.653
578.03	0.653
578.22	0.652
578.42	0.652
578.61	0.649
578.81	0.650
579.00	0.651
579.20	0.651
579.40	0.650
579.59	0.649
579.79	0.650
579.98	0.650
580.18	0.649
580.37	0.650
580.57	0.652
580.76	0.657
580.96	0.655
581.15	0.656
581.35	0.658
581.54	0.658
581.74	0.656
581.93	0.657
582.13	0.660
582.32	0.657
582.52	0.655
582.71	0.655
582.91	0.651
583.10	0.651
583.30	0.650
583.49	0.649
583.69	0.653
583.88	0.655
584.08	0.654
584.27	0.656
584.47	0.659
584.66	0.659
584.86	0.658
585.05	0.659
585.25	0.662
585.44	0.662
585.64	0.661
585.83	0.658
586.03	0.659
586.22	0.657
586.42	0.654
586.61	0.655
586.81	0.659
587.00	0.658
587.20	0.656
587.39	0.657
587.59	0.659
587.78	0.660
587.98	0.660
588.17	0.661
588.37	0.664
588.56	0.665
588.76	0.661
588.95	0.661
589.15	0.664
589.34	0.667
589.54	0.664
589.73	0.664
589.92	0.668
590.12	0.668
590.31	0.665
590.51	0.670
590.70	0.672
590.90	0.672
591.09	0.669
591.29	0.668
591.48	0.669
591.68	0.670
591.87	0.668
592.06	0.667
592.26	0.670
592.45	0.669
592.65	0.662
592.84	0.662
593.04	0.666
593.23	0.668
593.43	0.666
593.62	0.665
593.81	0.666
594.01	0.666
594.20	0.663
594.40	0.663
594.59	0.666
594.79	0.667
594.98	0.665
595.17	0.664
595.37	0.666
595.56	0.667
595.76	0.665
595.95	0.666
596.14	0.669
596.34	0.669
596.53	0.666
596.73	0.667
596.92	0.669
597.12	0.671
597.31	0.670
597.50	0.669
597.70	0.672
597.89	0.672
598.09	0.668
598.28	0.669
598.47	0.672
598.67	0.671
598.86	0.667
599.06	0.669
599.25	0.670
599.44	0.668
599.64	0.666
599.83	0.663
600.03	0.667
600.22	0.668
600.41	0.668
600.61	0.666
600.80	0.669
601.00	0.670
601.19	0.665
601.38	0.664
601.58	0.667
601.77	0.668
601.96	0.670
602.16	0.670
602.35	0.679
602.55	0.676
602.74	0.677
602.93	0.678
603.13	0.683
603.32	0.684
603.51	0.683
603.71	0.686
603.90	0.688
604.09	0.688
604.29	0.685
604.48	0.679
604.68	0.681
604.87	0.679
605.06	0.674
605.26	0.671
605.45	0.672
605.64	0.671
605.84	0.666
606.03	0.666
606.22	0.665
606.42	0.665
606.61	0.661
606.80	0.661
607.00	0.663
607.19	0.664
607.38	0.663
607.58	0.664
607.77	0.667
607.96	0.668
608.16	0.666
608.35	0.671
608.54	0.675
608.74	0.678
608.93	0.683
609.12	0.686
609.32	0.690
609.51	0.693
609.70	0.691
609.90	0.693
610.09	0.698
610.28	0.703
610.48	0.695
610.67	0.697
610.86	0.698
611.06	0.692
611.25	0.688
611.44	0.689
611.64	0.689
611.83	0.691
612.02	0.687
612.21	0.685
612.41	0.685
612.60	0.684
612.79	0.680
612.99	0.680
613.18	0.682
613.37	0.681
613.57	0.677
613.76	0.679
613.95	0.678
614.14	0.678
614.34	0.675
614.53	0.676
614.72	0.680
614.92	0.680
615.11	0.677
615.30	0.674
615.49	0.677
615.69	0.680
615.88	0.676
616.07	0.678
616.26	0.681
616.46	0.682
616.65	0.677
616.84	0.677
617.04	0.678
617.23	0.682
617.42	0.682
617.61	0.686
617.81	0.687
618.00	0.688
618.19	0.685
618.38	0.688
618.58	0.692
618.77	0.694
618.96	0.692
619.15	0.694
619.35	0.697
619.54	0.697
619.73	0.691
619.92	0.694
620.12	0.698
620.31	0.699
620.50	0.694
620.69	0.694
620.89	0.698
621.08	0.698
621.27	0.697
621.46	0.696
621.66	0.701
621.85	0.702
622.04	0.698
622.23	0.698
622.43	0.700
622.62	0.700
622.81	0.699
623.00	0.698
623.19	0.703
623.39	0.702
623.58	0.698
623.77	0.696
623.96	0.700
624.16	0.700
624.35	0.695
624.54	0.697
624.73	0.701
624.92	0.699
625.12	0.697
625.31	0.697
625.50	0.701
625.69	0.701
625.88	0.697
626.08	0.697
626.27	0.699
626.46	0.700
626.65	0.696
626.84	0.696
627.04	0.702
627.23	0.702
627.42	0.697
627.61	0.699
627.80	0.704
628.00	0.704
628.19	0.701
628.38	0.704
628.57	0.707
628.76	0.707
628.96	0.703
629.15	0.704
629.34	0.706
629.53	0.707
629.72	0.700
629.91	0.700
630.11	0.707
630.30	0.707
630.49	0.709
630.68	0.709
630.87	0.714
631.06	0.716
631.26	0.711
631.45	0.713
631.64	0.723
631.83	0.725
632.02	0.722
632.21	0.720
632.41	0.729
632.60	0.723
632.79	0.721
632.98	0.722
633.17	0.724
633.36	0.726
633.55	0.721
633.75	0.717
633.94	0.720
634.13	0.721
634.32	0.717
634.51	0.711
634.70	0.714
634.89	0.713
635.09	0.708
635.28	0.709
635.47	0.711
635.66	0.715
635.85	0.709
636.04	0.710
636.23	0.716
636.43	0.717
636.62	0.715
636.81	0.714
637.00	0.718
637.19	0.721
637.38	0.717
637.57	0.717
637.76	0.720
637.95	0.722
638.15	0.717
638.34	0.715
638.53	0.720
638.72	0.722
638.91	0.718
639.10	0.716
639.29	0.718
639.48	0.719
639.67	0.718
639.87	0.716
640.06	0.722
640.25	0.720
640.44	0.719
640.63	0.718
640.82	0.721
641.01	0.721
641.20	0.719
641.39	0.720
641.58	0.724
641.78	0.722
641.97	0.717
642.16	0.732
642.35	0.736
642.54	0.735
642.73	0.729
642.92	0.728
643.11	0.733
643.30	0.733
643.49	0.727
643.68	0.729
643.87	0.734
644.06	0.734
644.25	0.710
644.45	0.712
644.64	0.715
644.83	0.715
645.02	0.709
645.21	0.709
645.40	0.713
645.59	0.712
645.78	0.705
645.97	0.705
646.16	0.707
646.35	0.707
646.54	0.704
646.73	0.705
646.92	0.708
647.11	0.708
647.30	0.702
647.49	0.704
647.68	0.704
647.88	0.702
648.07	0.695
648.26	0.697
648.45	0.701
648.64	0.697
648.83	0.693
649.02	0.696
649.21	0.708
649.40	0.707
649.59	0.701
649.78	0.702
649.97	0.718
650.16	0.718
650.35	0.711
650.54	0.713
650.73	0.723
650.92	0.720
651.11	0.712
651.30	0.709
651.49	0.714
651.68	0.716
651.87	0.712
652.06	0.700
652.25	0.704
652.44	0.705
652.63	0.698
652.82	0.695
653.01	0.694
653.20	0.691
653.39	0.678
653.58	0.675
653.77	0.675
653.96	0.670
654.15	0.662
654.34	0.660
654.53	0.657
654.72	0.653
654.91	0.644
655.10	0.641
655.29	0.640
655.48	0.639
655.67	0.634
655.86	0.631
656.05	0.631
656.24	0.630
656.43	0.625
656.62	0.625
656.81	0.627
657.00	0.627
657.19	0.625
657.38	0.626
657.57	0.626
657.76	0.630
657.95	0.628
658.14	0.632
658.33	0.636
658.51	0.642
658.70	0.642
658.89	0.643
659.08	0.650
659.27	0.657
659.46	0.655
659.65	0.661
659.84	0.664
660.03	0.668
660.22	0.668
660.41	0.672
660.60	0.671
660.79	0.672
660.98	0.677
661.17	0.675
661.36	0.675
661.55	0.676
661.74	0.673
661.92	0.677
662.11	0.680
662.30	0.678
662.49	0.670
662.68	0.670
662.87	0.674
663.06	0.668
663.25	0.669
663.44	0.668
663.63	0.669
663.82	0.667
664.01	0.661
664.20	0.659
664.38	0.662
664.57	0.663
664.76	0.662
664.95	0.663
665.14	0.668
665.33	0.664
665.52	0.671
665.71	0.676
665.90	0.677
666.09	0.679
666.28	0.676
666.46	0.675
666.65	0.677
666.84	0.675
667.03	0.668
667.22	0.666
667.41	0.670
667.60	0.659
667.79	0.650
667.98	0.652
668.16	0.654
668.35	0.653
668.54	0.648
668.73	0.648
668.92	0.649
669.11	0.648
669.30	0.641
669.49	0.637
669.67	0.639
669.86	0.641
670.05	0.638
670.24	0.635
670.43	0.633
670.62	0.632
670.81	0.626
671.00	0.627
671.18	0.628
671.37	0.627
671.56	0.625
671.75	0.624
671.94	0.622
672.13	0.619
672.32	0.614
672.50	0.614
672.69	0.615
672.88	0.616
673.07	0.611
673.26	0.613
673.45	0.614
673.63	0.614
673.82	0.610
674.01	0.612
674.20	0.612
674.39	0.611
674.58	0.610
674.76	0.609
674.95	0.607
675.14	0.607
675.33	0.602
675.52	0.600
675.71	0.601
675.89	0.600
676.08	0.594
676.27	0.595
676.46	0.596
676.65	0.596
676.84	0.596
677.02	0.598
677.21	0.600
677.40	0.600
677.59	0.597
677.78	0.599
677.96	0.602
678.15	0.601
678.34	0.598
678.53	0.599
678.72	0.601
678.90	0.596
679.09	0.592
679.28	0.589
679.47	0.590
679.66	0.589
679.84	0.584
680.03	0.582
680.22	0.581
680.41	0.584
680.60	0.580
680.78	0.579
680.97	0.582
681.16	0.582
681.35	0.580
681.53	0.579
681.72	0.581
681.91	0.583
682.10	0.581
682.29	0.583
682.47	0.581
682.66	0.581
682.85	0.578
683.04	0.576
683.22	0.576
683.41	0.579
683.60	0.577
683.79	0.577
683.97	0.577
684.16	0.576
684.35	0.572
684.54	0.573
684.72	0.574
684.91	0.575
685.10	0.573
685.29	0.574
685.47	0.571
685.66	0.570
685.85	0.567
686.04	0.566
686.22	0.570
686.41	0.572
686.60	0.569
686.79	0.571
686.97	0.573
687.16	0.574
687.35	0.571
687.54	0.575
687.72	0.579
687.91	0.579
688.10	0.579
688.29	0.578
688.47	0.577
688.66	0.577
688.85	0.572
689.03	0.569
689.22	0.574
689.41	0.575
689.60	0.569
689.78	0.566
689.97	0.568
690.16	0.566
690.34	0.562
690.53	0.561
690.72	0.563
690.91	0.560
691.09	0.559
691.28	0.553
691.47	0.551
691.65	0.550
691.84	0.548
692.03	0.547
692.21	0.545
692.40	0.545
692.59	0.543
692.77	0.541
692.96	0.544
693.15	0.545
693.34	0.542
693.52	0.542
693.71	0.543
693.90	0.544
694.08	0.544
694.27	0.545
694.46	0.554
694.64	0.555
694.83	0.554
695.02	0.553
695.20	0.553
695.39	0.552
695.58	0.552
695.76	0.552
695.95	0.551
696.14	0.550
696.32	0.548
696.51	0.538
696.70	0.539
696.88	0.540
697.07	0.538
697.26	0.539
697.44	0.541
697.63	0.540
697.81	0.538
698.00	0.538
698.19	0.538
698.37	0.538
698.56	0.538
698.75	0.538
698.93	0.538
699.12	0.538
699.31	0.536
699.49	0.535
699.68	0.537
699.87	0.539
700.05	0.538
700.24	0.537
700.42	0.538
700.61	0.538
700.80	0.536
700.98	0.535
701.17	0.537
701.36	0.536
701.54	0.535
701.73	0.536
701.91	0.534
702.10	0.534
702.29	0.532
702.47	0.531
702.66	0.533
702.84	0.534
703.03	0.533
703.22	0.535
703.40	0.535
703.59	0.537
703.77	0.536
703.96	0.536
704.15	0.537
704.33	0.537
704.52	0.536
704.70	0.535
704.89	0.535
705.08	0.534
705.26	0.529
705.45	0.528
705.63	0.529
705.82	0.526
706.00	0.524
706.19	0.523
706.38	0.523
706.56	0.523
706.75	0.520
706.93	0.519
707.12	0.521
707.30	0.521
707.49	0.517
707.68	0.515
707.86	0.515
708.05	0.515
708.23	0.512
708.42	0.513
708.60	0.516
708.79	0.516
708.98	0.514
709.16	0.513
709.35	0.516
709.53	0.520
709.72	0.518
709.90	0.520
710.09	0.522
710.27	0.524
710.46	0.527
710.64	0.526
710.83	0.528
711.02	0.529
711.20	0.527
711.39	0.525
711.57	0.524
711.76	0.524
711.94	0.521
712.13	0.522
712.31	0.521
712.50	0.516
712.68	0.512
712.87	0.513
713.05	0.513
713.24	0.514
713.42	0.513
713.61	0.514
713.79	0.516
713.98	0.516
714.16	0.516
714.35	0.516
714.54	0.518
714.72	0.519
714.91	0.516
715.09	0.523
715.28	0.526
715.46	0.526
715.65	0.523
715.83	0.523
716.02	0.526
716.20	0.523
716.39	0.522
716.57	0.523
716.76	0.526
716.94	0.526
717.12	0.517
717.31	0.518
717.49	0.522
717.68	0.524
717.86	0.523
718.05	0.525
718.23	0.528
718.42	0.530
718.60	0.531
718.79	0.539
718.97	0.543
719.16	0.543
719.34	0.540
719.53	0.540
719.71	0.541
719.90	0.543
720.08	0.539
720.27	0.540
720.45	0.541
720.63	0.540
720.82	0.532
721.00	0.535
721.19	0.540
721.37	0.539
721.56	0.538
721.74	0.541
721.93	0.550
722.11	0.556
722.30	0.553
722.48	0.557
722.66	0.559
722.85	0.558
723.03	0.557
723.22	0.555
723.40	0.559
723.59	0.559
723.77	0.561
723.95	0.555
724.14	0.559
724.32	0.560
724.51	0.559
724.69	0.560
724.88	0.561
725.06	0.558
725.24	0.559
725.43	0.560
725.61	0.563
725.80	0.557
725.98	0.553
726.16	0.550
726.35	0.557
726.53	0.556
726.72	0.556
726.90	0.566
727.09	0.568
727.27	0.575
727.45	0.571
727.64	0.580
727.82	0.590
728.01	0.595
728.19	0.591
728.37	0.596
728.56	0.601
728.74	0.606
728.92	0.592
729.11	0.597
729.29	0.595
729.48	0.597
729.66	0.585
729.84	0.585
730.03	0.588
730.21	0.591
730.40	0.579
730.58	0.580
730.76	0.582
730.95	0.585
731.13	0.582
731.31	0.596
731.50	0.608
731.68	0.610
731.86	0.604
732.05	0.621
732.23	0.624
732.42	0.629
732.60	0.631
732.78	0.636
732.97	0.657
733.15	0.665
733.33	0.652
733.52	0.659
733.70	0.673
733.88	0.682
734.07	0.663
734.25	0.692
734.43	0.703
734.62	0.706
734.80	0.698
734.98	0.688
735.17	0.698
735.35	0.705
735.53	0.690
735.72	0.693
735.90	0.719
736.08	0.740
736.27	0.714
736.45	0.723
736.63	0.738
736.82	0.750
737.00	0.748
737.18	0.757
737.37	0.794
737.55	0.819
737.73	0.810
737.92	0.813
738.10	0.814
738.28	0.834
738.46	0.819
738.65	0.833
738.83	0.860
739.01	0.919
739.20	0.905
739.38	0.886
739.56	0.879
739.75	0.886
739.93	0.846
740.11	0.871
740.29	0.879
740.48	0.884
740.66	0.857
740.84	0.851
741.03	0.821
741.21	0.830
741.39	0.806
741.57	0.820
741.76	0.846
741.94	0.848
742.12	0.810
742.31	0.815
742.49	0.844
742.67	0.868
742.85	0.878
743.04	0.879
743.22	0.896
743.40	0.955
743.58	0.926
743.77	0.941
743.95	0.991
744.13	1.049
744.31	1.019
744.50	1.013
744.68	1.027
744.86	0.994
745.04	1.001
745.23	1.081
745.41	1.071
745.59	1.094
745.77	1.045
745.96	1.025
746.14	1.044
746.32	1.042
746.50	1.023
746.69	1.001
746.87	1.029
747.05	1.011
747.23	0.915
747.42	0.900
747.60	0.938
747.78	0.938
747.96	0.969
748.14	0.914
748.33	0.954
748.51	0.947
748.69	0.934
748.87	0.967
749.06	0.970
749.24	0.967
749.42	0.943
749.60	0.914
749.78	0.936
749.97	0.886
750.15	0.876
750.33	0.875
750.51	0.912
750.69	0.913
750.88	0.910
751.06	0.922
751.24	0.966
751.42	0.954
751.60	0.941
751.79	1.022
751.97	1.081
752.15	1.079
752.33	1.030
752.51	1.104
752.69	1.137
752.88	1.089
753.06	1.135
753.24	1.101
753.42	1.155
753.60	1.373
753.78	1.163
753.97	1.191
754.15	1.218
754.33	1.263
754.51	1.092
754.69	1.072
754.87	1.125
755.06	1.035
755.24	1.026
755.42	1.032
755.60	0.934
755.78	0.945
755.96	0.883
756.15	0.887
756.33	0.893
756.51	0.918
756.69	0.898
756.87	0.860
757.05	0.887
757.23	0.870
757.42	0.828
757.60	0.825
757.78	0.816
757.96	0.813
758.14	0.791
758.32	0.779
758.50	0.796
758.69	0.792
758.87	0.778
759.05	0.782
759.23	0.793
759.41	0.796
759.59	0.786
759.77	0.811
759.95	0.844
760.13	0.896
760.32	0.888
760.50	0.882
760.68	0.919
760.86	0.916
761.04	0.882
761.22	0.889
761.40	0.952
761.58	0.950
761.76	0.912
761.95	0.889
762.13	0.846
762.31	0.844
762.49	0.808
762.67	0.828
762.85	0.846
763.03	0.843
763.21	0.817
763.39	0.795
763.57	0.804
763.75	0.804
763.94	0.785
764.12	0.784
764.30	0.816
764.48	0.818
764.66	0.770
764.84	0.770
765.02	0.814
765.20	0.824
765.38	0.798
765.56	0.801
765.74	0.846
765.92	0.847
766.10	0.856
766.28	0.847
766.46	0.885
766.65	0.889
766.83	0.870
767.01	0.855
767.19	0.870
767.37	0.870
767.55	0.853
767.73	0.830
767.91	0.838
768.09	0.823
768.27	0.809
768.45	0.797
768.63	0.805
768.81	0.807
768.99	0.773
769.17	0.797
769.35	0.818
769.53	0.816
769.71	0.792
769.89	0.803
770.07	0.814
770.25	0.792
770.43	0.765
770.61	0.793
770.79	0.805
770.97	0.816
771.15	0.777
771.33	0.781
771.51	0.787
771.69	0.796
771.87	0.801
772.05	0.808
772.24	0.824
772.42	0.836
772.60	0.807
772.78	0.874
772.96	0.912
773.14	0.908
773.32	0.876
773.49	0.888
773.67	0.892
773.85	0.865
774.03	0.843
774.21	0.881
774.39	0.901
774.57	0.929
774.75	0.839
774.93	0.835
775.11	0.866
775.29	0.877
775.47	0.868
775.65	0.881
775.83	0.909
776.01	0.940
776.19	0.878
776.37	0.880
776.55	0.880
776.73	0.878
776.91	0.864
777.09	0.843
777.27	0.841
777.45	0.832
777.63	0.802
777.81	0.797
777.99	0.786
778.17	0.785
778.35	0.758
778.53	0.746
778.71	0.755
778.89	0.743
779.07	0.729
779.24	0.735
779.42	0.738
779.60	0.760
779.78	0.754
779.96	0.760
780.14	0.774
780.32	0.796
780.50	0.775
780.68	0.771
780.86	0.768
781.04	0.785
781.22	0.788
781.40	0.801
781.58	0.791
781.75	0.783
781.93	0.759
782.11	0.759
782.29	0.744
782.47	0.742
782.65	0.729
782.83	0.759
783.01	0.759
783.19	0.750
783.37	0.733
783.55	0.738
783.72	0.758
783.90	0.772
784.08	0.757
784.26	0.770
784.44	0.792
784.62	0.794
784.80	0.754
784.98	0.756
785.16	0.767
785.33	0.779
785.51	0.758
785.69	0.746
785.87	0.745
786.05	0.758
786.23	0.752
786.41	0.753
786.59	0.763
786.77	0.762
786.94	0.745
787.12	0.748
787.30	0.751
787.48	0.748
787.66	0.732
787.84	0.733
788.02	0.726
788.19	0.723
788.37	0.707
788.55	0.709
788.73	0.710
788.91	0.705
789.09	0.686
789.27	0.677
789.44	0.691
789.62	0.698
789.80	0.705
789.98	0.732
790.16	0.720
790.34	0.715
790.51	0.700
790.69	0.723
790.87	0.730
791.05	0.724
791.23	0.713
791.41	0.716
791.58	0.724
791.76	0.704
791.94	0.669
792.12	0.677
792.30	0.681
792.48	0.677
792.65	0.669
792.83	0.678
793.01	0.691
793.19	0.691
793.37	0.672
793.54	0.670
793.72	0.683
793.90	0.681
794.08	0.669
794.26	0.672
794.43	0.685
794.61	0.667
794.79	0.652
794.97	0.650
795.15	0.659
795.32	0.663
795.50	0.648
795.68	0.643
795.86	0.650
796.04	0.652
796.21	0.643
796.39	0.639
796.57	0.657
796.75	0.667
796.92	0.665
797.10	0.671
797.28	0.675
797.46	0.679
797.64	0.678
797.81	0.688
797.99	0.694
798.17	0.698
798.35	0.691
798.52	0.694
798.70	0.690
798.88	0.699
799.06	0.692
799.23	0.696
799.41	0.708
799.59	0.701
799.77	0.687
799.94	0.695
800.12	0.708
800.30	0.727
800.48	0.723
800.65	0.721
800.83	0.713
801.01	0.706
801.19	0.701
801.36	0.698
801.54	0.705
801.72	0.715
801.90	0.699
802.07	0.693
802.25	0.679
802.43	0.662
802.60	0.659
802.78	0.666
802.96	0.674
803.14	0.666
803.31	0.659
803.49	0.658
803.67	0.656
803.84	0.660
804.02	0.649
804.20	0.651
804.38	0.659
804.55	0.654
804.73	0.637
804.91	0.637
805.08	0.654
805.26	0.652
805.44	0.711
805.61	0.715
805.79	0.717
805.97	0.716
806.15	0.708
806.32	0.704
806.50	0.714
806.68	0.714
806.85	0.702
807.03	0.693
807.21	0.716
807.38	0.651
807.56	0.638
807.74	0.651
807.91	0.660
808.09	0.659
808.27	0.678
808.44	0.707
808.62	0.723
808.80	0.724
808.97	0.717
809.15	0.707
809.33	0.728
809.50	0.734
809.68	0.714
809.86	0.723
810.03	0.763
810.21	0.739
810.39	0.717
810.56	0.721
810.74	0.750
810.91	0.831
811.09	0.815
811.27	0.835
811.44	0.846
811.62	0.851
811.80	0.826
811.97	0.788
812.15	0.790
812.33	0.783
812.50	0.765
812.68	0.751
812.85	0.694
813.03	0.695
813.21	0.662
813.38	0.654
813.56	0.658
813.74	0.669
813.91	0.677
814.09	0.711
814.26	0.707
814.44	0.711
814.62	0.700
814.79	0.704
814.97	0.714
815.14	0.720
815.32	0.725
815.50	0.744
815.67	0.752
815.85	0.741
816.02	0.728
816.20	0.736
816.38	0.755
816.55	0.758
816.73	0.752
816.90	0.762
817.08	0.800
817.26	0.805
817.43	0.778
817.61	0.803
817.78	0.834
817.96	0.807
818.13	0.790
818.31	0.795
818.49	0.816
818.66	0.806
818.84	0.788
819.01	0.762
819.19	0.771
819.36	0.773
819.54	0.740
819.71	0.783
819.89	0.804
820.07	0.822
820.24	0.806
820.42	0.806
820.59	0.835
820.77	0.860
820.94	0.846
821.12	0.868
821.29	0.894
821.47	0.892
821.64	0.813
821.82	0.828
822.00	0.826
822.17	0.824
822.35	0.808
822.52	0.807
822.70	0.800
822.87	0.811
823.05	0.782
823.22	0.794
823.40	0.831
823.57	0.859
823.75	0.833
823.92	0.864
824.10	0.891
824.27	0.946
824.45	0.928
824.62	1.009
824.80	1.034
824.97	1.054
825.15	1.028
825.32	1.048
825.50	1.058
825.67	1.071
825.85	1.038
826.02	1.071
826.20	1.121
826.37	1.326
826.55	1.182
826.72	1.549
826.90	1.884
827.07	2.297
827.25	1.884
827.42	-0.000
827.60	-0.000
827.77	-0.000
827.95	-0.000
828.12	-0.000
828.30	-0.000
828.47	-0.000
828.65	1.960
828.82	2.426
829.00	-0.000
829.17	-0.000
829.34	-0.000
829.52	-0.000
829.69	-0.000
829.87	-0.000
830.04	-0.000
830.22	-0.000
830.39	-0.000
830.57	-0.000
830.74	-0.000
830.92	-0.000
831.09	-0.000
831.26	-0.000
831.44	-0.000
831.61	-0.000
831.79	-0.000
831.96	-0.000
832.14	-0.000
832.31	-0.000
832.49	-0.000
832.66	-0.000
832.83	-0.000
833.01	-0.000
833.18	-0.000
833.36	-0.000
833.53	-0.000
833.70	-0.000
833.88	-0.000
834.05	-0.000
834.23	-0.000
834.40	-0.000
834.58	-0.000
834.75	-0.000
834.92	-0.000
835.10	-0.000
835.27	-0.000
835.45	-0.000
835.62	-0.000
835.79	-0.000
835.97	-0.000
836.14	-0.000
836.32	-0.000
836.49	-0.000
836.66	-0.000
836.84	-0.000
837.01	-0.000
837.18	-0.000
837.36	-0.000
837.53	-0.000
837.71	-0.000
837.88	-0.000
838.05	-0.000
838.23	-0.000
838.40	-0.000
838.58	-0.000
838.75	-0.000
838.92	-0.000
839.10	-0.000
839.27	-0.000
839.44	-0.000
839.62	-0.000
839.79	-0.000
839.96	-0.000
840.14	-0.000
840.31	-0.000
840.48	-0.000
840.66	-0.000
840.83	-0.000
841.01	-0.000
841.18	-0.000
841.35	-0.000
841.53	-0.000
841.70	-0.000
841.87	-0.000
842.05	-0.000
842.22	-0.000
842.39	-0.000
842.57	-0.000
842.74	-0.000
842.91	-0.000
843.09	-0.000
843.26	-0.000
843.43	-0.000
843.60	-0.000
843.78	-0.000
843.95	-0.000
844.12	-0.000
844.30	-0.000
844.47	-0.000
844.64	-0.000
844.82	-0.000
844.99	-0.000
845.16	-0.000
845.34	-0.000
845.51	-0.000
845.68	-0.000
845.85	-0.000
846.03	-0.000
846.20	-0.000
846.37	-0.000
846.55	-0.000
846.72	-0.000
846.89	-0.000
847.06	-0.000
847.24	-0.000
847.41	-0.000
847.58	-0.000
847.76	-0.000
847.93	-0.000
848.10	-0.000
848.27	-0.000
848.45	-0.000
848.62	-0.000
848.79	-0.000
848.97	-0.000
849.14	-0.000
849.31	-0.000
849.48	-0.000
849.66	-0.000
849.83	-0.000
850.00	-0.000
850.17	-0.000
850.35	-0.000
850.52	-0.000
850.69	-0.000
850.86	-0.000
851.04	-0.000
851.21	-0.000
851.38	-0.000
851.55	-0.000
851.72	-0.000
851.90	-0.000
852.07	-0.000
852.24	-0.000
852.41	-0.000
852.59	-0.000
852.76	-0.000
852.93	-0.000
853.10	-0.000
853.28	-0.000
853.45	-0.000
853.62	-0.000
853.79	-0.000
853.96	-0.000
854.14	-0.000
854.31	-0.000
854.48	-0.000
854.65	-0.000
854.82	-0.000
855.00	-0.000
855.17	-0.000
855.34	-0.000
855.51	-0.000
855.68	-0.000
855.86	-0.000
856.03	-0.000
856.20	-0.000
856.37	-0.000
856.54	-0.000
856.72	-0.000
856.89	-0.000
857.06	-0.000
857.23	-0.000
857.40	-0.000
857.57	-0.000
857.75	-0.000
857.92	-0.000
858.09	-0.000
858.26	-0.000
858.43	-0.000
858.60	-0.000
858.78	-0.000
858.95	-0.000
859.12	-0.000
859.29	-0.000
859.46	-0.000
859.63	-0.000
859.81	-0.000
859.98	-0.000
860.15	-0.000
860.32	-0.000
860.49	-0.000
860.66	-0.000
860.83	-0.000
861.01	-0.000
861.18	-0.000
861.35	-0.000
861.52	-0.000
861.69	-0.000
861.86	-0.000
862.03	-0.000
862.21	-0.000
862.38	-0.000
862.55	-0.000
862.72	-0.000
862.89	-0.000
863.06	-0.000
863.23	-0.000
863.40	-0.000
863.58	-0.000
863.75	-0.000
863.92	-0.000
864.09	-0.000
864.26	-0.000
864.43	-0.000
864.60	-0.000
864.77	-0.000
864.94	-0.000
865.11	-0.000
865.29	-0.000
865.46	-0.000
865.63	-0.000
865.80	-0.000
865.97	-0.000
866.14	-0.000
866.31	-0.000
866.48	-0.000
866.65	-0.000
866.82	-0.000
866.99	-0.000
867.16	-0.000
867.34	-0.000
867.51	-0.000
867.68	-0.000
867.85	-0.000
868.02	-0.000
868.19	-0.000
868.36	-0.000
868.53	-0.000
868.70	-0.000
868.87	-0.000
869.04	-0.000
869.21	-0.000
869.38	-0.000
869.55	-0.000
869.72	-0.000
869.89	-0.000
870.06	-0.000
870.24	-0.000
870.41	-0.000
870.58	-0.000
870.75	-0.000
870.92	-0.000
871.09	-0.000
871.26	-0.000
871.43	-0.000
871.60	-0.000
871.77	-0.000
871.94	-0.000
872.11	-0.000
872.28	-0.000
872.45	-0.000
872.62	-0.000
872.79	-0.000
872.96	-0.000
873.13	-0.000
873.30	-0.000
873.47	-0.000
873.64	-0.000
873.81	-0.000
873.98	-0.000
874.15	-0.000
874.32	-0.000
874.49	-0.000
874.66	-0.000
874.83	-0.000
875.00	-0.000
875.17	-0.000
875.34	-0.000
875.51	-0.000
875.68	-0.000
875.85	-0.000
876.02	-0.000
876.19	-0.000
876.36	-0.000
876.53	-0.000
876.70	-0.000
876.87	-0.000
877.04	-0.000
877.21	-0.000
877.38	-0.000
877.55	-0.000
877.72	-0.000
877.89	-0.000
878.06	-0.000
878.23	-0.000
878.39	-0.000
878.56	-0.000
878.73	-0.000
878.90	-0.000
879.07	-0.000
879.24	-0.000
879.41	-0.000
879.58	-0.000
879.75	-0.000
879.92	-0.000
880.09	-0.000
880.26	-0.000
880.43	-0.000
880.60	-0.000
880.77	-0.000
880.94	-0.000
881.11	-0.000
881.27	-0.000
881.44	-0.000
881.61	-0.000
881.78	-0.000
881.95	-0.000
882.12	-0.000
882.29	-0.000
882.46	-0.000
882.63	-0.000
882.80	-0.000
882.97	-0.000
883.14	-0.000
883.30	-0.000
883.47	-0.000
883.64	-0.000
883.81	-0.000
883.98	-0.000
884.15	-0.000
884.32	-0.000
884.49	-0.000
884.66	-0.000
884.82	-0.000
884.99	-0.000
885.16	-0.000
885.33	-0.000
885.50	-0.000
885.67	-0.000
885.84	-0.000
886.01	-0.000
886.17	-0.000
886.34	-0.000
886.51	-0.000
886.68	-0.000
886.85	-0.000
887.02	-0.000
887.19	-0.000
887.36	-0.000
887.52	-0.000
887.69	-0.000
887.86	-0.000
888.03	-0.000
888.20	-0.000
888.37	-0.000
888.54	-0.000
888.70	-0.000
888.87	-0.000
889.04	-0.000
889.21	-0.000
889.38	-0.000
889.55	-0.000
889.71	-0.000
889.88	-0.000
890.05	-0.000
890.22	-0.000
890.39	-0.000
>>>>>End Processed Spectral Data<<<<<
