SpectraSuite Data File
++++++++++++++++++++++++++++++++++++
Date: Fri Jun 19 13:31:49 CEST 2015
User: introlabs
Dark Spectrum Present: Yes
Reference Spectrum Present: Yes
Number of Sampled Component Spectra: 1
Spectrometers: USB4H08886
Integration Time (usec): 745692 (USB4H08886)
Spectra Averaged: 5 (USB4H08886)
Boxcar Smoothing: 5 (USB4H08886)
Correct for Electrical Dark: Yes (USB4H08886)
Strobe/Lamp Enabled: No (USB4H08886)
Correct for Detector Non-linearity: Yes (USB4H08886)
Correct for Stray Light: Yes (USB4H08886)
Number of Pixels in Processed Spectrum: 3648
>>>>>Begin Processed Spectral Data<<<<<
178.14	-0.000
178.36	-0.000
178.57	-0.000
178.79	-0.000
179.01	-0.000
179.22	-0.000
179.44	-0.000
179.65	-0.000
179.87	-0.000
180.08	-0.000
180.30	-0.000
180.52	-0.000
180.73	-0.000
180.95	-0.000
181.16	-0.000
181.38	-0.000
181.59	-0.000
181.81	-0.000
182.03	-0.000
182.24	-0.000
182.46	-0.000
182.67	-0.000
182.89	-0.000
183.10	-0.000
183.32	-0.000
183.54	-0.000
183.75	-0.000
183.97	-0.000
184.18	-0.000
184.40	-0.000
184.61	-0.000
184.83	-0.000
185.04	-0.000
185.26	-0.000
185.48	-0.000
185.69	-0.000
185.91	-0.000
186.12	-0.000
186.34	-0.000
186.55	-0.000
186.77	-0.000
186.98	-0.000
187.20	-0.000
187.42	-0.000
187.63	-0.000
187.85	-0.000
188.06	-0.000
188.28	-0.000
188.49	-0.000
188.71	-0.000
188.92	-0.000
189.14	-0.000
189.36	-0.000
189.57	-0.000
189.79	-0.000
190.00	-0.000
190.22	-0.000
190.43	-0.000
190.65	-0.000
190.86	-0.000
191.08	-0.000
191.29	-0.000
191.51	-0.000
191.72	-0.000
191.94	-0.000
192.16	-0.000
192.37	-0.000
192.59	-0.000
192.80	-0.000
193.02	-0.000
193.23	-0.000
193.45	-0.000
193.66	-0.000
193.88	-0.000
194.09	-0.000
194.31	-0.000
194.52	-0.000
194.74	-0.000
194.95	-0.000
195.17	-0.000
195.38	-0.000
195.60	-0.000
195.81	-0.000
196.03	-0.000
196.25	-0.000
196.46	-0.000
196.68	-0.000
196.89	-0.000
197.11	-0.000
197.32	-0.000
197.54	-0.000
197.75	-0.000
197.97	-0.000
198.18	-0.000
198.40	-0.000
198.61	-0.000
198.83	-0.000
199.04	-0.000
199.26	-0.000
199.47	-0.000
199.69	-0.000
199.90	-0.000
200.12	-0.000
200.33	-0.000
200.55	-0.000
200.76	-0.000
200.98	-0.000
201.19	-0.000
201.41	-0.000
201.62	-0.000
201.84	-0.000
202.05	-0.000
202.27	-0.000
202.48	-0.000
202.70	-0.000
202.91	-0.000
203.13	-0.000
203.34	-0.000
203.56	-0.000
203.77	-0.000
203.99	-0.000
204.20	-0.000
204.42	-0.000
204.63	-0.000
204.85	-0.000
205.06	-0.000
205.28	-0.000
205.49	-0.000
205.71	-0.000
205.92	-0.000
206.14	-0.000
206.35	-0.000
206.56	-0.000
206.78	-0.000
206.99	-0.000
207.21	-0.000
207.42	-0.000
207.64	-0.000
207.85	-0.000
208.07	-0.000
208.28	-0.000
208.50	-0.000
208.71	-0.000
208.93	-0.000
209.14	-0.000
209.36	-0.000
209.57	-0.000
209.79	-0.000
210.00	-0.000
210.22	-0.000
210.43	-0.000
210.64	-0.000
210.86	-0.000
211.07	-0.000
211.29	-0.000
211.50	-0.000
211.72	-0.000
211.93	-0.000
212.15	-0.000
212.36	-0.000
212.58	-0.000
212.79	-0.000
213.01	-0.000
213.22	-0.000
213.43	-0.000
213.65	-0.000
213.86	-0.000
214.08	-0.000
214.29	-0.000
214.51	-0.000
214.72	-0.000
214.94	-0.000
215.15	-0.000
215.36	-0.000
215.58	-0.000
215.79	-0.000
216.01	-0.000
216.22	-0.000
216.44	-0.000
216.65	-0.000
216.87	-0.000
217.08	-0.000
217.29	-0.000
217.51	-0.000
217.72	-0.000
217.94	-0.000
218.15	-0.000
218.37	-0.000
218.58	-0.000
218.80	-0.000
219.01	-0.000
219.22	-0.000
219.44	-0.000
219.65	-0.000
219.87	-0.000
220.08	-0.000
220.30	-0.000
220.51	-0.000
220.72	-0.000
220.94	-0.000
221.15	-0.000
221.37	-0.000
221.58	-0.000
221.79	-0.000
222.01	-0.000
222.22	-0.000
222.44	-0.000
222.65	-0.000
222.87	-0.000
223.08	-0.000
223.29	-0.000
223.51	-0.000
223.72	-0.000
223.94	-0.000
224.15	-0.000
224.36	-0.000
224.58	-0.000
224.79	-0.000
225.01	-0.000
225.22	-0.000
225.44	-0.000
225.65	-0.000
225.86	-0.000
226.08	-0.000
226.29	-0.000
226.51	-0.000
226.72	-0.000
226.93	-0.000
227.15	-0.000
227.36	-0.000
227.58	-0.000
227.79	-0.000
228.00	-0.000
228.22	-0.000
228.43	-0.000
228.65	-0.000
228.86	-0.000
229.07	-0.000
229.29	-0.000
229.50	-0.000
229.72	-0.000
229.93	-0.000
230.14	-0.000
230.36	-0.000
230.57	-0.000
230.78	-0.000
231.00	-0.000
231.21	-0.000
231.43	-0.000
231.64	-0.000
231.85	-0.000
232.07	-0.000
232.28	-0.000
232.50	-0.000
232.71	-0.000
232.92	-0.000
233.14	-0.000
233.35	-0.000
233.56	-0.000
233.78	-0.000
233.99	-0.000
234.21	-0.000
234.42	-0.000
234.63	-0.000
234.85	-0.000
235.06	-0.000
235.27	-0.000
235.49	-0.000
235.70	-0.000
235.91	-0.000
236.13	-0.000
236.34	-0.000
236.56	-0.000
236.77	-0.000
236.98	-0.000
237.20	-0.000
237.41	-0.000
237.62	-0.000
237.84	-0.000
238.05	-0.000
238.26	-0.000
238.48	-0.000
238.69	-0.000
238.91	-0.000
239.12	-0.000
239.33	-0.000
239.55	-0.000
239.76	-0.000
239.97	-0.000
240.19	-0.000
240.40	-0.000
240.61	-0.000
240.83	-0.000
241.04	-0.000
241.25	-0.000
241.47	-0.000
241.68	-0.000
241.89	-0.000
242.11	-0.000
242.32	-0.000
242.53	-0.000
242.75	-0.000
242.96	-0.000
243.17	-0.000
243.39	-0.000
243.60	-0.000
243.81	-0.000
244.03	-0.000
244.24	-0.000
244.45	-0.000
244.67	-0.000
244.88	-0.000
245.09	-0.000
245.31	-0.000
245.52	-0.000
245.73	-0.000
245.95	-0.000
246.16	-0.000
246.37	-0.000
246.59	-0.000
246.80	-0.000
247.01	-0.000
247.23	-0.000
247.44	-0.000
247.65	-0.000
247.87	-0.000
248.08	-0.000
248.29	-0.000
248.51	-0.000
248.72	-0.000
248.93	-0.000
249.15	-0.000
249.36	-0.000
249.57	-0.000
249.78	-0.000
250.00	-0.000
250.21	-0.000
250.42	-0.000
250.64	-0.000
250.85	-0.000
251.06	-0.000
251.28	-0.000
251.49	-0.000
251.70	-0.000
251.92	-0.000
252.13	-0.000
252.34	-0.000
252.55	-0.000
252.77	-0.000
252.98	-0.000
253.19	-0.000
253.41	-0.000
253.62	-0.000
253.83	-0.000
254.05	-0.000
254.26	-0.000
254.47	-0.000
254.68	-0.000
254.90	-0.000
255.11	-0.000
255.32	-0.000
255.54	-0.000
255.75	-0.000
255.96	-0.000
256.17	-0.000
256.39	-0.000
256.60	-0.000
256.81	-0.000
257.03	-0.000
257.24	-0.000
257.45	-0.000
257.66	-0.000
257.88	-0.000
258.09	-0.000
258.30	-0.000
258.51	-0.000
258.73	-0.000
258.94	-0.000
259.15	-0.000
259.37	-0.000
259.58	-0.000
259.79	-0.000
260.00	-0.000
260.22	-0.000
260.43	-0.000
260.64	-0.000
260.85	-0.000
261.07	-0.000
261.28	-0.000
261.49	-0.000
261.71	-0.000
261.92	-0.000
262.13	-0.000
262.34	-0.000
262.56	-0.000
262.77	-0.000
262.98	-0.000
263.19	-0.000
263.41	-0.000
263.62	-0.000
263.83	-0.000
264.04	-0.000
264.26	-0.000
264.47	-0.000
264.68	-0.000
264.89	-0.000
265.11	-0.000
265.32	-0.000
265.53	-0.000
265.74	-0.000
265.96	-0.000
266.17	-0.000
266.38	-0.000
266.59	-0.000
266.81	-0.000
267.02	-0.000
267.23	-0.000
267.44	-0.000
267.65	-0.000
267.87	-0.000
268.08	-0.000
268.29	-0.000
268.50	-0.000
268.72	-0.000
268.93	-0.000
269.14	-0.000
269.35	-0.000
269.57	-0.000
269.78	-0.000
269.99	-0.000
270.20	-0.000
270.41	-0.000
270.63	-0.000
270.84	-0.000
271.05	-0.000
271.26	-0.000
271.48	-0.000
271.69	-0.000
271.90	-0.000
272.11	-0.000
272.32	-0.000
272.54	-0.000
272.75	-0.000
272.96	-0.000
273.17	-0.000
273.39	-0.000
273.60	-0.000
273.81	-0.000
274.02	-0.000
274.23	-0.000
274.45	-0.000
274.66	-0.000
274.87	-0.000
275.08	-0.000
275.29	-0.000
275.51	-0.000
275.72	-0.000
275.93	-0.000
276.14	-0.000
276.35	-0.000
276.57	-0.000
276.78	-0.000
276.99	-0.000
277.20	-0.000
277.41	-0.000
277.63	-0.000
277.84	-0.000
278.05	-0.000
278.26	-0.000
278.47	-0.000
278.69	-0.000
278.90	-0.000
279.11	-0.000
279.32	-0.000
279.53	-0.000
279.74	-0.000
279.96	-0.000
280.17	-0.000
280.38	-0.000
280.59	-0.000
280.80	-0.000
281.02	-0.000
281.23	-0.000
281.44	-0.000
281.65	-0.000
281.86	-0.000
282.07	-0.000
282.29	-0.000
282.50	-0.000
282.71	-0.000
282.92	-0.000
283.13	-0.000
283.35	-0.000
283.56	-0.000
283.77	-0.000
283.98	-0.000
284.19	-0.000
284.40	-0.000
284.62	-0.000
284.83	-0.000
285.04	-0.000
285.25	-0.000
285.46	-0.000
285.67	-0.000
285.88	-0.000
286.10	-0.000
286.31	-0.000
286.52	-0.000
286.73	-0.000
286.94	-0.000
287.15	-0.000
287.37	-0.000
287.58	-0.000
287.79	-0.000
288.00	-0.000
288.21	-0.000
288.42	-0.000
288.63	-0.000
288.85	-0.000
289.06	-0.000
289.27	-0.000
289.48	-0.000
289.69	-0.000
289.90	-0.000
290.11	-0.000
290.33	-0.000
290.54	-0.000
290.75	-0.000
290.96	-0.000
291.17	-0.000
291.38	-0.000
291.59	-0.000
291.81	-0.000
292.02	-0.000
292.23	-0.000
292.44	-0.000
292.65	-0.000
292.86	-0.000
293.07	-0.000
293.28	-0.000
293.50	-0.000
293.71	-0.000
293.92	-0.000
294.13	-0.000
294.34	-0.000
294.55	-0.000
294.76	-0.000
294.97	-0.000
295.19	-0.000
295.40	-0.000
295.61	-0.000
295.82	-0.000
296.03	-0.000
296.24	-0.000
296.45	-0.000
296.66	2.642
296.87	2.789
297.09	-0.000
297.30	-0.000
297.51	2.277
297.72	2.121
297.93	2.465
298.14	2.267
298.35	2.141
298.56	2.073
298.77	2.566
298.99	2.388
299.20	2.251
299.41	2.194
299.62	2.072
299.83	2.049
300.04	1.909
300.25	1.895
300.46	1.995
300.67	1.912
300.88	1.787
301.10	1.800
301.31	1.958
301.52	1.832
301.73	1.727
301.94	1.723
302.15	1.754
302.36	1.675
302.57	1.575
302.78	1.583
302.99	1.650
303.20	1.681
303.41	1.538
303.63	1.509
303.84	1.518
304.05	1.505
304.26	1.424
304.47	1.429
304.68	1.435
304.89	1.415
305.10	1.364
305.31	1.348
305.52	1.403
305.73	1.392
305.94	1.343
306.15	1.331
306.37	1.358
306.58	1.367
306.79	1.330
307.00	1.351
307.21	1.401
307.42	1.389
307.63	1.345
307.84	1.306
308.05	1.345
308.26	1.346
308.47	1.321
308.68	1.315
308.89	1.313
309.10	1.309
309.31	1.265
309.52	1.253
309.73	1.273
309.95	1.263
310.16	1.230
310.37	1.222
310.58	1.240
310.79	1.237
311.00	1.235
311.21	1.238
311.42	1.241
311.63	1.231
311.84	1.210
312.05	1.208
312.26	1.235
312.47	1.248
312.68	1.216
312.89	1.198
313.10	1.207
313.31	1.175
313.52	1.175
313.73	1.177
313.94	1.182
314.15	1.163
314.36	1.140
314.57	1.133
314.78	1.119
314.99	1.115
315.21	1.101
315.42	1.104
315.63	1.119
315.84	1.095
316.05	1.079
316.26	1.087
316.47	1.106
316.68	1.099
316.89	1.077
317.10	1.100
317.31	1.105
317.52	1.106
317.73	1.084
317.94	1.082
318.15	1.129
318.36	1.125
318.57	1.105
318.78	1.094
318.99	1.133
319.20	1.130
319.41	1.089
319.62	1.092
319.83	1.107
320.04	1.100
320.25	1.085
320.46	1.048
320.67	1.053
320.88	1.049
321.09	1.034
321.30	1.018
321.51	1.034
321.72	1.033
321.93	1.013
322.14	1.005
322.35	1.034
322.56	1.036
322.77	1.022
322.98	1.032
323.19	1.040
323.40	1.046
323.61	1.022
323.82	1.017
324.03	1.022
324.24	1.021
324.45	1.007
324.66	0.986
324.87	0.983
325.08	0.984
325.29	0.966
325.50	0.957
325.71	0.962
325.92	0.970
326.13	0.956
326.34	0.957
326.55	0.966
326.76	0.964
326.97	0.953
327.18	0.945
327.39	0.969
327.60	0.969
327.80	0.969
328.01	0.969
328.22	0.969
328.43	0.971
328.64	0.959
328.85	0.962
329.06	0.964
329.27	0.962
329.48	0.958
329.69	0.939
329.90	0.951
330.11	0.945
330.32	0.937
330.53	0.931
330.74	0.933
330.95	0.930
331.16	0.915
331.37	0.924
331.58	0.925
331.79	0.925
332.00	0.915
332.21	0.908
332.42	0.912
332.63	0.904
332.83	0.899
333.04	0.899
333.25	0.914
333.46	0.911
333.67	0.897
333.88	0.900
334.09	0.911
334.30	0.907
334.51	0.898
334.72	0.893
334.93	0.895
335.14	0.895
335.35	0.888
335.56	0.882
335.77	0.891
335.98	0.890
336.18	0.883
336.39	0.875
336.60	0.880
336.81	0.879
337.02	0.877
337.23	0.882
337.44	0.885
337.65	0.887
337.86	0.876
338.07	0.872
338.28	0.877
338.49	0.876
338.70	0.868
338.91	0.875
339.11	0.882
339.32	0.878
339.53	0.866
339.74	0.863
339.95	0.860
340.16	0.858
340.37	0.850
340.58	0.849
340.79	0.853
341.00	0.854
341.21	0.843
341.41	0.843
341.62	0.844
341.83	0.845
342.04	0.841
342.25	0.853
342.46	0.857
342.67	0.855
342.88	0.847
343.09	0.846
343.30	0.855
343.50	0.858
343.71	0.848
343.92	0.847
344.13	0.850
344.34	0.849
344.55	0.831
344.76	0.831
344.97	0.836
345.18	0.834
345.38	0.832
345.59	0.826
345.80	0.826
346.01	0.824
346.22	0.820
346.43	0.815
346.64	0.823
346.85	0.823
347.06	0.815
347.26	0.815
347.47	0.820
347.68	0.815
347.89	0.810
348.10	0.804
348.31	0.812
348.52	0.810
348.73	0.807
348.93	0.805
349.14	0.808
349.35	0.807
349.56	0.801
349.77	0.796
349.98	0.802
350.19	0.800
350.39	0.795
350.60	0.791
350.81	0.807
351.02	0.805
351.23	0.801
351.44	0.804
351.65	0.807
351.86	0.804
352.06	0.803
352.27	0.802
352.48	0.803
352.69	0.803
352.90	0.796
353.11	0.783
353.31	0.791
353.52	0.786
353.73	0.777
353.94	0.778
354.15	0.784
354.36	0.783
354.57	0.774
354.77	0.777
354.98	0.777
355.19	0.777
355.40	0.776
355.61	0.782
355.82	0.787
356.02	0.787
356.23	0.780
356.44	0.783
356.65	0.788
356.86	0.788
357.07	0.781
357.27	0.783
357.48	0.786
357.69	0.782
357.90	0.766
358.11	0.762
358.32	0.765
358.52	0.769
358.73	0.759
358.94	0.759
359.15	0.764
359.36	0.765
359.56	0.760
359.77	0.757
359.98	0.765
360.19	0.765
360.40	0.762
360.61	0.763
360.81	0.761
361.02	0.761
361.23	0.753
361.44	0.752
361.65	0.753
361.85	0.752
362.06	0.750
362.27	0.751
362.48	0.751
362.69	0.754
362.89	0.746
363.10	0.748
363.31	0.754
363.52	0.756
363.73	0.750
363.93	0.751
364.14	0.753
364.35	0.755
364.56	0.745
364.77	0.747
364.97	0.750
365.18	0.751
365.39	0.744
365.60	0.741
365.81	0.743
366.01	0.744
366.22	0.740
366.43	0.740
366.64	0.741
366.84	0.746
367.05	0.742
367.26	0.742
367.47	0.744
367.68	0.745
367.88	0.741
368.09	0.739
368.30	0.741
368.51	0.741
368.71	0.739
368.92	0.743
369.13	0.742
369.34	0.742
369.55	0.741
369.75	0.741
369.96	0.748
370.17	0.749
370.38	0.745
370.58	0.745
370.79	0.750
371.00	0.748
371.21	0.740
371.41	0.745
371.62	0.749
371.83	0.744
372.04	0.741
372.24	0.733
372.45	0.735
372.66	0.736
372.87	0.732
373.07	0.729
373.28	0.730
373.49	0.733
373.70	0.724
373.90	0.723
374.11	0.734
374.32	0.733
374.53	0.732
374.73	0.732
374.94	0.735
375.15	0.735
375.36	0.731
375.56	0.740
375.77	0.740
375.98	0.740
376.19	0.737
376.39	0.730
376.60	0.734
376.81	0.734
377.02	0.732
377.22	0.731
377.43	0.731
377.64	0.731
377.84	0.722
378.05	0.728
378.26	0.734
378.47	0.734
378.67	0.730
378.88	0.727
379.09	0.727
379.30	0.727
379.50	0.724
379.71	0.726
379.92	0.730
380.12	0.729
380.33	0.719
380.54	0.716
380.75	0.722
380.95	0.723
381.16	0.721
381.37	0.722
381.57	0.723
381.78	0.723
381.99	0.723
382.20	0.722
382.40	0.725
382.61	0.725
382.82	0.722
383.02	0.715
383.23	0.718
383.44	0.718
383.64	0.715
383.85	0.719
384.06	0.722
384.27	0.720
384.47	0.718
384.68	0.718
384.89	0.724
385.09	0.724
385.30	0.724
385.51	0.723
385.71	0.727
385.92	0.727
386.13	0.726
386.33	0.728
386.54	0.729
386.75	0.728
386.95	0.723
387.16	0.718
387.37	0.721
387.58	0.721
387.78	0.718
387.99	0.715
388.20	0.717
388.40	0.713
388.61	0.709
388.82	0.712
389.02	0.714
389.23	0.715
389.44	0.712
389.64	0.712
389.85	0.722
390.06	0.722
390.26	0.723
390.47	0.722
390.68	0.725
390.88	0.723
391.09	0.718
391.30	0.718
391.50	0.718
391.71	0.718
391.92	0.715
392.12	0.708
392.33	0.708
392.53	0.708
392.74	0.707
392.95	0.707
393.15	0.709
393.36	0.711
393.57	0.708
393.77	0.711
393.98	0.713
394.19	0.713
394.39	0.713
394.60	0.714
394.81	0.716
395.01	0.713
395.22	0.711
395.43	0.711
395.63	0.717
395.84	0.718
396.04	0.714
396.25	0.715
396.46	0.717
396.66	0.715
396.87	0.712
397.08	0.709
397.28	0.711
397.49	0.712
397.69	0.709
397.90	0.704
398.11	0.704
398.31	0.705
398.52	0.701
398.73	0.702
398.93	0.701
399.14	0.700
399.34	0.699
399.55	0.700
399.76	0.701
399.96	0.702
400.17	0.700
400.37	0.699
400.58	0.706
400.79	0.707
400.99	0.705
401.20	0.711
401.41	0.714
401.61	0.715
401.82	0.720
402.02	0.719
402.23	0.720
402.44	0.720
402.64	0.719
402.85	0.713
403.05	0.712
403.26	0.710
403.47	0.703
403.67	0.702
403.88	0.702
404.08	0.697
404.29	0.695
404.50	0.694
404.70	0.695
404.91	0.694
405.11	0.691
405.32	0.692
405.52	0.692
405.73	0.692
405.94	0.690
406.14	0.692
406.35	0.694
406.55	0.693
406.76	0.691
406.97	0.692
407.17	0.695
407.38	0.694
407.58	0.693
407.79	0.695
407.99	0.698
408.20	0.699
408.41	0.694
408.61	0.692
408.82	0.694
409.02	0.694
409.23	0.691
409.43	0.690
409.64	0.692
409.84	0.692
410.05	0.689
410.26	0.687
410.46	0.687
410.67	0.687
410.87	0.688
411.08	0.689
411.28	0.691
411.49	0.692
411.69	0.690
411.90	0.692
412.11	0.693
412.31	0.694
412.52	0.692
412.72	0.693
412.93	0.694
413.13	0.693
413.34	0.690
413.54	0.691
413.75	0.693
413.95	0.692
414.16	0.688
414.37	0.690
414.57	0.691
414.78	0.693
414.98	0.691
415.19	0.692
415.39	0.689
415.60	0.691
415.80	0.690
416.01	0.689
416.21	0.691
416.42	0.692
416.62	0.687
416.83	0.688
417.03	0.688
417.24	0.688
417.44	0.685
417.65	0.685
417.86	0.685
418.06	0.683
418.27	0.681
418.47	0.683
418.68	0.684
418.88	0.684
419.09	0.681
419.29	0.682
419.50	0.682
419.70	0.682
419.91	0.680
420.11	0.678
420.32	0.681
420.52	0.680
420.73	0.679
420.93	0.680
421.14	0.682
421.34	0.681
421.55	0.678
421.75	0.678
421.96	0.679
422.16	0.679
422.37	0.679
422.57	0.676
422.78	0.677
422.98	0.674
423.19	0.671
423.39	0.670
423.60	0.674
423.80	0.675
424.01	0.674
424.21	0.676
424.42	0.677
424.62	0.677
424.83	0.676
425.03	0.676
425.23	0.679
425.44	0.679
425.64	0.680
425.85	0.678
426.05	0.679
426.26	0.679
426.46	0.676
426.67	0.675
426.87	0.679
427.08	0.680
427.28	0.678
427.49	0.678
427.69	0.679
427.90	0.677
428.10	0.674
428.31	0.674
428.51	0.676
428.71	0.675
428.92	0.676
429.12	0.674
429.33	0.675
429.53	0.678
429.74	0.682
429.94	0.683
430.15	0.683
430.35	0.683
430.56	0.680
430.76	0.679
430.96	0.680
431.17	0.678
431.37	0.675
431.58	0.673
431.78	0.670
431.99	0.663
432.19	0.665
432.40	0.667
432.60	0.668
432.80	0.670
433.01	0.669
433.21	0.669
433.42	0.671
433.62	0.672
433.83	0.671
434.03	0.674
434.23	0.677
434.44	0.676
434.64	0.674
434.85	0.679
435.05	0.680
435.26	0.680
435.46	0.678
435.66	0.678
435.87	0.677
436.07	0.678
436.28	0.673
436.48	0.670
436.69	0.669
436.89	0.669
437.09	0.662
437.30	0.661
437.50	0.662
437.71	0.674
437.91	0.674
438.11	0.675
438.32	0.680
438.52	0.680
438.73	0.679
438.93	0.678
439.13	0.678
439.34	0.682
439.54	0.680
439.75	0.679
439.95	0.669
440.15	0.673
440.36	0.671
440.56	0.669
440.77	0.670
440.97	0.670
441.17	0.669
441.38	0.670
441.58	0.668
441.79	0.668
441.99	0.666
442.19	0.666
442.40	0.663
442.60	0.663
442.81	0.661
443.01	0.661
443.21	0.662
443.42	0.661
443.62	0.660
443.82	0.659
444.03	0.661
444.23	0.661
444.44	0.662
444.64	0.661
444.84	0.662
445.05	0.662
445.25	0.659
445.45	0.659
445.66	0.662
445.86	0.661
446.06	0.662
446.27	0.662
446.47	0.665
446.68	0.663
446.88	0.662
447.08	0.661
447.29	0.663
447.49	0.664
447.69	0.664
447.90	0.663
448.10	0.667
448.30	0.664
448.51	0.665
448.71	0.663
448.91	0.665
449.12	0.663
449.32	0.665
449.52	0.664
449.73	0.668
449.93	0.667
450.14	0.667
450.34	0.666
450.54	0.668
450.75	0.665
450.95	0.665
451.15	0.664
451.36	0.668
451.56	0.665
451.76	0.664
451.97	0.660
452.17	0.661
452.37	0.660
452.58	0.656
452.78	0.656
452.98	0.658
453.19	0.657
453.39	0.658
453.59	0.656
453.79	0.656
454.00	0.657
454.20	0.656
454.40	0.656
454.61	0.659
454.81	0.659
455.01	0.658
455.22	0.659
455.42	0.661
455.62	0.660
455.83	0.660
456.03	0.663
456.23	0.664
456.44	0.664
456.64	0.664
456.84	0.664
457.04	0.665
457.25	0.664
457.45	0.660
457.65	0.659
457.86	0.659
458.06	0.657
458.26	0.653
458.47	0.653
458.67	0.654
458.87	0.654
459.07	0.651
459.28	0.653
459.48	0.656
459.68	0.657
459.89	0.656
460.09	0.655
460.29	0.657
460.49	0.658
460.70	0.658
460.90	0.658
461.10	0.659
461.31	0.658
461.51	0.655
461.71	0.655
461.91	0.657
462.12	0.657
462.32	0.656
462.52	0.656
462.72	0.659
462.93	0.659
463.13	0.657
463.33	0.659
463.53	0.661
463.74	0.660
463.94	0.657
464.14	0.657
464.35	0.658
464.55	0.659
464.75	0.656
464.95	0.654
465.16	0.656
465.36	0.655
465.56	0.654
465.76	0.653
465.97	0.654
466.17	0.654
466.37	0.652
466.57	0.653
466.78	0.654
466.98	0.653
467.18	0.651
467.38	0.650
467.59	0.652
467.79	0.654
467.99	0.652
468.19	0.654
468.39	0.657
468.60	0.657
468.80	0.655
469.00	0.657
469.20	0.659
469.41	0.659
469.61	0.658
469.81	0.659
470.01	0.659
470.22	0.659
470.42	0.657
470.62	0.655
470.82	0.657
471.02	0.656
471.23	0.654
471.43	0.654
471.63	0.656
471.83	0.655
472.04	0.653
472.24	0.651
472.44	0.657
472.64	0.657
472.84	0.655
473.05	0.655
473.25	0.658
473.45	0.657
473.65	0.655
473.85	0.656
474.06	0.658
474.26	0.658
474.46	0.659
474.66	0.656
474.86	0.656
475.07	0.656
475.27	0.654
475.47	0.651
475.67	0.652
475.87	0.654
476.08	0.651
476.28	0.652
476.48	0.653
476.68	0.651
476.88	0.649
477.09	0.650
477.29	0.652
477.49	0.653
477.69	0.652
477.89	0.652
478.09	0.651
478.30	0.653
478.50	0.650
478.70	0.649
478.90	0.650
479.10	0.653
479.31	0.654
479.51	0.651
479.71	0.652
479.91	0.652
480.11	0.651
480.31	0.652
480.52	0.651
480.72	0.651
480.92	0.650
481.12	0.648
481.32	0.646
481.52	0.644
481.72	0.644
481.93	0.647
482.13	0.648
482.33	0.647
482.53	0.644
482.73	0.645
482.93	0.646
483.14	0.645
483.34	0.645
483.54	0.646
483.74	0.645
483.94	0.644
484.14	0.639
484.34	0.639
484.55	0.640
484.75	0.640
484.95	0.638
485.15	0.637
485.35	0.637
485.55	0.637
485.75	0.635
485.96	0.636
486.16	0.638
486.36	0.637
486.56	0.636
486.76	0.636
486.96	0.636
487.16	0.636
487.36	0.634
487.57	0.634
487.77	0.635
487.97	0.635
488.17	0.633
488.37	0.632
488.57	0.633
488.77	0.634
488.97	0.631
489.18	0.631
489.38	0.633
489.58	0.634
489.78	0.634
489.98	0.633
490.18	0.634
490.38	0.634
490.58	0.633
490.78	0.634
490.98	0.635
491.19	0.636
491.39	0.635
491.59	0.634
491.79	0.637
491.99	0.637
492.19	0.637
492.39	0.640
492.59	0.640
492.79	0.642
492.99	0.642
493.20	0.642
493.40	0.643
493.60	0.644
493.80	0.642
494.00	0.640
494.20	0.641
494.40	0.641
494.60	0.638
494.80	0.642
495.00	0.641
495.20	0.640
495.40	0.638
495.61	0.640
495.81	0.639
496.01	0.643
496.21	0.644
496.41	0.643
496.61	0.643
496.81	0.642
497.01	0.637
497.21	0.636
497.41	0.637
497.61	0.636
497.81	0.634
498.01	0.635
498.21	0.633
498.41	0.631
498.61	0.631
498.82	0.633
499.02	0.635
499.22	0.635
499.42	0.635
499.62	0.636
499.82	0.638
500.02	0.639
500.22	0.636
500.42	0.638
500.62	0.639
500.82	0.639
501.02	0.637
501.22	0.638
501.42	0.638
501.62	0.640
501.82	0.639
502.02	0.638
502.22	0.638
502.42	0.641
502.62	0.637
502.82	0.637
503.02	0.638
503.22	0.638
503.42	0.636
503.63	0.636
503.83	0.634
504.03	0.633
504.23	0.632
504.43	0.632
504.63	0.633
504.83	0.634
505.03	0.633
505.23	0.634
505.43	0.636
505.63	0.637
505.83	0.636
506.03	0.638
506.23	0.641
506.43	0.642
506.63	0.640
506.83	0.639
507.03	0.642
507.23	0.641
507.43	0.638
507.63	0.639
507.83	0.639
508.03	0.640
508.23	0.638
508.43	0.637
508.63	0.639
508.83	0.639
509.03	0.640
509.23	0.639
509.43	0.640
509.63	0.640
509.83	0.639
510.03	0.641
510.23	0.643
510.43	0.644
510.63	0.644
510.83	0.644
511.03	0.646
511.23	0.643
511.43	0.642
511.63	0.644
511.83	0.647
512.03	0.646
512.22	0.643
512.42	0.643
512.62	0.644
512.82	0.644
513.02	0.643
513.22	0.642
513.42	0.645
513.62	0.648
513.82	0.645
514.02	0.645
514.22	0.646
514.42	0.647
514.62	0.646
514.82	0.646
515.02	0.648
515.22	0.652
515.42	0.650
515.62	0.652
515.82	0.651
516.02	0.653
516.22	0.652
516.42	0.654
516.62	0.656
516.82	0.658
517.01	0.656
517.21	0.655
517.41	0.659
517.61	0.659
517.81	0.655
518.01	0.654
518.21	0.654
518.41	0.653
518.61	0.652
518.81	0.652
519.01	0.653
519.21	0.653
519.41	0.651
519.61	0.646
519.81	0.649
520.00	0.649
520.20	0.650
520.40	0.653
520.60	0.654
520.80	0.653
521.00	0.653
521.20	0.654
521.40	0.659
521.60	0.660
521.80	0.658
522.00	0.659
522.20	0.661
522.39	0.661
522.59	0.658
522.79	0.660
522.99	0.662
523.19	0.661
523.39	0.658
523.59	0.657
523.79	0.660
523.99	0.662
524.19	0.661
524.38	0.659
524.58	0.660
524.78	0.661
524.98	0.659
525.18	0.661
525.38	0.662
525.58	0.662
525.78	0.660
525.98	0.658
526.18	0.658
526.37	0.658
526.57	0.660
526.77	0.659
526.97	0.660
527.17	0.660
527.37	0.656
527.57	0.659
527.77	0.661
527.96	0.660
528.16	0.660
528.36	0.661
528.56	0.663
528.76	0.661
528.96	0.660
529.16	0.661
529.36	0.665
529.55	0.664
529.75	0.661
529.95	0.660
530.15	0.662
530.35	0.664
530.55	0.661
530.75	0.661
530.94	0.663
531.14	0.663
531.34	0.660
531.54	0.659
531.74	0.662
531.94	0.666
532.13	0.664
532.33	0.665
532.53	0.665
532.73	0.664
532.93	0.662
533.13	0.664
533.33	0.664
533.52	0.666
533.72	0.668
533.92	0.666
534.12	0.664
534.32	0.665
534.52	0.664
534.71	0.666
534.91	0.669
535.11	0.671
535.31	0.668
535.51	0.670
535.71	0.672
535.90	0.670
536.10	0.671
536.30	0.672
536.50	0.673
536.70	0.673
536.89	0.669
537.09	0.669
537.29	0.670
537.49	0.671
537.69	0.668
537.89	0.669
538.08	0.668
538.28	0.666
538.48	0.667
538.68	0.669
538.88	0.671
539.07	0.671
539.27	0.669
539.47	0.668
539.67	0.668
539.87	0.670
540.06	0.667
540.26	0.668
540.46	0.671
540.66	0.668
540.86	0.665
541.05	0.665
541.25	0.667
541.45	0.667
541.65	0.666
541.84	0.668
542.04	0.669
542.24	0.669
542.44	0.667
542.64	0.669
542.83	0.672
543.03	0.672
543.23	0.669
543.43	0.671
543.62	0.672
543.82	0.672
544.02	0.671
544.22	0.671
544.42	0.675
544.61	0.676
544.81	0.672
545.01	0.671
545.21	0.673
545.40	0.674
545.60	0.672
545.80	0.675
546.00	0.675
546.19	0.674
546.39	0.672
546.59	0.669
546.79	0.671
546.98	0.671
547.18	0.670
547.38	0.671
547.58	0.674
547.77	0.674
547.97	0.670
548.17	0.672
548.37	0.673
548.56	0.673
548.76	0.673
548.96	0.675
549.16	0.678
549.35	0.677
549.55	0.675
549.75	0.675
549.95	0.678
550.14	0.679
550.34	0.676
550.54	0.682
550.73	0.686
550.93	0.686
551.13	0.682
551.33	0.681
551.52	0.682
551.72	0.682
551.92	0.680
552.12	0.681
552.31	0.682
552.51	0.683
552.71	0.677
552.90	0.677
553.10	0.678
553.30	0.678
553.50	0.677
553.69	0.679
553.89	0.680
554.09	0.680
554.28	0.677
554.48	0.678
554.68	0.680
554.87	0.680
555.07	0.677
555.27	0.677
555.47	0.678
555.66	0.679
555.86	0.678
556.06	0.680
556.25	0.681
556.45	0.689
556.65	0.687
556.84	0.691
557.04	0.694
557.24	0.696
557.43	0.696
557.63	0.699
557.83	0.701
558.02	0.701
558.22	0.705
558.42	0.706
558.61	0.698
558.81	0.699
559.01	0.694
559.21	0.694
559.40	0.695
559.60	0.695
559.80	0.692
559.99	0.692
560.19	0.695
560.39	0.689
560.58	0.686
560.78	0.687
560.97	0.691
561.17	0.690
561.37	0.688
561.56	0.688
561.76	0.689
561.96	0.689
562.15	0.687
562.35	0.689
562.55	0.691
562.74	0.690
562.94	0.689
563.14	0.687
563.33	0.688
563.53	0.688
563.73	0.685
563.92	0.686
564.12	0.689
564.31	0.691
564.51	0.688
564.71	0.690
564.90	0.693
565.10	0.694
565.30	0.696
565.49	0.697
565.69	0.699
565.89	0.700
566.08	0.698
566.28	0.699
566.47	0.700
566.67	0.699
566.87	0.696
567.06	0.698
567.26	0.704
567.46	0.699
567.65	0.698
567.85	0.699
568.04	0.702
568.24	0.701
568.44	0.698
568.63	0.697
568.83	0.699
569.02	0.698
569.22	0.693
569.42	0.689
569.61	0.692
569.81	0.690
570.00	0.688
570.20	0.689
570.40	0.690
570.59	0.689
570.79	0.687
570.98	0.685
571.18	0.686
571.38	0.685
571.57	0.682
571.77	0.680
571.96	0.684
572.16	0.681
572.35	0.675
572.55	0.676
572.75	0.675
572.94	0.674
573.14	0.673
573.33	0.673
573.53	0.674
573.73	0.673
573.92	0.671
574.12	0.669
574.31	0.672
574.51	0.673
574.70	0.670
574.90	0.672
575.09	0.674
575.29	0.674
575.49	0.671
575.68	0.672
575.88	0.673
576.07	0.675
576.27	0.673
576.46	0.671
576.66	0.671
576.86	0.670
577.05	0.667
577.25	0.665
577.44	0.667
577.64	0.667
577.83	0.665
578.03	0.666
578.22	0.666
578.42	0.665
578.61	0.663
578.81	0.664
579.00	0.665
579.20	0.664
579.40	0.663
579.59	0.662
579.79	0.662
579.98	0.662
580.18	0.661
580.37	0.662
580.57	0.664
580.76	0.669
580.96	0.667
581.15	0.668
581.35	0.670
581.54	0.670
581.74	0.669
581.93	0.671
582.13	0.672
582.32	0.669
582.52	0.667
582.71	0.666
582.91	0.663
583.10	0.663
583.30	0.661
583.49	0.660
583.69	0.664
583.88	0.665
584.08	0.664
584.27	0.666
584.47	0.669
584.66	0.670
584.86	0.669
585.05	0.671
585.25	0.673
585.44	0.673
585.64	0.672
585.83	0.668
586.03	0.669
586.22	0.668
586.42	0.664
586.61	0.666
586.81	0.668
587.00	0.668
587.20	0.666
587.39	0.666
587.59	0.668
587.78	0.670
587.98	0.670
588.17	0.672
588.37	0.674
588.56	0.676
588.76	0.672
588.95	0.671
589.15	0.676
589.34	0.679
589.54	0.677
589.73	0.677
589.92	0.681
590.12	0.681
590.31	0.678
590.51	0.683
590.70	0.685
590.90	0.685
591.09	0.683
591.29	0.681
591.48	0.681
591.68	0.682
591.87	0.680
592.06	0.680
592.26	0.683
592.45	0.682
592.65	0.676
592.84	0.675
593.04	0.678
593.23	0.680
593.43	0.678
593.62	0.677
593.81	0.678
594.01	0.677
594.20	0.675
594.40	0.673
594.59	0.676
594.79	0.677
594.98	0.676
595.17	0.675
595.37	0.675
595.56	0.677
595.76	0.676
595.95	0.678
596.14	0.681
596.34	0.682
596.53	0.680
596.73	0.682
596.92	0.683
597.12	0.685
597.31	0.685
597.50	0.684
597.70	0.687
597.89	0.686
598.09	0.683
598.28	0.684
598.47	0.686
598.67	0.684
598.86	0.681
599.06	0.683
599.25	0.683
599.44	0.681
599.64	0.679
599.83	0.676
600.03	0.679
600.22	0.680
600.41	0.679
600.61	0.677
600.80	0.680
601.00	0.681
601.19	0.676
601.38	0.675
601.58	0.678
601.77	0.678
601.96	0.681
602.16	0.681
602.35	0.690
602.55	0.688
602.74	0.689
602.93	0.690
603.13	0.696
603.32	0.697
603.51	0.696
603.71	0.699
603.90	0.701
604.09	0.700
604.29	0.697
604.48	0.691
604.68	0.692
604.87	0.691
605.06	0.687
605.26	0.684
605.45	0.685
605.64	0.685
605.84	0.680
606.03	0.679
606.22	0.678
606.42	0.678
606.61	0.674
606.80	0.674
607.00	0.676
607.19	0.677
607.38	0.675
607.58	0.676
607.77	0.679
607.96	0.679
608.16	0.677
608.35	0.682
608.54	0.685
608.74	0.688
608.93	0.693
609.12	0.695
609.32	0.698
609.51	0.702
609.70	0.701
609.90	0.703
610.09	0.708
610.28	0.714
610.48	0.707
610.67	0.709
610.86	0.710
611.06	0.704
611.25	0.702
611.44	0.702
611.64	0.702
611.83	0.705
612.02	0.700
612.21	0.699
612.41	0.698
612.60	0.697
612.79	0.692
612.99	0.692
613.18	0.695
613.37	0.692
613.57	0.689
613.76	0.691
613.95	0.688
614.14	0.688
614.34	0.686
614.53	0.687
614.72	0.690
614.92	0.691
615.11	0.687
615.30	0.684
615.49	0.686
615.69	0.690
615.88	0.686
616.07	0.688
616.26	0.691
616.46	0.691
616.65	0.687
616.84	0.687
617.04	0.688
617.23	0.692
617.42	0.692
617.61	0.696
617.81	0.696
618.00	0.698
618.19	0.696
618.38	0.701
618.58	0.705
618.77	0.706
618.96	0.705
619.15	0.707
619.35	0.710
619.54	0.711
619.73	0.706
619.92	0.708
620.12	0.713
620.31	0.713
620.50	0.707
620.69	0.707
620.89	0.711
621.08	0.711
621.27	0.710
621.46	0.709
621.66	0.713
621.85	0.712
622.04	0.709
622.23	0.710
622.43	0.710
622.62	0.710
622.81	0.709
623.00	0.708
623.19	0.712
623.39	0.710
623.58	0.707
623.77	0.705
623.96	0.708
624.16	0.708
624.35	0.702
624.54	0.706
624.73	0.710
624.92	0.708
625.12	0.706
625.31	0.707
625.50	0.711
625.69	0.711
625.88	0.707
626.08	0.707
626.27	0.709
626.46	0.711
626.65	0.707
626.84	0.707
627.04	0.713
627.23	0.712
627.42	0.708
627.61	0.709
627.80	0.713
628.00	0.714
628.19	0.712
628.38	0.716
628.57	0.720
628.76	0.719
628.96	0.716
629.15	0.717
629.34	0.720
629.53	0.720
629.72	0.715
629.91	0.715
630.11	0.719
630.30	0.719
630.49	0.721
630.68	0.722
630.87	0.725
631.06	0.727
631.26	0.722
631.45	0.724
631.64	0.733
631.83	0.735
632.02	0.733
632.21	0.731
632.41	0.740
632.60	0.734
632.79	0.732
632.98	0.732
633.17	0.733
633.36	0.735
633.55	0.730
633.75	0.726
633.94	0.728
634.13	0.728
634.32	0.725
634.51	0.719
634.70	0.721
634.89	0.721
635.09	0.717
635.28	0.717
635.47	0.718
635.66	0.721
635.85	0.716
636.04	0.718
636.23	0.723
636.43	0.724
636.62	0.723
636.81	0.722
637.00	0.724
637.19	0.728
637.38	0.724
637.57	0.723
637.76	0.725
637.95	0.726
638.15	0.722
638.34	0.719
638.53	0.723
638.72	0.725
638.91	0.721
639.10	0.720
639.29	0.720
639.48	0.722
639.67	0.721
639.87	0.720
640.06	0.727
640.25	0.726
640.44	0.726
640.63	0.726
640.82	0.729
641.01	0.729
641.20	0.728
641.39	0.730
641.58	0.732
641.78	0.731
641.97	0.726
642.16	0.739
642.35	0.741
642.54	0.739
642.73	0.732
642.92	0.730
643.11	0.734
643.30	0.734
643.49	0.729
643.68	0.732
643.87	0.735
644.06	0.735
644.25	0.715
644.45	0.718
644.64	0.720
644.83	0.721
645.02	0.719
645.21	0.718
645.40	0.721
645.59	0.721
645.78	0.714
645.97	0.716
646.16	0.718
646.35	0.717
646.54	0.715
646.73	0.715
646.92	0.717
647.11	0.715
647.30	0.711
647.49	0.713
647.68	0.712
647.88	0.711
648.07	0.703
648.26	0.707
648.45	0.709
648.64	0.704
648.83	0.702
649.02	0.704
649.21	0.715
649.40	0.714
649.59	0.708
649.78	0.710
649.97	0.725
650.16	0.725
650.35	0.718
650.54	0.721
650.73	0.730
650.92	0.726
651.11	0.720
651.30	0.717
651.49	0.722
651.68	0.722
651.87	0.718
652.06	0.708
652.25	0.711
652.44	0.713
652.63	0.709
652.82	0.708
653.01	0.709
653.20	0.707
653.39	0.695
653.58	0.692
653.77	0.691
653.96	0.686
654.15	0.677
654.34	0.675
654.53	0.671
654.72	0.665
654.91	0.656
655.10	0.652
655.29	0.651
655.48	0.649
655.67	0.643
655.86	0.640
656.05	0.638
656.24	0.638
656.43	0.633
656.62	0.632
656.81	0.633
657.00	0.630
657.19	0.628
657.38	0.628
657.57	0.627
657.76	0.630
657.95	0.628
658.14	0.632
658.33	0.635
658.51	0.640
658.70	0.641
658.89	0.642
659.08	0.651
659.27	0.659
659.46	0.658
659.65	0.665
659.84	0.669
660.03	0.673
660.22	0.674
660.41	0.678
660.60	0.678
660.79	0.680
660.98	0.686
661.17	0.685
661.36	0.686
661.55	0.686
661.74	0.684
661.92	0.687
662.11	0.691
662.30	0.689
662.49	0.682
662.68	0.681
662.87	0.685
663.06	0.678
663.25	0.678
663.44	0.678
663.63	0.679
663.82	0.678
664.01	0.671
664.20	0.669
664.38	0.671
664.57	0.672
664.76	0.672
664.95	0.672
665.14	0.677
665.33	0.671
665.52	0.679
665.71	0.682
665.90	0.682
666.09	0.682
666.28	0.679
666.46	0.678
666.65	0.679
666.84	0.677
667.03	0.671
667.22	0.669
667.41	0.673
667.60	0.662
667.79	0.656
667.98	0.658
668.16	0.660
668.35	0.660
668.54	0.655
668.73	0.656
668.92	0.657
669.11	0.656
669.30	0.650
669.49	0.645
669.67	0.648
669.86	0.649
670.05	0.647
670.24	0.643
670.43	0.641
670.62	0.640
670.81	0.635
671.00	0.636
671.18	0.636
671.37	0.636
671.56	0.633
671.75	0.632
671.94	0.630
672.13	0.628
672.32	0.623
672.50	0.623
672.69	0.623
672.88	0.624
673.07	0.619
673.26	0.621
673.45	0.623
673.63	0.623
673.82	0.619
674.01	0.621
674.20	0.620
674.39	0.620
674.58	0.620
674.76	0.620
674.95	0.618
675.14	0.619
675.33	0.614
675.52	0.611
675.71	0.611
675.89	0.611
676.08	0.606
676.27	0.607
676.46	0.607
676.65	0.606
676.84	0.605
677.02	0.606
677.21	0.609
677.40	0.608
677.59	0.605
677.78	0.606
677.96	0.608
678.15	0.608
678.34	0.606
678.53	0.606
678.72	0.606
678.90	0.603
679.09	0.599
679.28	0.595
679.47	0.596
679.66	0.596
679.84	0.592
680.03	0.590
680.22	0.589
680.41	0.591
680.60	0.588
680.78	0.587
680.97	0.590
681.16	0.591
681.35	0.589
681.53	0.587
681.72	0.589
681.91	0.591
682.10	0.590
682.29	0.593
682.47	0.590
682.66	0.590
682.85	0.588
683.04	0.586
683.22	0.586
683.41	0.588
683.60	0.587
683.79	0.587
683.97	0.586
684.16	0.584
684.35	0.579
684.54	0.581
684.72	0.581
684.91	0.582
685.10	0.579
685.29	0.580
685.47	0.578
685.66	0.577
685.85	0.574
686.04	0.573
686.22	0.576
686.41	0.579
686.60	0.576
686.79	0.579
686.97	0.580
687.16	0.582
687.35	0.579
687.54	0.582
687.72	0.586
687.91	0.586
688.10	0.588
688.29	0.588
688.47	0.586
688.66	0.586
688.85	0.582
689.03	0.580
689.22	0.584
689.41	0.585
689.60	0.580
689.78	0.578
689.97	0.578
690.16	0.575
690.34	0.571
690.53	0.571
690.72	0.571
690.91	0.569
691.09	0.567
691.28	0.561
691.47	0.559
691.65	0.558
691.84	0.554
692.03	0.554
692.21	0.552
692.40	0.551
692.59	0.548
692.77	0.547
692.96	0.549
693.15	0.550
693.34	0.548
693.52	0.547
693.71	0.548
693.90	0.549
694.08	0.550
694.27	0.551
694.46	0.561
694.64	0.563
694.83	0.562
695.02	0.560
695.20	0.560
695.39	0.559
695.58	0.559
695.76	0.560
695.95	0.560
696.14	0.558
696.32	0.556
696.51	0.546
696.70	0.546
696.88	0.547
697.07	0.546
697.26	0.548
697.44	0.550
697.63	0.549
697.81	0.546
698.00	0.545
698.19	0.545
698.37	0.545
698.56	0.545
698.75	0.545
698.93	0.544
699.12	0.544
699.31	0.542
699.49	0.541
699.68	0.543
699.87	0.545
700.05	0.545
700.24	0.544
700.42	0.546
700.61	0.545
700.80	0.543
700.98	0.544
701.17	0.545
701.36	0.544
701.54	0.543
701.73	0.545
701.91	0.542
702.10	0.542
702.29	0.540
702.47	0.539
702.66	0.540
702.84	0.542
703.03	0.540
703.22	0.542
703.40	0.543
703.59	0.543
703.77	0.543
703.96	0.543
704.15	0.544
704.33	0.544
704.52	0.544
704.70	0.542
704.89	0.541
705.08	0.540
705.26	0.535
705.45	0.535
705.63	0.535
705.82	0.531
706.00	0.530
706.19	0.529
706.38	0.529
706.56	0.529
706.75	0.527
706.93	0.526
707.12	0.528
707.30	0.528
707.49	0.526
707.68	0.524
707.86	0.523
708.05	0.523
708.23	0.521
708.42	0.521
708.60	0.523
708.79	0.523
708.98	0.522
709.16	0.521
709.35	0.524
709.53	0.527
709.72	0.526
709.90	0.528
710.09	0.529
710.27	0.531
710.46	0.535
710.64	0.533
710.83	0.535
711.02	0.537
711.20	0.535
711.39	0.533
711.57	0.531
711.76	0.532
711.94	0.530
712.13	0.531
712.31	0.531
712.50	0.527
712.68	0.524
712.87	0.525
713.05	0.525
713.24	0.526
713.42	0.525
713.61	0.526
713.79	0.527
713.98	0.527
714.16	0.527
714.35	0.527
714.54	0.528
714.72	0.528
714.91	0.525
715.09	0.531
715.28	0.535
715.46	0.535
715.65	0.532
715.83	0.532
716.02	0.535
716.20	0.532
716.39	0.531
716.57	0.533
716.76	0.535
716.94	0.535
717.12	0.527
717.31	0.529
717.49	0.532
717.68	0.535
717.86	0.534
718.05	0.536
718.23	0.539
718.42	0.541
718.60	0.543
718.79	0.551
718.97	0.554
719.16	0.553
719.34	0.550
719.53	0.550
719.71	0.549
719.90	0.551
720.08	0.548
720.27	0.548
720.45	0.549
720.63	0.546
720.82	0.540
721.00	0.543
721.19	0.548
721.37	0.547
721.56	0.547
721.74	0.550
721.93	0.559
722.11	0.566
722.30	0.565
722.48	0.570
722.66	0.571
722.85	0.571
723.03	0.571
723.22	0.569
723.40	0.573
723.59	0.572
723.77	0.576
723.95	0.571
724.14	0.573
724.32	0.574
724.51	0.572
724.69	0.574
724.88	0.575
725.06	0.573
725.24	0.575
725.43	0.577
725.61	0.580
725.80	0.573
725.98	0.569
726.16	0.565
726.35	0.572
726.53	0.571
726.72	0.570
726.90	0.580
727.09	0.581
727.27	0.586
727.45	0.582
727.64	0.592
727.82	0.602
728.01	0.606
728.19	0.605
728.37	0.610
728.56	0.615
728.74	0.622
728.92	0.609
729.11	0.612
729.29	0.611
729.48	0.615
729.66	0.602
729.84	0.602
730.03	0.605
730.21	0.607
730.40	0.597
730.58	0.599
730.76	0.598
730.95	0.602
731.13	0.602
731.31	0.616
731.50	0.625
731.68	0.629
731.86	0.625
732.05	0.642
732.23	0.646
732.42	0.649
732.60	0.652
732.78	0.659
732.97	0.678
733.15	0.685
733.33	0.671
733.52	0.679
733.70	0.692
733.88	0.703
734.07	0.687
734.25	0.714
734.43	0.723
734.62	0.727
734.80	0.720
734.98	0.710
735.17	0.718
735.35	0.726
735.53	0.713
735.72	0.715
735.90	0.738
736.08	0.758
736.27	0.732
736.45	0.744
736.63	0.758
736.82	0.771
737.00	0.769
737.18	0.783
737.37	0.818
737.55	0.844
737.73	0.838
737.92	0.842
738.10	0.841
738.28	0.865
738.46	0.847
738.65	0.862
738.83	0.888
739.01	0.950
739.20	0.936
739.38	0.915
739.56	0.910
739.75	0.918
739.93	0.882
740.11	0.907
740.29	0.909
740.48	0.919
740.66	0.892
740.84	0.888
741.03	0.850
741.21	0.865
741.39	0.845
741.57	0.858
741.76	0.877
741.94	0.881
742.12	0.844
742.31	0.847
742.49	0.872
742.67	0.900
742.85	0.916
743.04	0.921
743.22	0.934
743.40	0.996
743.58	0.971
743.77	0.995
743.95	1.042
744.13	1.099
744.31	1.076
744.50	1.066
744.68	1.067
744.86	1.029
745.04	1.045
745.23	1.120
745.41	1.101
745.59	1.110
745.77	1.065
745.96	1.048
746.14	1.070
746.32	1.071
746.50	1.056
746.69	1.037
746.87	1.061
747.05	1.039
747.23	0.953
747.42	0.943
747.60	0.979
747.78	0.984
747.96	1.024
748.14	0.963
748.33	1.006
748.51	1.000
748.69	0.988
748.87	1.014
749.06	1.015
749.24	1.012
749.42	0.982
749.60	0.960
749.78	0.971
749.97	0.920
750.15	0.915
750.33	0.910
750.51	0.944
750.69	0.952
750.88	0.958
751.06	0.970
751.24	1.000
751.42	0.994
751.60	0.980
751.79	1.069
751.97	1.129
752.15	1.128
752.33	1.082
752.51	1.160
752.69	1.187
752.88	1.147
753.06	1.207
753.24	1.181
753.42	1.232
753.60	1.508
753.78	1.260
753.97	1.283
754.15	1.320
754.33	1.380
754.51	1.186
754.69	1.162
754.87	1.194
755.06	1.095
755.24	1.088
755.42	1.102
755.60	0.982
755.78	0.990
755.96	0.922
756.15	0.919
756.33	0.921
756.51	0.943
756.69	0.925
756.87	0.888
757.05	0.912
757.23	0.892
757.42	0.852
757.60	0.846
757.78	0.834
757.96	0.832
758.14	0.812
758.32	0.794
758.50	0.807
758.69	0.805
758.87	0.795
759.05	0.798
759.23	0.811
759.41	0.810
759.59	0.802
759.77	0.828
759.95	0.857
760.13	0.913
760.32	0.914
760.50	0.909
760.68	0.937
760.86	0.937
761.04	0.907
761.22	0.912
761.40	0.970
761.58	0.969
761.76	0.934
761.95	0.910
762.13	0.863
762.31	0.862
762.49	0.827
762.67	0.846
762.85	0.860
763.03	0.855
763.21	0.834
763.39	0.813
763.57	0.819
763.75	0.817
763.94	0.803
764.12	0.803
764.30	0.831
764.48	0.835
764.66	0.795
764.84	0.796
765.02	0.836
765.20	0.841
765.38	0.819
765.56	0.826
765.74	0.869
765.92	0.868
766.10	0.874
766.28	0.867
766.46	0.901
766.65	0.902
766.83	0.884
767.01	0.867
767.19	0.878
767.37	0.875
767.55	0.857
767.73	0.839
767.91	0.843
768.09	0.831
768.27	0.817
768.45	0.806
768.63	0.815
768.81	0.818
768.99	0.791
769.17	0.816
769.35	0.834
769.53	0.833
769.71	0.810
769.89	0.823
770.07	0.832
770.25	0.813
770.43	0.789
770.61	0.816
770.79	0.823
770.97	0.832
771.15	0.797
771.33	0.802
771.51	0.805
771.69	0.816
771.87	0.820
772.05	0.827
772.24	0.839
772.42	0.850
772.60	0.820
772.78	0.885
772.96	0.921
773.14	0.918
773.32	0.892
773.49	0.899
773.67	0.897
773.85	0.875
774.03	0.857
774.21	0.891
774.39	0.902
774.57	0.930
774.75	0.850
774.93	0.844
775.11	0.873
775.29	0.879
775.47	0.882
775.65	0.896
775.83	0.917
776.01	0.945
776.19	0.889
776.37	0.892
776.55	0.892
776.73	0.887
776.91	0.879
777.09	0.856
777.27	0.856
777.45	0.844
777.63	0.816
777.81	0.813
777.99	0.800
778.17	0.798
778.35	0.773
778.53	0.759
778.71	0.766
778.89	0.750
779.07	0.739
779.24	0.742
779.42	0.745
779.60	0.762
779.78	0.754
779.96	0.758
780.14	0.767
780.32	0.788
780.50	0.770
780.68	0.771
780.86	0.762
781.04	0.782
781.22	0.786
781.40	0.795
781.58	0.789
781.75	0.784
781.93	0.765
782.11	0.767
782.29	0.751
782.47	0.749
782.65	0.735
782.83	0.767
783.01	0.761
783.19	0.752
783.37	0.737
783.55	0.739
783.72	0.759
783.90	0.770
784.08	0.758
784.26	0.771
784.44	0.793
784.62	0.797
784.80	0.759
784.98	0.763
785.16	0.771
785.33	0.788
785.51	0.769
785.69	0.757
785.87	0.757
786.05	0.770
786.23	0.764
786.41	0.762
786.59	0.770
786.77	0.770
786.94	0.756
787.12	0.758
787.30	0.758
787.48	0.757
787.66	0.742
787.84	0.743
788.02	0.734
788.19	0.732
788.37	0.717
788.55	0.719
788.73	0.718
788.91	0.714
789.09	0.697
789.27	0.685
789.44	0.697
789.62	0.703
789.80	0.712
789.98	0.738
790.16	0.724
790.34	0.721
790.51	0.707
790.69	0.729
790.87	0.735
791.05	0.729
791.23	0.724
791.41	0.726
791.58	0.735
791.76	0.713
791.94	0.678
792.12	0.688
792.30	0.690
792.48	0.687
792.65	0.681
792.83	0.689
793.01	0.700
793.19	0.697
793.37	0.680
793.54	0.676
793.72	0.688
793.90	0.687
794.08	0.673
794.26	0.676
794.43	0.686
794.61	0.668
794.79	0.653
794.97	0.652
795.15	0.658
795.32	0.661
795.50	0.649
795.68	0.645
795.86	0.652
796.04	0.655
796.21	0.649
796.39	0.646
796.57	0.664
796.75	0.673
796.92	0.673
797.10	0.680
797.28	0.682
797.46	0.687
797.64	0.688
797.81	0.695
797.99	0.700
798.17	0.704
798.35	0.698
798.52	0.699
798.70	0.694
798.88	0.705
799.06	0.703
799.23	0.706
799.41	0.715
799.59	0.706
799.77	0.694
799.94	0.702
800.12	0.713
800.30	0.730
800.48	0.729
800.65	0.729
800.83	0.718
801.01	0.709
801.19	0.709
801.36	0.705
801.54	0.710
801.72	0.718
801.90	0.704
802.07	0.698
802.25	0.685
802.43	0.669
802.60	0.665
802.78	0.672
802.96	0.678
803.14	0.671
803.31	0.667
803.49	0.669
803.67	0.667
803.84	0.671
804.02	0.662
804.20	0.666
804.38	0.671
804.55	0.667
804.73	0.651
804.91	0.652
805.08	0.664
805.26	0.662
805.44	0.729
805.61	0.733
805.79	0.735
805.97	0.736
806.15	0.724
806.32	0.717
806.50	0.728
806.68	0.730
806.85	0.718
807.03	0.709
807.21	0.727
807.38	0.655
807.56	0.642
807.74	0.652
807.91	0.658
808.09	0.661
808.27	0.682
808.44	0.709
808.62	0.721
808.80	0.724
808.97	0.718
809.15	0.712
809.33	0.732
809.50	0.740
809.68	0.726
809.86	0.734
810.03	0.768
810.21	0.745
810.39	0.724
810.56	0.728
810.74	0.755
810.91	0.838
811.09	0.823
811.27	0.846
811.44	0.852
811.62	0.852
811.80	0.835
811.97	0.807
812.15	0.808
812.33	0.802
812.50	0.784
812.68	0.773
812.85	0.712
813.03	0.715
813.21	0.680
813.38	0.675
813.56	0.677
813.74	0.687
813.91	0.691
814.09	0.724
814.26	0.715
814.44	0.721
814.62	0.708
814.79	0.712
814.97	0.718
815.14	0.723
815.32	0.724
815.50	0.745
815.67	0.747
815.85	0.738
816.02	0.725
816.20	0.735
816.38	0.753
816.55	0.758
816.73	0.759
816.90	0.771
817.08	0.806
817.26	0.814
817.43	0.788
817.61	0.817
817.78	0.842
817.96	0.817
818.13	0.806
818.31	0.805
818.49	0.819
818.66	0.803
818.84	0.786
819.01	0.762
819.19	0.771
819.36	0.775
819.54	0.740
819.71	0.786
819.89	0.804
820.07	0.818
820.24	0.811
820.42	0.817
820.59	0.846
820.77	0.874
820.94	0.865
821.12	0.887
821.29	0.905
821.47	0.913
821.64	0.835
821.82	0.850
822.00	0.847
822.17	0.841
822.35	0.831
822.52	0.831
822.70	0.819
822.87	0.827
823.05	0.804
823.22	0.822
823.40	0.853
823.57	0.882
823.75	0.860
823.92	0.895
824.10	0.927
824.27	0.980
824.45	0.964
824.62	1.043
824.80	1.066
824.97	1.086
825.15	1.065
825.32	1.086
825.50	1.089
825.67	1.103
825.85	1.073
826.02	1.092
826.20	1.128
826.37	1.327
826.55	1.206
826.72	1.595
826.90	1.845
827.07	2.160
827.25	1.846
827.42	-0.000
827.60	-0.000
827.77	-0.000
827.95	-0.000
828.12	-0.000
828.30	-0.000
828.47	-0.000
828.65	2.078
828.82	-0.000
829.00	-0.000
829.17	-0.000
829.34	-0.000
829.52	-0.000
829.69	-0.000
829.87	-0.000
830.04	-0.000
830.22	-0.000
830.39	-0.000
830.57	-0.000
830.74	-0.000
830.92	-0.000
831.09	-0.000
831.26	-0.000
831.44	-0.000
831.61	-0.000
831.79	-0.000
831.96	-0.000
832.14	-0.000
832.31	-0.000
832.49	-0.000
832.66	-0.000
832.83	-0.000
833.01	-0.000
833.18	-0.000
833.36	-0.000
833.53	-0.000
833.70	-0.000
833.88	-0.000
834.05	-0.000
834.23	-0.000
834.40	-0.000
834.58	-0.000
834.75	-0.000
834.92	-0.000
835.10	-0.000
835.27	-0.000
835.45	-0.000
835.62	-0.000
835.79	-0.000
835.97	-0.000
836.14	-0.000
836.32	-0.000
836.49	-0.000
836.66	-0.000
836.84	-0.000
837.01	-0.000
837.18	-0.000
837.36	-0.000
837.53	-0.000
837.71	-0.000
837.88	-0.000
838.05	-0.000
838.23	-0.000
838.40	-0.000
838.58	-0.000
838.75	-0.000
838.92	-0.000
839.10	-0.000
839.27	-0.000
839.44	-0.000
839.62	-0.000
839.79	-0.000
839.96	-0.000
840.14	-0.000
840.31	-0.000
840.48	-0.000
840.66	-0.000
840.83	-0.000
841.01	-0.000
841.18	-0.000
841.35	-0.000
841.53	-0.000
841.70	-0.000
841.87	-0.000
842.05	-0.000
842.22	-0.000
842.39	-0.000
842.57	-0.000
842.74	-0.000
842.91	-0.000
843.09	-0.000
843.26	-0.000
843.43	-0.000
843.60	-0.000
843.78	-0.000
843.95	-0.000
844.12	-0.000
844.30	-0.000
844.47	-0.000
844.64	-0.000
844.82	-0.000
844.99	-0.000
845.16	-0.000
845.34	-0.000
845.51	-0.000
845.68	-0.000
845.85	-0.000
846.03	-0.000
846.20	-0.000
846.37	-0.000
846.55	-0.000
846.72	-0.000
846.89	-0.000
847.06	-0.000
847.24	-0.000
847.41	-0.000
847.58	-0.000
847.76	-0.000
847.93	-0.000
848.10	-0.000
848.27	-0.000
848.45	-0.000
848.62	-0.000
848.79	-0.000
848.97	-0.000
849.14	-0.000
849.31	-0.000
849.48	-0.000
849.66	-0.000
849.83	-0.000
850.00	-0.000
850.17	-0.000
850.35	-0.000
850.52	-0.000
850.69	-0.000
850.86	-0.000
851.04	-0.000
851.21	-0.000
851.38	-0.000
851.55	-0.000
851.72	-0.000
851.90	-0.000
852.07	-0.000
852.24	-0.000
852.41	-0.000
852.59	-0.000
852.76	-0.000
852.93	-0.000
853.10	-0.000
853.28	-0.000
853.45	-0.000
853.62	-0.000
853.79	-0.000
853.96	-0.000
854.14	-0.000
854.31	-0.000
854.48	-0.000
854.65	-0.000
854.82	-0.000
855.00	-0.000
855.17	-0.000
855.34	-0.000
855.51	-0.000
855.68	-0.000
855.86	-0.000
856.03	-0.000
856.20	-0.000
856.37	-0.000
856.54	-0.000
856.72	-0.000
856.89	-0.000
857.06	-0.000
857.23	-0.000
857.40	-0.000
857.57	-0.000
857.75	-0.000
857.92	-0.000
858.09	-0.000
858.26	-0.000
858.43	-0.000
858.60	-0.000
858.78	-0.000
858.95	-0.000
859.12	-0.000
859.29	-0.000
859.46	-0.000
859.63	-0.000
859.81	-0.000
859.98	-0.000
860.15	-0.000
860.32	-0.000
860.49	-0.000
860.66	-0.000
860.83	-0.000
861.01	-0.000
861.18	-0.000
861.35	-0.000
861.52	-0.000
861.69	-0.000
861.86	-0.000
862.03	-0.000
862.21	-0.000
862.38	-0.000
862.55	-0.000
862.72	-0.000
862.89	-0.000
863.06	-0.000
863.23	-0.000
863.40	-0.000
863.58	-0.000
863.75	-0.000
863.92	-0.000
864.09	-0.000
864.26	-0.000
864.43	-0.000
864.60	-0.000
864.77	-0.000
864.94	-0.000
865.11	-0.000
865.29	-0.000
865.46	-0.000
865.63	-0.000
865.80	-0.000
865.97	-0.000
866.14	-0.000
866.31	-0.000
866.48	-0.000
866.65	-0.000
866.82	-0.000
866.99	-0.000
867.16	-0.000
867.34	-0.000
867.51	-0.000
867.68	-0.000
867.85	-0.000
868.02	-0.000
868.19	-0.000
868.36	-0.000
868.53	-0.000
868.70	-0.000
868.87	-0.000
869.04	-0.000
869.21	-0.000
869.38	-0.000
869.55	-0.000
869.72	-0.000
869.89	-0.000
870.06	-0.000
870.24	-0.000
870.41	-0.000
870.58	-0.000
870.75	-0.000
870.92	-0.000
871.09	-0.000
871.26	-0.000
871.43	-0.000
871.60	-0.000
871.77	-0.000
871.94	-0.000
872.11	-0.000
872.28	-0.000
872.45	-0.000
872.62	-0.000
872.79	-0.000
872.96	-0.000
873.13	-0.000
873.30	-0.000
873.47	-0.000
873.64	-0.000
873.81	-0.000
873.98	-0.000
874.15	-0.000
874.32	-0.000
874.49	-0.000
874.66	-0.000
874.83	-0.000
875.00	-0.000
875.17	-0.000
875.34	-0.000
875.51	-0.000
875.68	-0.000
875.85	-0.000
876.02	-0.000
876.19	-0.000
876.36	-0.000
876.53	-0.000
876.70	-0.000
876.87	-0.000
877.04	-0.000
877.21	-0.000
877.38	-0.000
877.55	-0.000
877.72	-0.000
877.89	-0.000
878.06	-0.000
878.23	-0.000
878.39	-0.000
878.56	-0.000
878.73	-0.000
878.90	-0.000
879.07	-0.000
879.24	-0.000
879.41	-0.000
879.58	-0.000
879.75	-0.000
879.92	-0.000
880.09	-0.000
880.26	-0.000
880.43	-0.000
880.60	-0.000
880.77	-0.000
880.94	-0.000
881.11	-0.000
881.27	-0.000
881.44	-0.000
881.61	-0.000
881.78	-0.000
881.95	-0.000
882.12	-0.000
882.29	-0.000
882.46	-0.000
882.63	-0.000
882.80	-0.000
882.97	-0.000
883.14	-0.000
883.30	-0.000
883.47	-0.000
883.64	-0.000
883.81	-0.000
883.98	-0.000
884.15	-0.000
884.32	-0.000
884.49	-0.000
884.66	-0.000
884.82	-0.000
884.99	-0.000
885.16	-0.000
885.33	-0.000
885.50	-0.000
885.67	-0.000
885.84	-0.000
886.01	-0.000
886.17	-0.000
886.34	-0.000
886.51	-0.000
886.68	-0.000
886.85	-0.000
887.02	-0.000
887.19	-0.000
887.36	-0.000
887.52	-0.000
887.69	-0.000
887.86	-0.000
888.03	-0.000
888.20	-0.000
888.37	-0.000
888.54	-0.000
888.70	-0.000
888.87	-0.000
889.04	-0.000
889.21	-0.000
889.38	-0.000
889.55	-0.000
889.71	-0.000
889.88	-0.000
890.05	-0.000
890.22	-0.000
890.39	-0.000
>>>>>End Processed Spectral Data<<<<<
