SpectraSuite Data File
++++++++++++++++++++++++++++++++++++
Date: Fri Jun 19 15:01:28 CEST 2015
User: introlabs
Dark Spectrum Present: Yes
Reference Spectrum Present: Yes
Number of Sampled Component Spectra: 1
Spectrometers: USB4H08886
Integration Time (usec): 745692 (USB4H08886)
Spectra Averaged: 5 (USB4H08886)
Boxcar Smoothing: 5 (USB4H08886)
Correct for Electrical Dark: Yes (USB4H08886)
Strobe/Lamp Enabled: No (USB4H08886)
Correct for Detector Non-linearity: Yes (USB4H08886)
Correct for Stray Light: Yes (USB4H08886)
Number of Pixels in Processed Spectrum: 3648
>>>>>Begin Processed Spectral Data<<<<<
178.14	-0.000
178.36	-0.000
178.57	-0.000
178.79	-0.000
179.01	-0.000
179.22	-0.000
179.44	-0.000
179.65	-0.000
179.87	-0.000
180.08	-0.000
180.30	-0.000
180.52	-0.000
180.73	-0.000
180.95	-0.000
181.16	-0.000
181.38	-0.000
181.59	-0.000
181.81	-0.000
182.03	-0.000
182.24	-0.000
182.46	-0.000
182.67	-0.000
182.89	-0.000
183.10	-0.000
183.32	-0.000
183.54	-0.000
183.75	-0.000
183.97	-0.000
184.18	-0.000
184.40	-0.000
184.61	-0.000
184.83	-0.000
185.04	-0.000
185.26	-0.000
185.48	-0.000
185.69	-0.000
185.91	-0.000
186.12	-0.000
186.34	-0.000
186.55	-0.000
186.77	-0.000
186.98	-0.000
187.20	-0.000
187.42	-0.000
187.63	-0.000
187.85	-0.000
188.06	-0.000
188.28	-0.000
188.49	-0.000
188.71	-0.000
188.92	-0.000
189.14	-0.000
189.36	-0.000
189.57	-0.000
189.79	-0.000
190.00	-0.000
190.22	-0.000
190.43	-0.000
190.65	-0.000
190.86	-0.000
191.08	-0.000
191.29	-0.000
191.51	-0.000
191.72	-0.000
191.94	-0.000
192.16	-0.000
192.37	-0.000
192.59	-0.000
192.80	-0.000
193.02	-0.000
193.23	-0.000
193.45	-0.000
193.66	-0.000
193.88	-0.000
194.09	-0.000
194.31	-0.000
194.52	-0.000
194.74	-0.000
194.95	-0.000
195.17	-0.000
195.38	-0.000
195.60	-0.000
195.81	-0.000
196.03	-0.000
196.25	-0.000
196.46	-0.000
196.68	-0.000
196.89	-0.000
197.11	-0.000
197.32	-0.000
197.54	-0.000
197.75	-0.000
197.97	-0.000
198.18	-0.000
198.40	-0.000
198.61	-0.000
198.83	-0.000
199.04	-0.000
199.26	-0.000
199.47	-0.000
199.69	-0.000
199.90	-0.000
200.12	-0.000
200.33	-0.000
200.55	-0.000
200.76	-0.000
200.98	-0.000
201.19	-0.000
201.41	-0.000
201.62	-0.000
201.84	-0.000
202.05	-0.000
202.27	-0.000
202.48	-0.000
202.70	-0.000
202.91	-0.000
203.13	-0.000
203.34	-0.000
203.56	-0.000
203.77	-0.000
203.99	-0.000
204.20	-0.000
204.42	-0.000
204.63	-0.000
204.85	-0.000
205.06	-0.000
205.28	-0.000
205.49	-0.000
205.71	-0.000
205.92	-0.000
206.14	-0.000
206.35	-0.000
206.56	-0.000
206.78	-0.000
206.99	-0.000
207.21	-0.000
207.42	-0.000
207.64	-0.000
207.85	-0.000
208.07	-0.000
208.28	-0.000
208.50	-0.000
208.71	-0.000
208.93	-0.000
209.14	-0.000
209.36	-0.000
209.57	-0.000
209.79	-0.000
210.00	-0.000
210.22	-0.000
210.43	-0.000
210.64	-0.000
210.86	-0.000
211.07	-0.000
211.29	-0.000
211.50	-0.000
211.72	-0.000
211.93	-0.000
212.15	-0.000
212.36	-0.000
212.58	-0.000
212.79	-0.000
213.01	-0.000
213.22	-0.000
213.43	-0.000
213.65	-0.000
213.86	-0.000
214.08	-0.000
214.29	-0.000
214.51	-0.000
214.72	-0.000
214.94	-0.000
215.15	-0.000
215.36	-0.000
215.58	-0.000
215.79	-0.000
216.01	-0.000
216.22	-0.000
216.44	-0.000
216.65	-0.000
216.87	-0.000
217.08	-0.000
217.29	-0.000
217.51	-0.000
217.72	-0.000
217.94	-0.000
218.15	-0.000
218.37	-0.000
218.58	-0.000
218.80	-0.000
219.01	-0.000
219.22	-0.000
219.44	-0.000
219.65	-0.000
219.87	-0.000
220.08	-0.000
220.30	-0.000
220.51	-0.000
220.72	-0.000
220.94	-0.000
221.15	-0.000
221.37	-0.000
221.58	-0.000
221.79	-0.000
222.01	-0.000
222.22	-0.000
222.44	-0.000
222.65	-0.000
222.87	-0.000
223.08	-0.000
223.29	-0.000
223.51	-0.000
223.72	-0.000
223.94	-0.000
224.15	-0.000
224.36	-0.000
224.58	-0.000
224.79	-0.000
225.01	-0.000
225.22	-0.000
225.44	-0.000
225.65	-0.000
225.86	-0.000
226.08	-0.000
226.29	-0.000
226.51	-0.000
226.72	-0.000
226.93	-0.000
227.15	-0.000
227.36	-0.000
227.58	-0.000
227.79	-0.000
228.00	-0.000
228.22	-0.000
228.43	-0.000
228.65	-0.000
228.86	-0.000
229.07	-0.000
229.29	-0.000
229.50	-0.000
229.72	-0.000
229.93	-0.000
230.14	-0.000
230.36	-0.000
230.57	-0.000
230.78	-0.000
231.00	-0.000
231.21	-0.000
231.43	-0.000
231.64	-0.000
231.85	-0.000
232.07	-0.000
232.28	-0.000
232.50	-0.000
232.71	-0.000
232.92	-0.000
233.14	-0.000
233.35	-0.000
233.56	-0.000
233.78	-0.000
233.99	-0.000
234.21	-0.000
234.42	-0.000
234.63	-0.000
234.85	-0.000
235.06	-0.000
235.27	-0.000
235.49	-0.000
235.70	-0.000
235.91	-0.000
236.13	-0.000
236.34	-0.000
236.56	-0.000
236.77	-0.000
236.98	-0.000
237.20	-0.000
237.41	-0.000
237.62	-0.000
237.84	-0.000
238.05	-0.000
238.26	-0.000
238.48	-0.000
238.69	-0.000
238.91	-0.000
239.12	-0.000
239.33	-0.000
239.55	-0.000
239.76	-0.000
239.97	-0.000
240.19	-0.000
240.40	-0.000
240.61	-0.000
240.83	-0.000
241.04	-0.000
241.25	-0.000
241.47	-0.000
241.68	-0.000
241.89	-0.000
242.11	-0.000
242.32	-0.000
242.53	-0.000
242.75	-0.000
242.96	-0.000
243.17	-0.000
243.39	-0.000
243.60	-0.000
243.81	-0.000
244.03	-0.000
244.24	-0.000
244.45	-0.000
244.67	-0.000
244.88	-0.000
245.09	-0.000
245.31	-0.000
245.52	-0.000
245.73	-0.000
245.95	-0.000
246.16	-0.000
246.37	-0.000
246.59	-0.000
246.80	-0.000
247.01	-0.000
247.23	-0.000
247.44	-0.000
247.65	-0.000
247.87	-0.000
248.08	-0.000
248.29	-0.000
248.51	-0.000
248.72	-0.000
248.93	-0.000
249.15	-0.000
249.36	-0.000
249.57	-0.000
249.78	-0.000
250.00	-0.000
250.21	-0.000
250.42	-0.000
250.64	-0.000
250.85	-0.000
251.06	-0.000
251.28	-0.000
251.49	-0.000
251.70	-0.000
251.92	-0.000
252.13	-0.000
252.34	-0.000
252.55	-0.000
252.77	-0.000
252.98	-0.000
253.19	-0.000
253.41	-0.000
253.62	-0.000
253.83	-0.000
254.05	-0.000
254.26	-0.000
254.47	-0.000
254.68	-0.000
254.90	-0.000
255.11	-0.000
255.32	-0.000
255.54	-0.000
255.75	-0.000
255.96	-0.000
256.17	-0.000
256.39	-0.000
256.60	-0.000
256.81	-0.000
257.03	-0.000
257.24	-0.000
257.45	-0.000
257.66	-0.000
257.88	-0.000
258.09	-0.000
258.30	-0.000
258.51	-0.000
258.73	-0.000
258.94	-0.000
259.15	-0.000
259.37	-0.000
259.58	-0.000
259.79	-0.000
260.00	-0.000
260.22	-0.000
260.43	-0.000
260.64	-0.000
260.85	-0.000
261.07	-0.000
261.28	-0.000
261.49	-0.000
261.71	-0.000
261.92	-0.000
262.13	-0.000
262.34	-0.000
262.56	-0.000
262.77	-0.000
262.98	-0.000
263.19	-0.000
263.41	-0.000
263.62	-0.000
263.83	-0.000
264.04	-0.000
264.26	-0.000
264.47	-0.000
264.68	-0.000
264.89	-0.000
265.11	-0.000
265.32	-0.000
265.53	-0.000
265.74	-0.000
265.96	-0.000
266.17	-0.000
266.38	-0.000
266.59	-0.000
266.81	-0.000
267.02	-0.000
267.23	-0.000
267.44	-0.000
267.65	-0.000
267.87	-0.000
268.08	-0.000
268.29	-0.000
268.50	-0.000
268.72	-0.000
268.93	-0.000
269.14	-0.000
269.35	-0.000
269.57	-0.000
269.78	-0.000
269.99	-0.000
270.20	-0.000
270.41	-0.000
270.63	-0.000
270.84	-0.000
271.05	-0.000
271.26	-0.000
271.48	-0.000
271.69	-0.000
271.90	-0.000
272.11	-0.000
272.32	-0.000
272.54	-0.000
272.75	-0.000
272.96	-0.000
273.17	-0.000
273.39	-0.000
273.60	-0.000
273.81	-0.000
274.02	-0.000
274.23	-0.000
274.45	-0.000
274.66	-0.000
274.87	-0.000
275.08	-0.000
275.29	-0.000
275.51	-0.000
275.72	-0.000
275.93	-0.000
276.14	-0.000
276.35	-0.000
276.57	-0.000
276.78	-0.000
276.99	-0.000
277.20	-0.000
277.41	-0.000
277.63	-0.000
277.84	-0.000
278.05	-0.000
278.26	-0.000
278.47	-0.000
278.69	-0.000
278.90	-0.000
279.11	-0.000
279.32	-0.000
279.53	-0.000
279.74	-0.000
279.96	-0.000
280.17	-0.000
280.38	-0.000
280.59	-0.000
280.80	-0.000
281.02	-0.000
281.23	-0.000
281.44	-0.000
281.65	-0.000
281.86	-0.000
282.07	-0.000
282.29	-0.000
282.50	-0.000
282.71	-0.000
282.92	-0.000
283.13	-0.000
283.35	-0.000
283.56	-0.000
283.77	-0.000
283.98	-0.000
284.19	-0.000
284.40	-0.000
284.62	-0.000
284.83	-0.000
285.04	-0.000
285.25	-0.000
285.46	-0.000
285.67	-0.000
285.88	-0.000
286.10	-0.000
286.31	-0.000
286.52	-0.000
286.73	-0.000
286.94	-0.000
287.15	-0.000
287.37	-0.000
287.58	-0.000
287.79	-0.000
288.00	-0.000
288.21	-0.000
288.42	-0.000
288.63	-0.000
288.85	-0.000
289.06	-0.000
289.27	-0.000
289.48	-0.000
289.69	-0.000
289.90	-0.000
290.11	-0.000
290.33	-0.000
290.54	-0.000
290.75	-0.000
290.96	-0.000
291.17	-0.000
291.38	-0.000
291.59	-0.000
291.81	-0.000
292.02	-0.000
292.23	-0.000
292.44	-0.000
292.65	-0.000
292.86	-0.000
293.07	-0.000
293.28	-0.000
293.50	-0.000
293.71	-0.000
293.92	-0.000
294.13	-0.000
294.34	-0.000
294.55	-0.000
294.76	-0.000
294.97	-0.000
295.19	-0.000
295.40	-0.000
295.61	-0.000
295.82	-0.000
296.03	-0.000
296.24	-0.000
296.45	2.146
296.66	1.781
296.87	1.795
297.09	1.866
297.30	2.052
297.51	1.700
297.72	1.668
297.93	1.744
298.14	1.704
298.35	1.665
298.56	1.643
298.77	1.756
298.99	1.732
299.20	1.714
299.41	1.693
299.62	1.652
299.83	1.642
300.04	1.587
300.25	1.579
300.46	1.617
300.67	1.602
300.88	1.545
301.10	1.552
301.31	1.624
301.52	1.561
301.73	1.509
301.94	1.516
302.15	1.532
302.36	1.490
302.57	1.427
302.78	1.433
302.99	1.470
303.20	1.493
303.41	1.406
303.63	1.389
303.84	1.397
304.05	1.393
304.26	1.333
304.47	1.340
304.68	1.339
304.89	1.332
305.10	1.295
305.31	1.282
305.52	1.323
305.73	1.312
305.94	1.269
306.15	1.261
306.37	1.281
306.58	1.287
306.79	1.256
307.00	1.280
307.21	1.315
307.42	1.308
307.63	1.272
307.84	1.242
308.05	1.282
308.26	1.286
308.47	1.268
308.68	1.263
308.89	1.263
309.10	1.260
309.31	1.218
309.52	1.210
309.73	1.223
309.95	1.221
310.16	1.193
310.37	1.177
310.58	1.193
310.79	1.186
311.00	1.185
311.21	1.185
311.42	1.187
311.63	1.184
311.84	1.167
312.05	1.166
312.26	1.187
312.47	1.197
312.68	1.177
312.89	1.160
313.10	1.168
313.31	1.139
313.52	1.143
313.73	1.145
313.94	1.145
314.15	1.129
314.36	1.109
314.57	1.102
314.78	1.089
314.99	1.083
315.21	1.072
315.42	1.076
315.63	1.086
315.84	1.064
316.05	1.049
316.26	1.057
316.47	1.072
316.68	1.068
316.89	1.051
317.10	1.069
317.31	1.073
317.52	1.076
317.73	1.057
317.94	1.057
318.15	1.105
318.36	1.105
318.57	1.089
318.78	1.075
318.99	1.110
319.20	1.106
319.41	1.075
319.62	1.078
319.83	1.091
320.04	1.086
320.25	1.075
320.46	1.035
320.67	1.037
320.88	1.033
321.09	1.023
321.30	1.010
321.51	1.025
321.72	1.023
321.93	1.007
322.14	0.999
322.35	1.025
322.56	1.028
322.77	1.017
322.98	1.029
323.19	1.036
323.40	1.041
323.61	1.018
323.82	1.011
324.03	1.014
324.24	1.013
324.45	1.002
324.66	0.983
324.87	0.980
325.08	0.979
325.29	0.960
325.50	0.951
325.71	0.957
325.92	0.965
326.13	0.953
326.34	0.955
326.55	0.960
326.76	0.958
326.97	0.949
327.18	0.942
327.39	0.966
327.60	0.967
327.80	0.970
328.01	0.968
328.22	0.969
328.43	0.971
328.64	0.960
328.85	0.966
329.06	0.969
329.27	0.967
329.48	0.965
329.69	0.946
329.90	0.957
330.11	0.950
330.32	0.944
330.53	0.937
330.74	0.937
330.95	0.935
331.16	0.919
331.37	0.928
331.58	0.928
331.79	0.927
332.00	0.919
332.21	0.912
332.42	0.914
332.63	0.904
332.83	0.901
333.04	0.903
333.25	0.915
333.46	0.915
333.67	0.901
333.88	0.903
334.09	0.913
334.30	0.910
334.51	0.903
334.72	0.899
334.93	0.902
335.14	0.901
335.35	0.894
335.56	0.889
335.77	0.897
335.98	0.896
336.18	0.889
336.39	0.881
336.60	0.884
336.81	0.881
337.02	0.880
337.23	0.885
337.44	0.888
337.65	0.890
337.86	0.880
338.07	0.876
338.28	0.880
338.49	0.878
338.70	0.871
338.91	0.877
339.11	0.884
339.32	0.881
339.53	0.870
339.74	0.867
339.95	0.863
340.16	0.862
340.37	0.853
340.58	0.852
340.79	0.855
341.00	0.856
341.21	0.846
341.41	0.846
341.62	0.847
341.83	0.847
342.04	0.843
342.25	0.854
342.46	0.857
342.67	0.857
342.88	0.849
343.09	0.849
343.30	0.855
343.50	0.858
343.71	0.849
343.92	0.847
344.13	0.852
344.34	0.851
344.55	0.835
344.76	0.833
344.97	0.838
345.18	0.837
345.38	0.835
345.59	0.830
345.80	0.829
346.01	0.828
346.22	0.824
346.43	0.818
346.64	0.826
346.85	0.826
347.06	0.819
347.26	0.817
347.47	0.820
347.68	0.815
347.89	0.812
348.10	0.806
348.31	0.812
348.52	0.812
348.73	0.809
348.93	0.806
349.14	0.808
349.35	0.807
349.56	0.802
349.77	0.798
349.98	0.803
350.19	0.800
350.39	0.796
350.60	0.791
350.81	0.806
351.02	0.807
351.23	0.803
351.44	0.805
351.65	0.808
351.86	0.806
352.06	0.804
352.27	0.804
352.48	0.805
352.69	0.805
352.90	0.801
353.11	0.787
353.31	0.793
353.52	0.789
353.73	0.781
353.94	0.782
354.15	0.787
354.36	0.789
354.57	0.780
354.77	0.783
354.98	0.782
355.19	0.782
355.40	0.782
355.61	0.788
355.82	0.793
356.02	0.792
356.23	0.785
356.44	0.786
356.65	0.788
356.86	0.789
357.07	0.783
357.27	0.787
357.48	0.788
357.69	0.783
357.90	0.766
358.11	0.764
358.32	0.768
358.52	0.770
358.73	0.761
358.94	0.764
359.15	0.768
359.36	0.769
359.56	0.764
359.77	0.762
359.98	0.768
360.19	0.768
360.40	0.765
360.61	0.766
360.81	0.764
361.02	0.765
361.23	0.757
361.44	0.755
361.65	0.755
361.85	0.755
362.06	0.753
362.27	0.755
362.48	0.756
362.69	0.758
362.89	0.751
363.10	0.753
363.31	0.758
363.52	0.761
363.73	0.756
363.93	0.756
364.14	0.758
364.35	0.760
364.56	0.750
364.77	0.751
364.97	0.752
365.18	0.753
365.39	0.748
365.60	0.744
365.81	0.744
366.01	0.745
366.22	0.742
366.43	0.742
366.64	0.743
366.84	0.749
367.05	0.746
367.26	0.746
367.47	0.748
367.68	0.747
367.88	0.745
368.09	0.743
368.30	0.745
368.51	0.745
368.71	0.743
368.92	0.747
369.13	0.745
369.34	0.745
369.55	0.743
369.75	0.743
369.96	0.750
370.17	0.750
370.38	0.747
370.58	0.746
370.79	0.751
371.00	0.751
371.21	0.742
371.41	0.747
371.62	0.751
371.83	0.746
372.04	0.745
372.24	0.738
372.45	0.740
372.66	0.740
372.87	0.737
373.07	0.734
373.28	0.734
373.49	0.736
373.70	0.727
373.90	0.726
374.11	0.735
374.32	0.734
374.53	0.733
374.73	0.733
374.94	0.736
375.15	0.735
375.36	0.733
375.56	0.742
375.77	0.743
375.98	0.743
376.19	0.740
376.39	0.734
376.60	0.737
376.81	0.737
377.02	0.735
377.22	0.734
377.43	0.734
377.64	0.734
377.84	0.725
378.05	0.730
378.26	0.736
378.47	0.735
378.67	0.733
378.88	0.730
379.09	0.730
379.30	0.731
379.50	0.728
379.71	0.730
379.92	0.733
380.12	0.733
380.33	0.725
380.54	0.721
380.75	0.728
380.95	0.729
381.16	0.727
381.37	0.727
381.57	0.729
381.78	0.729
381.99	0.729
382.20	0.728
382.40	0.731
382.61	0.731
382.82	0.728
383.02	0.722
383.23	0.724
383.44	0.725
383.64	0.724
383.85	0.727
384.06	0.730
384.27	0.727
384.47	0.726
384.68	0.726
384.89	0.732
385.09	0.732
385.30	0.731
385.51	0.730
385.71	0.733
385.92	0.732
386.13	0.731
386.33	0.734
386.54	0.735
386.75	0.733
386.95	0.729
387.16	0.725
387.37	0.727
387.58	0.727
387.78	0.725
387.99	0.723
388.20	0.726
388.40	0.722
388.61	0.718
388.82	0.721
389.02	0.724
389.23	0.724
389.44	0.722
389.64	0.723
389.85	0.734
390.06	0.734
390.26	0.734
390.47	0.733
390.68	0.736
390.88	0.735
391.09	0.730
391.30	0.729
391.50	0.729
391.71	0.729
391.92	0.726
392.12	0.718
392.33	0.719
392.53	0.718
392.74	0.719
392.95	0.717
393.15	0.720
393.36	0.722
393.57	0.720
393.77	0.723
393.98	0.725
394.19	0.724
394.39	0.724
394.60	0.726
394.81	0.728
395.01	0.726
395.22	0.725
395.43	0.725
395.63	0.730
395.84	0.731
396.04	0.727
396.25	0.729
396.46	0.732
396.66	0.730
396.87	0.728
397.08	0.725
397.28	0.727
397.49	0.728
397.69	0.725
397.90	0.720
398.11	0.722
398.31	0.723
398.52	0.720
398.73	0.721
398.93	0.720
399.14	0.719
399.34	0.717
399.55	0.719
399.76	0.718
399.96	0.719
400.17	0.717
400.37	0.716
400.58	0.722
400.79	0.724
400.99	0.721
401.20	0.727
401.41	0.729
401.61	0.730
401.82	0.735
402.02	0.735
402.23	0.736
402.44	0.736
402.64	0.736
402.85	0.730
403.05	0.728
403.26	0.727
403.47	0.721
403.67	0.720
403.88	0.720
404.08	0.715
404.29	0.713
404.50	0.713
404.70	0.713
404.91	0.713
405.11	0.710
405.32	0.710
405.52	0.711
405.73	0.711
405.94	0.709
406.14	0.713
406.35	0.715
406.55	0.715
406.76	0.713
406.97	0.713
407.17	0.716
407.38	0.716
407.58	0.714
407.79	0.716
407.99	0.718
408.20	0.719
408.41	0.715
408.61	0.713
408.82	0.714
409.02	0.714
409.23	0.711
409.43	0.710
409.64	0.711
409.84	0.711
410.05	0.709
410.26	0.707
410.46	0.706
410.67	0.706
410.87	0.708
411.08	0.709
411.28	0.710
411.49	0.712
411.69	0.710
411.90	0.712
412.11	0.714
412.31	0.714
412.52	0.712
412.72	0.713
412.93	0.714
413.13	0.713
413.34	0.709
413.54	0.711
413.75	0.713
413.95	0.712
414.16	0.709
414.37	0.711
414.57	0.712
414.78	0.714
414.98	0.712
415.19	0.713
415.39	0.711
415.60	0.713
415.80	0.712
416.01	0.710
416.21	0.712
416.42	0.711
416.62	0.707
416.83	0.706
417.03	0.706
417.24	0.707
417.44	0.705
417.65	0.704
417.86	0.704
418.06	0.702
418.27	0.700
418.47	0.702
418.68	0.703
418.88	0.703
419.09	0.702
419.29	0.702
419.50	0.703
419.70	0.703
419.91	0.702
420.11	0.700
420.32	0.703
420.52	0.702
420.73	0.701
420.93	0.702
421.14	0.703
421.34	0.702
421.55	0.698
421.75	0.699
421.96	0.699
422.16	0.699
422.37	0.698
422.57	0.695
422.78	0.696
422.98	0.693
423.19	0.690
423.39	0.689
423.60	0.692
423.80	0.693
424.01	0.691
424.21	0.693
424.42	0.695
424.62	0.694
424.83	0.694
425.03	0.694
425.23	0.696
425.44	0.697
425.64	0.697
425.85	0.696
426.05	0.697
426.26	0.698
426.46	0.694
426.67	0.693
426.87	0.698
427.08	0.698
427.28	0.695
427.49	0.696
427.69	0.697
427.90	0.696
428.10	0.693
428.31	0.693
428.51	0.695
428.71	0.694
428.92	0.695
429.12	0.693
429.33	0.693
429.53	0.697
429.74	0.702
429.94	0.702
430.15	0.701
430.35	0.701
430.56	0.698
430.76	0.697
430.96	0.697
431.17	0.694
431.37	0.692
431.58	0.691
431.78	0.687
431.99	0.680
432.19	0.682
432.40	0.684
432.60	0.684
432.80	0.687
433.01	0.685
433.21	0.685
433.42	0.687
433.62	0.687
433.83	0.686
434.03	0.689
434.23	0.692
434.44	0.691
434.64	0.689
434.85	0.695
435.05	0.696
435.26	0.697
435.46	0.695
435.66	0.694
435.87	0.695
436.07	0.694
436.28	0.690
436.48	0.686
436.69	0.685
436.89	0.685
437.09	0.679
437.30	0.677
437.50	0.677
437.71	0.688
437.91	0.688
438.11	0.689
438.32	0.692
438.52	0.693
438.73	0.692
438.93	0.690
439.13	0.689
439.34	0.692
439.54	0.690
439.75	0.690
439.95	0.680
440.15	0.684
440.36	0.683
440.56	0.681
440.77	0.682
440.97	0.682
441.17	0.681
441.38	0.683
441.58	0.680
441.79	0.680
441.99	0.678
442.19	0.678
442.40	0.675
442.60	0.675
442.81	0.673
443.01	0.674
443.21	0.674
443.42	0.673
443.62	0.671
443.82	0.671
444.03	0.673
444.23	0.673
444.44	0.673
444.64	0.672
444.84	0.673
445.05	0.673
445.25	0.670
445.45	0.670
445.66	0.673
445.86	0.671
446.06	0.673
446.27	0.672
446.47	0.675
446.68	0.673
446.88	0.672
447.08	0.671
447.29	0.672
447.49	0.673
447.69	0.673
447.90	0.672
448.10	0.675
448.30	0.672
448.51	0.673
448.71	0.671
448.91	0.673
449.12	0.672
449.32	0.674
449.52	0.673
449.73	0.676
449.93	0.675
450.14	0.676
450.34	0.675
450.54	0.678
450.75	0.675
450.95	0.675
451.15	0.674
451.36	0.676
451.56	0.673
451.76	0.672
451.97	0.669
452.17	0.669
452.37	0.667
452.58	0.664
452.78	0.663
452.98	0.665
453.19	0.665
453.39	0.666
453.59	0.665
453.79	0.666
454.00	0.666
454.20	0.666
454.40	0.666
454.61	0.668
454.81	0.669
455.01	0.667
455.22	0.667
455.42	0.669
455.62	0.666
455.83	0.666
456.03	0.669
456.23	0.670
456.44	0.670
456.64	0.669
456.84	0.669
457.04	0.669
457.25	0.668
457.45	0.665
457.65	0.664
457.86	0.666
458.06	0.665
458.26	0.660
458.47	0.659
458.67	0.660
458.87	0.660
459.07	0.658
459.28	0.660
459.48	0.664
459.68	0.664
459.89	0.663
460.09	0.662
460.29	0.663
460.49	0.664
460.70	0.663
460.90	0.663
461.10	0.664
461.31	0.663
461.51	0.660
461.71	0.662
461.91	0.663
462.12	0.663
462.32	0.662
462.52	0.662
462.72	0.665
462.93	0.665
463.13	0.664
463.33	0.665
463.53	0.666
463.74	0.665
463.94	0.660
464.14	0.661
464.35	0.662
464.55	0.662
464.75	0.660
464.95	0.658
465.16	0.660
465.36	0.659
465.56	0.657
465.76	0.657
465.97	0.658
466.17	0.658
466.37	0.656
466.57	0.656
466.78	0.657
466.98	0.657
467.18	0.656
467.38	0.654
467.59	0.656
467.79	0.658
467.99	0.657
468.19	0.658
468.39	0.661
468.60	0.661
468.80	0.659
469.00	0.660
469.20	0.661
469.41	0.662
469.61	0.661
469.81	0.661
470.01	0.660
470.22	0.661
470.42	0.659
470.62	0.657
470.82	0.658
471.02	0.658
471.23	0.656
471.43	0.656
471.63	0.658
471.83	0.658
472.04	0.657
472.24	0.655
472.44	0.660
472.64	0.661
472.84	0.659
473.05	0.658
473.25	0.661
473.45	0.661
473.65	0.659
473.85	0.659
474.06	0.660
474.26	0.660
474.46	0.661
474.66	0.658
474.86	0.658
475.07	0.659
475.27	0.657
475.47	0.654
475.67	0.655
475.87	0.656
476.08	0.653
476.28	0.654
476.48	0.656
476.68	0.654
476.88	0.652
477.09	0.653
477.29	0.655
477.49	0.655
477.69	0.654
477.89	0.654
478.09	0.654
478.30	0.656
478.50	0.653
478.70	0.653
478.90	0.653
479.10	0.656
479.31	0.657
479.51	0.655
479.71	0.656
479.91	0.657
480.11	0.655
480.31	0.656
480.52	0.655
480.72	0.654
480.92	0.653
481.12	0.652
481.32	0.649
481.52	0.647
481.72	0.647
481.93	0.651
482.13	0.651
482.33	0.650
482.53	0.649
482.73	0.649
482.93	0.650
483.14	0.650
483.34	0.649
483.54	0.650
483.74	0.650
483.94	0.649
484.14	0.645
484.34	0.645
484.55	0.646
484.75	0.646
484.95	0.644
485.15	0.643
485.35	0.643
485.55	0.642
485.75	0.640
485.96	0.641
486.16	0.643
486.36	0.642
486.56	0.640
486.76	0.640
486.96	0.641
487.16	0.640
487.36	0.638
487.57	0.638
487.77	0.639
487.97	0.639
488.17	0.637
488.37	0.635
488.57	0.636
488.77	0.636
488.97	0.634
489.18	0.633
489.38	0.636
489.58	0.637
489.78	0.636
489.98	0.636
490.18	0.636
490.38	0.637
490.58	0.636
490.78	0.636
490.98	0.637
491.19	0.638
491.39	0.637
491.59	0.635
491.79	0.638
491.99	0.638
492.19	0.638
492.39	0.641
492.59	0.641
492.79	0.644
492.99	0.644
493.20	0.644
493.40	0.644
493.60	0.646
493.80	0.645
494.00	0.642
494.20	0.643
494.40	0.643
494.60	0.640
494.80	0.645
495.00	0.643
495.20	0.642
495.40	0.641
495.61	0.642
495.81	0.642
496.01	0.645
496.21	0.646
496.41	0.644
496.61	0.645
496.81	0.644
497.01	0.639
497.21	0.638
497.41	0.639
497.61	0.638
497.81	0.636
498.01	0.637
498.21	0.634
498.41	0.633
498.61	0.633
498.82	0.635
499.02	0.637
499.22	0.637
499.42	0.636
499.62	0.638
499.82	0.638
500.02	0.640
500.22	0.638
500.42	0.641
500.62	0.641
500.82	0.641
501.02	0.639
501.22	0.639
501.42	0.640
501.62	0.642
501.82	0.641
502.02	0.641
502.22	0.640
502.42	0.642
502.62	0.639
502.82	0.640
503.02	0.641
503.22	0.640
503.42	0.638
503.63	0.638
503.83	0.636
504.03	0.635
504.23	0.633
504.43	0.634
504.63	0.635
504.83	0.634
505.03	0.634
505.23	0.635
505.43	0.637
505.63	0.637
505.83	0.637
506.03	0.639
506.23	0.641
506.43	0.641
506.63	0.640
506.83	0.639
507.03	0.641
507.23	0.641
507.43	0.638
507.63	0.639
507.83	0.639
508.03	0.639
508.23	0.638
508.43	0.637
508.63	0.639
508.83	0.640
509.03	0.641
509.23	0.640
509.43	0.641
509.63	0.641
509.83	0.640
510.03	0.643
510.23	0.644
510.43	0.645
510.63	0.645
510.83	0.645
511.03	0.647
511.23	0.644
511.43	0.643
511.63	0.645
511.83	0.647
512.03	0.647
512.22	0.644
512.42	0.644
512.62	0.644
512.82	0.644
513.02	0.643
513.22	0.643
513.42	0.645
513.62	0.648
513.82	0.646
514.02	0.645
514.22	0.645
514.42	0.646
514.62	0.646
514.82	0.646
515.02	0.648
515.22	0.651
515.42	0.650
515.62	0.652
515.82	0.651
516.02	0.652
516.22	0.652
516.42	0.654
516.62	0.655
516.82	0.657
517.01	0.655
517.21	0.654
517.41	0.658
517.61	0.659
517.81	0.655
518.01	0.655
518.21	0.655
518.41	0.653
518.61	0.652
518.81	0.653
519.01	0.653
519.21	0.653
519.41	0.653
519.61	0.647
519.81	0.649
520.00	0.649
520.20	0.650
520.40	0.653
520.60	0.654
520.80	0.653
521.00	0.653
521.20	0.654
521.40	0.658
521.60	0.658
521.80	0.658
522.00	0.658
522.20	0.661
522.39	0.660
522.59	0.656
522.79	0.657
522.99	0.659
523.19	0.658
523.39	0.656
523.59	0.654
523.79	0.656
523.99	0.658
524.19	0.657
524.38	0.655
524.58	0.657
524.78	0.657
524.98	0.655
525.18	0.658
525.38	0.659
525.58	0.659
525.78	0.657
525.98	0.656
526.18	0.656
526.37	0.655
526.57	0.657
526.77	0.656
526.97	0.657
527.17	0.658
527.37	0.654
527.57	0.656
527.77	0.658
527.96	0.659
528.16	0.658
528.36	0.659
528.56	0.661
528.76	0.659
528.96	0.659
529.16	0.660
529.36	0.663
529.55	0.663
529.75	0.660
529.95	0.660
530.15	0.662
530.35	0.664
530.55	0.662
530.75	0.662
530.94	0.664
531.14	0.664
531.34	0.662
531.54	0.660
531.74	0.663
531.94	0.666
532.13	0.665
532.33	0.666
532.53	0.664
532.73	0.664
532.93	0.662
533.13	0.663
533.33	0.664
533.52	0.664
533.72	0.667
533.92	0.665
534.12	0.662
534.32	0.662
534.52	0.660
534.71	0.662
534.91	0.665
535.11	0.667
535.31	0.665
535.51	0.667
535.71	0.668
535.90	0.666
536.10	0.667
536.30	0.670
536.50	0.670
536.70	0.671
536.89	0.668
537.09	0.667
537.29	0.668
537.49	0.669
537.69	0.668
537.89	0.668
538.08	0.668
538.28	0.667
538.48	0.667
538.68	0.668
538.88	0.670
539.07	0.670
539.27	0.669
539.47	0.668
539.67	0.667
539.87	0.668
540.06	0.667
540.26	0.667
540.46	0.669
540.66	0.666
540.86	0.664
541.05	0.664
541.25	0.666
541.45	0.666
541.65	0.664
541.84	0.667
542.04	0.667
542.24	0.668
542.44	0.667
542.64	0.668
542.83	0.671
543.03	0.671
543.23	0.669
543.43	0.670
543.62	0.671
543.82	0.671
544.02	0.670
544.22	0.669
544.42	0.673
544.61	0.673
544.81	0.670
545.01	0.669
545.21	0.671
545.40	0.671
545.60	0.669
545.80	0.672
546.00	0.672
546.19	0.671
546.39	0.671
546.59	0.669
546.79	0.671
546.98	0.671
547.18	0.670
547.38	0.671
547.58	0.673
547.77	0.674
547.97	0.669
548.17	0.671
548.37	0.671
548.56	0.671
548.76	0.670
548.96	0.671
549.16	0.673
549.35	0.673
549.55	0.671
549.75	0.671
549.95	0.675
550.14	0.676
550.34	0.674
550.54	0.679
550.73	0.683
550.93	0.684
551.13	0.681
551.33	0.680
551.52	0.680
551.72	0.680
551.92	0.679
552.12	0.679
552.31	0.680
552.51	0.680
552.71	0.676
552.90	0.676
553.10	0.677
553.30	0.677
553.50	0.677
553.69	0.679
553.89	0.679
554.09	0.679
554.28	0.676
554.48	0.678
554.68	0.679
554.87	0.679
555.07	0.675
555.27	0.675
555.47	0.676
555.66	0.677
555.86	0.675
556.06	0.677
556.25	0.678
556.45	0.686
556.65	0.683
556.84	0.686
557.04	0.689
557.24	0.691
557.43	0.691
557.63	0.694
557.83	0.696
558.02	0.697
558.22	0.701
558.42	0.702
558.61	0.695
558.81	0.696
559.01	0.692
559.21	0.692
559.40	0.693
559.60	0.692
559.80	0.688
559.99	0.690
560.19	0.691
560.39	0.686
560.58	0.683
560.78	0.684
560.97	0.687
561.17	0.686
561.37	0.684
561.56	0.685
561.76	0.686
561.96	0.685
562.15	0.682
562.35	0.685
562.55	0.685
562.74	0.685
562.94	0.683
563.14	0.681
563.33	0.682
563.53	0.682
563.73	0.680
563.92	0.682
564.12	0.685
564.31	0.687
564.51	0.685
564.71	0.688
564.90	0.690
565.10	0.691
565.30	0.694
565.49	0.695
565.69	0.698
565.89	0.698
566.08	0.695
566.28	0.696
566.47	0.698
566.67	0.696
566.87	0.693
567.06	0.695
567.26	0.701
567.46	0.698
567.65	0.697
567.85	0.698
568.04	0.701
568.24	0.701
568.44	0.699
568.63	0.697
568.83	0.698
569.02	0.697
569.22	0.692
569.42	0.688
569.61	0.691
569.81	0.689
570.00	0.687
570.20	0.688
570.40	0.689
570.59	0.688
570.79	0.686
570.98	0.685
571.18	0.686
571.38	0.686
571.57	0.683
571.77	0.681
571.96	0.685
572.16	0.682
572.35	0.677
572.55	0.678
572.75	0.676
572.94	0.676
573.14	0.674
573.33	0.674
573.53	0.674
573.73	0.674
573.92	0.672
574.12	0.669
574.31	0.673
574.51	0.674
574.70	0.671
574.90	0.672
575.09	0.674
575.29	0.675
575.49	0.672
575.68	0.673
575.88	0.674
576.07	0.675
576.27	0.674
576.46	0.672
576.66	0.671
576.86	0.670
577.05	0.668
577.25	0.667
577.44	0.668
577.64	0.668
577.83	0.666
578.03	0.667
578.22	0.667
578.42	0.666
578.61	0.664
578.81	0.665
579.00	0.665
579.20	0.665
579.40	0.664
579.59	0.663
579.79	0.663
579.98	0.663
580.18	0.663
580.37	0.663
580.57	0.665
580.76	0.669
580.96	0.668
581.15	0.668
581.35	0.670
581.54	0.670
581.74	0.669
581.93	0.671
582.13	0.672
582.32	0.669
582.52	0.667
582.71	0.666
582.91	0.662
583.10	0.661
583.30	0.660
583.49	0.659
583.69	0.663
583.88	0.664
584.08	0.662
584.27	0.664
584.47	0.667
584.66	0.669
584.86	0.668
585.05	0.670
585.25	0.673
585.44	0.673
585.64	0.671
585.83	0.668
586.03	0.669
586.22	0.667
586.42	0.663
586.61	0.664
586.81	0.666
587.00	0.666
587.20	0.664
587.39	0.664
587.59	0.665
587.78	0.667
587.98	0.667
588.17	0.668
588.37	0.670
588.56	0.672
588.76	0.668
588.95	0.668
589.15	0.671
589.34	0.673
589.54	0.672
589.73	0.673
589.92	0.676
590.12	0.676
590.31	0.674
590.51	0.680
590.70	0.682
590.90	0.683
591.09	0.682
591.29	0.680
591.48	0.680
591.68	0.682
591.87	0.680
592.06	0.679
592.26	0.681
592.45	0.680
592.65	0.674
592.84	0.673
593.04	0.676
593.23	0.677
593.43	0.675
593.62	0.674
593.81	0.674
594.01	0.673
594.20	0.671
594.40	0.670
594.59	0.672
594.79	0.673
594.98	0.672
595.17	0.671
595.37	0.671
595.56	0.674
595.76	0.673
595.95	0.674
596.14	0.678
596.34	0.680
596.53	0.678
596.73	0.680
596.92	0.681
597.12	0.684
597.31	0.684
597.50	0.683
597.70	0.685
597.89	0.685
598.09	0.682
598.28	0.682
598.47	0.685
598.67	0.684
598.86	0.680
599.06	0.683
599.25	0.683
599.44	0.681
599.64	0.678
599.83	0.676
600.03	0.678
600.22	0.679
600.41	0.679
600.61	0.676
600.80	0.678
601.00	0.679
601.19	0.674
601.38	0.672
601.58	0.675
601.77	0.676
601.96	0.678
602.16	0.678
602.35	0.687
602.55	0.684
602.74	0.685
602.93	0.687
603.13	0.692
603.32	0.694
603.51	0.694
603.71	0.697
603.90	0.699
604.09	0.700
604.29	0.696
604.48	0.691
604.68	0.693
604.87	0.691
605.06	0.687
605.26	0.683
605.45	0.684
605.64	0.682
605.84	0.677
606.03	0.676
606.22	0.675
606.42	0.674
606.61	0.670
606.80	0.670
607.00	0.672
607.19	0.672
607.38	0.671
607.58	0.673
607.77	0.675
607.96	0.675
608.16	0.674
608.35	0.678
608.54	0.682
608.74	0.685
608.93	0.690
609.12	0.693
609.32	0.695
609.51	0.699
609.70	0.697
609.90	0.699
610.09	0.704
610.28	0.709
610.48	0.703
610.67	0.705
610.86	0.705
611.06	0.699
611.25	0.696
611.44	0.697
611.64	0.697
611.83	0.700
612.02	0.697
612.21	0.695
612.41	0.693
612.60	0.692
612.79	0.689
612.99	0.689
613.18	0.692
613.37	0.690
613.57	0.687
613.76	0.689
613.95	0.686
614.14	0.685
614.34	0.682
614.53	0.683
614.72	0.686
614.92	0.686
615.11	0.683
615.30	0.680
615.49	0.682
615.69	0.684
615.88	0.680
616.07	0.681
616.26	0.683
616.46	0.685
616.65	0.682
616.84	0.681
617.04	0.681
617.23	0.685
617.42	0.685
617.61	0.688
617.81	0.689
618.00	0.691
618.19	0.690
618.38	0.694
618.58	0.698
618.77	0.699
618.96	0.698
619.15	0.700
619.35	0.701
619.54	0.702
619.73	0.697
619.92	0.700
620.12	0.704
620.31	0.704
620.50	0.699
620.69	0.699
620.89	0.702
621.08	0.702
621.27	0.703
621.46	0.702
621.66	0.706
621.85	0.707
622.04	0.703
622.23	0.704
622.43	0.705
622.62	0.705
622.81	0.704
623.00	0.703
623.19	0.707
623.39	0.706
623.58	0.703
623.77	0.702
623.96	0.704
624.16	0.703
624.35	0.698
624.54	0.701
624.73	0.704
624.92	0.702
625.12	0.700
625.31	0.700
625.50	0.702
625.69	0.703
625.88	0.699
626.08	0.698
626.27	0.699
626.46	0.700
626.65	0.697
626.84	0.696
627.04	0.701
627.23	0.702
627.42	0.697
627.61	0.699
627.80	0.703
628.00	0.703
628.19	0.702
628.38	0.706
628.57	0.708
628.76	0.707
628.96	0.704
629.15	0.705
629.34	0.706
629.53	0.707
629.72	0.702
629.91	0.702
630.11	0.706
630.30	0.707
630.49	0.709
630.68	0.710
630.87	0.713
631.06	0.716
631.26	0.711
631.45	0.714
631.64	0.721
631.83	0.724
632.02	0.720
632.21	0.719
632.41	0.725
632.60	0.720
632.79	0.718
632.98	0.719
633.17	0.720
633.36	0.721
633.55	0.716
633.75	0.713
633.94	0.715
634.13	0.716
634.32	0.714
634.51	0.709
634.70	0.711
634.89	0.711
635.09	0.707
635.28	0.708
635.47	0.709
635.66	0.712
635.85	0.708
636.04	0.709
636.23	0.713
636.43	0.714
636.62	0.713
636.81	0.711
637.00	0.713
637.19	0.717
637.38	0.713
637.57	0.713
637.76	0.714
637.95	0.714
638.15	0.710
638.34	0.708
638.53	0.710
638.72	0.712
638.91	0.709
639.10	0.707
639.29	0.706
639.48	0.707
639.67	0.707
639.87	0.707
640.06	0.712
640.25	0.712
640.44	0.712
640.63	0.713
640.82	0.714
641.01	0.714
641.20	0.715
641.39	0.717
641.58	0.718
641.78	0.718
641.97	0.713
642.16	0.728
642.35	0.728
642.54	0.727
642.73	0.722
642.92	0.721
643.11	0.725
643.30	0.723
643.49	0.719
643.68	0.722
643.87	0.723
644.06	0.723
644.25	0.703
644.45	0.707
644.64	0.708
644.83	0.709
645.02	0.706
645.21	0.706
645.40	0.707
645.59	0.707
645.78	0.702
645.97	0.705
646.16	0.706
646.35	0.705
646.54	0.702
646.73	0.703
646.92	0.704
647.11	0.704
647.30	0.700
647.49	0.702
647.68	0.702
647.88	0.701
648.07	0.693
648.26	0.697
648.45	0.699
648.64	0.696
648.83	0.694
649.02	0.697
649.21	0.707
649.40	0.706
649.59	0.701
649.78	0.702
649.97	0.715
650.16	0.715
650.35	0.708
650.54	0.712
650.73	0.719
650.92	0.715
651.11	0.709
651.30	0.705
651.49	0.709
651.68	0.710
651.87	0.707
652.06	0.697
652.25	0.701
652.44	0.704
652.63	0.702
652.82	0.703
653.01	0.704
653.20	0.703
653.39	0.691
653.58	0.689
653.77	0.688
653.96	0.683
654.15	0.675
654.34	0.673
654.53	0.668
654.72	0.661
654.91	0.652
655.10	0.647
655.29	0.645
655.48	0.644
655.67	0.639
655.86	0.636
656.05	0.635
656.24	0.635
656.43	0.630
656.62	0.629
656.81	0.629
657.00	0.626
657.19	0.623
657.38	0.622
657.57	0.621
657.76	0.622
657.95	0.619
658.14	0.622
658.33	0.624
658.51	0.629
658.70	0.629
658.89	0.631
659.08	0.640
659.27	0.649
659.46	0.650
659.65	0.656
659.84	0.660
660.03	0.664
660.22	0.664
660.41	0.668
660.60	0.667
660.79	0.668
660.98	0.674
661.17	0.673
661.36	0.672
661.55	0.673
661.74	0.670
661.92	0.673
662.11	0.674
662.30	0.673
662.49	0.667
662.68	0.666
662.87	0.669
663.06	0.663
663.25	0.664
663.44	0.663
663.63	0.664
663.82	0.664
664.01	0.658
664.20	0.658
664.38	0.659
664.57	0.659
664.76	0.659
664.95	0.660
665.14	0.664
665.33	0.660
665.52	0.667
665.71	0.671
665.90	0.671
666.09	0.673
666.28	0.670
666.46	0.669
666.65	0.670
666.84	0.668
667.03	0.662
667.22	0.660
667.41	0.663
667.60	0.653
667.79	0.646
667.98	0.647
668.16	0.648
668.35	0.648
668.54	0.645
668.73	0.646
668.92	0.647
669.11	0.646
669.30	0.640
669.49	0.636
669.67	0.638
669.86	0.641
670.05	0.639
670.24	0.636
670.43	0.634
670.62	0.632
670.81	0.627
671.00	0.628
671.18	0.628
671.37	0.628
671.56	0.626
671.75	0.625
671.94	0.622
672.13	0.620
672.32	0.616
672.50	0.616
672.69	0.616
672.88	0.616
673.07	0.611
673.26	0.614
673.45	0.615
673.63	0.615
673.82	0.612
674.01	0.614
674.20	0.613
674.39	0.613
674.58	0.613
674.76	0.613
674.95	0.612
675.14	0.612
675.33	0.608
675.52	0.606
675.71	0.606
675.89	0.605
676.08	0.601
676.27	0.601
676.46	0.601
676.65	0.600
676.84	0.599
677.02	0.600
677.21	0.602
677.40	0.601
677.59	0.599
677.78	0.599
677.96	0.601
678.15	0.601
678.34	0.599
678.53	0.600
678.72	0.599
678.90	0.596
679.09	0.592
679.28	0.589
679.47	0.589
679.66	0.589
679.84	0.586
680.03	0.582
680.22	0.581
680.41	0.582
680.60	0.578
680.78	0.578
680.97	0.579
681.16	0.580
681.35	0.578
681.53	0.577
681.72	0.578
681.91	0.581
682.10	0.580
682.29	0.583
682.47	0.581
682.66	0.581
682.85	0.580
683.04	0.578
683.22	0.578
683.41	0.580
683.60	0.579
683.79	0.580
683.97	0.579
684.16	0.578
684.35	0.574
684.54	0.575
684.72	0.575
684.91	0.575
685.10	0.574
685.29	0.574
685.47	0.571
685.66	0.570
685.85	0.567
686.04	0.566
686.22	0.568
686.41	0.570
686.60	0.567
686.79	0.570
686.97	0.570
687.16	0.572
687.35	0.569
687.54	0.573
687.72	0.576
687.91	0.577
688.10	0.579
688.29	0.579
688.47	0.577
688.66	0.578
688.85	0.574
689.03	0.572
689.22	0.576
689.41	0.576
689.60	0.572
689.78	0.569
689.97	0.570
690.16	0.567
690.34	0.563
690.53	0.562
690.72	0.563
690.91	0.561
691.09	0.559
691.28	0.554
691.47	0.552
691.65	0.551
691.84	0.548
692.03	0.547
692.21	0.545
692.40	0.544
692.59	0.541
692.77	0.540
692.96	0.541
693.15	0.541
693.34	0.539
693.52	0.539
693.71	0.539
693.90	0.540
694.08	0.541
694.27	0.542
694.46	0.551
694.64	0.552
694.83	0.551
695.02	0.551
695.20	0.551
695.39	0.550
695.58	0.551
695.76	0.551
695.95	0.551
696.14	0.550
696.32	0.548
696.51	0.538
696.70	0.538
696.88	0.540
697.07	0.538
697.26	0.539
697.44	0.541
697.63	0.539
697.81	0.537
698.00	0.537
698.19	0.536
698.37	0.536
698.56	0.535
698.75	0.535
698.93	0.535
699.12	0.534
699.31	0.533
699.49	0.533
699.68	0.534
699.87	0.536
700.05	0.536
700.24	0.535
700.42	0.536
700.61	0.537
700.80	0.535
700.98	0.535
701.17	0.537
701.36	0.536
701.54	0.535
701.73	0.536
701.91	0.534
702.10	0.533
702.29	0.532
702.47	0.531
702.66	0.532
702.84	0.534
703.03	0.532
703.22	0.534
703.40	0.533
703.59	0.534
703.77	0.534
703.96	0.534
704.15	0.535
704.33	0.535
704.52	0.534
704.70	0.534
704.89	0.532
705.08	0.531
705.26	0.527
705.45	0.527
705.63	0.526
705.82	0.523
706.00	0.522
706.19	0.522
706.38	0.522
706.56	0.521
706.75	0.519
706.93	0.519
707.12	0.520
707.30	0.520
707.49	0.517
707.68	0.515
707.86	0.515
708.05	0.515
708.23	0.512
708.42	0.512
708.60	0.515
708.79	0.515
708.98	0.513
709.16	0.513
709.35	0.514
709.53	0.518
709.72	0.517
709.90	0.519
710.09	0.521
710.27	0.523
710.46	0.526
710.64	0.525
710.83	0.526
711.02	0.527
711.20	0.526
711.39	0.525
711.57	0.523
711.76	0.524
711.94	0.522
712.13	0.523
712.31	0.523
712.50	0.518
712.68	0.516
712.87	0.518
713.05	0.518
713.24	0.518
713.42	0.517
713.61	0.518
713.79	0.519
713.98	0.520
714.16	0.520
714.35	0.520
714.54	0.521
714.72	0.520
714.91	0.518
715.09	0.524
715.28	0.527
715.46	0.527
715.65	0.523
715.83	0.523
716.02	0.525
716.20	0.521
716.39	0.520
716.57	0.522
716.76	0.524
716.94	0.525
717.12	0.517
717.31	0.519
717.49	0.522
717.68	0.524
717.86	0.524
718.05	0.525
718.23	0.528
718.42	0.530
718.60	0.530
718.79	0.538
718.97	0.541
719.16	0.541
719.34	0.539
719.53	0.538
719.71	0.538
719.90	0.539
720.08	0.536
720.27	0.536
720.45	0.536
720.63	0.535
720.82	0.529
721.00	0.531
721.19	0.533
721.37	0.533
721.56	0.533
721.74	0.536
721.93	0.544
722.11	0.552
722.30	0.551
722.48	0.557
722.66	0.558
722.85	0.557
723.03	0.558
723.22	0.557
723.40	0.560
723.59	0.559
723.77	0.563
723.95	0.557
724.14	0.558
724.32	0.558
724.51	0.556
724.69	0.558
724.88	0.558
725.06	0.557
725.24	0.558
725.43	0.559
725.61	0.563
725.80	0.558
725.98	0.555
726.16	0.552
726.35	0.558
726.53	0.557
726.72	0.556
726.90	0.567
727.09	0.569
727.27	0.574
727.45	0.570
727.64	0.579
727.82	0.586
728.01	0.591
728.19	0.589
728.37	0.594
728.56	0.597
728.74	0.603
728.92	0.591
729.11	0.592
729.29	0.590
729.48	0.592
729.66	0.583
729.84	0.583
730.03	0.586
730.21	0.588
730.40	0.580
730.58	0.581
730.76	0.580
730.95	0.583
731.13	0.583
731.31	0.596
731.50	0.606
731.68	0.608
731.86	0.604
732.05	0.618
732.23	0.621
732.42	0.623
732.60	0.627
732.78	0.633
732.97	0.651
733.15	0.657
733.33	0.645
733.52	0.651
733.70	0.660
733.88	0.668
734.07	0.654
734.25	0.679
734.43	0.686
734.62	0.687
734.80	0.683
734.98	0.673
735.17	0.679
735.35	0.685
735.53	0.674
735.72	0.676
735.90	0.698
736.08	0.717
736.27	0.696
736.45	0.704
736.63	0.716
736.82	0.723
737.00	0.724
737.18	0.737
737.37	0.766
737.55	0.790
737.73	0.786
737.92	0.786
738.10	0.782
738.28	0.799
738.46	0.788
738.65	0.800
738.83	0.818
739.01	0.866
739.20	0.853
739.38	0.835
739.56	0.826
739.75	0.828
739.93	0.798
740.11	0.820
740.29	0.821
740.48	0.827
740.66	0.807
740.84	0.805
741.03	0.775
741.21	0.785
741.39	0.768
741.57	0.777
741.76	0.790
741.94	0.795
742.12	0.761
742.31	0.765
742.49	0.782
742.67	0.806
742.85	0.819
743.04	0.821
743.22	0.827
743.40	0.876
743.58	0.863
743.77	0.880
743.95	0.912
744.13	0.959
744.31	0.942
744.50	0.934
744.68	0.929
744.86	0.908
745.04	0.917
745.23	0.978
745.41	0.959
745.59	0.961
745.77	0.933
745.96	0.922
746.14	0.930
746.32	0.929
746.50	0.920
746.69	0.908
746.87	0.916
747.05	0.906
747.23	0.838
747.42	0.823
747.60	0.846
747.78	0.846
747.96	0.872
748.14	0.831
748.33	0.856
748.51	0.853
748.69	0.844
748.87	0.866
749.06	0.865
749.24	0.865
749.42	0.857
749.60	0.842
749.78	0.856
749.97	0.815
750.15	0.811
750.33	0.813
750.51	0.835
750.69	0.838
750.88	0.843
751.06	0.850
751.24	0.870
751.42	0.861
751.60	0.852
751.79	0.912
751.97	0.952
752.15	0.952
752.33	0.919
752.51	0.975
752.69	0.992
752.88	0.964
753.06	1.003
753.24	0.983
753.42	1.009
753.60	1.154
753.78	1.032
753.97	1.045
754.15	1.062
754.33	1.092
754.51	0.985
754.69	0.972
754.87	0.999
755.06	0.937
755.24	0.940
755.42	0.948
755.60	0.858
755.78	0.869
755.96	0.821
756.15	0.817
756.33	0.821
756.51	0.841
756.69	0.829
756.87	0.798
757.05	0.818
757.23	0.806
757.42	0.779
757.60	0.776
757.78	0.767
757.96	0.766
758.14	0.753
758.32	0.739
758.50	0.748
758.69	0.746
758.87	0.737
759.05	0.738
759.23	0.742
759.41	0.740
759.59	0.735
759.77	0.753
759.95	0.777
760.13	0.821
760.32	0.822
760.50	0.818
760.68	0.842
760.86	0.845
761.04	0.820
761.22	0.829
761.40	0.873
761.58	0.877
761.76	0.853
761.95	0.834
762.13	0.796
762.31	0.792
762.49	0.765
762.67	0.781
762.85	0.791
763.03	0.787
763.21	0.767
763.39	0.749
763.57	0.750
763.75	0.746
763.94	0.733
764.12	0.734
764.30	0.757
764.48	0.759
764.66	0.725
764.84	0.723
765.02	0.758
765.20	0.766
765.38	0.750
765.56	0.754
765.74	0.789
765.92	0.790
766.10	0.793
766.28	0.787
766.46	0.811
766.65	0.813
766.83	0.804
767.01	0.789
767.19	0.796
767.37	0.794
767.55	0.782
767.73	0.763
767.91	0.766
768.09	0.757
768.27	0.746
768.45	0.737
768.63	0.741
768.81	0.740
768.99	0.716
769.17	0.734
769.35	0.747
769.53	0.747
769.71	0.731
769.89	0.736
770.07	0.740
770.25	0.725
770.43	0.705
770.61	0.728
770.79	0.734
770.97	0.744
771.15	0.717
771.33	0.720
771.51	0.725
771.69	0.733
771.87	0.746
772.05	0.752
772.24	0.759
772.42	0.767
772.60	0.746
772.78	0.802
772.96	0.826
773.14	0.823
773.32	0.803
773.49	0.810
773.67	0.807
773.85	0.783
774.03	0.772
774.21	0.801
774.39	0.812
774.57	0.833
774.75	0.763
774.93	0.759
775.11	0.781
775.29	0.786
775.47	0.785
775.65	0.795
775.83	0.811
776.01	0.832
776.19	0.789
776.37	0.790
776.55	0.788
776.73	0.787
776.91	0.783
777.09	0.762
777.27	0.761
777.45	0.749
777.63	0.726
777.81	0.722
777.99	0.711
778.17	0.711
778.35	0.691
778.53	0.682
778.71	0.686
778.89	0.675
779.07	0.669
779.24	0.673
779.42	0.676
779.60	0.695
779.78	0.692
779.96	0.694
780.14	0.700
780.32	0.720
780.50	0.703
780.68	0.704
780.86	0.698
781.04	0.714
781.22	0.717
781.40	0.728
781.58	0.718
781.75	0.710
781.93	0.697
782.11	0.696
782.29	0.681
782.47	0.682
782.65	0.671
782.83	0.696
783.01	0.690
783.19	0.684
783.37	0.671
783.55	0.675
783.72	0.694
783.90	0.702
784.08	0.698
784.26	0.710
784.44	0.729
784.62	0.732
784.80	0.700
784.98	0.707
785.16	0.713
785.33	0.725
785.51	0.711
785.69	0.699
785.87	0.698
786.05	0.707
786.23	0.704
786.41	0.699
786.59	0.704
786.77	0.705
786.94	0.692
787.12	0.694
787.30	0.696
787.48	0.694
787.66	0.683
787.84	0.686
788.02	0.677
788.19	0.676
788.37	0.666
788.55	0.667
788.73	0.666
788.91	0.659
789.09	0.646
789.27	0.634
789.44	0.646
789.62	0.651
789.80	0.658
789.98	0.678
790.16	0.666
790.34	0.662
790.51	0.653
790.69	0.671
790.87	0.678
791.05	0.675
791.23	0.671
791.41	0.671
791.58	0.678
791.76	0.658
791.94	0.632
792.12	0.640
792.30	0.641
792.48	0.638
792.65	0.633
792.83	0.639
793.01	0.645
793.19	0.643
793.37	0.629
793.54	0.625
793.72	0.635
793.90	0.635
794.08	0.624
794.26	0.624
794.43	0.633
794.61	0.618
794.79	0.605
794.97	0.604
795.15	0.608
795.32	0.611
795.50	0.604
795.68	0.598
795.86	0.601
796.04	0.603
796.21	0.597
796.39	0.595
796.57	0.607
796.75	0.617
796.92	0.618
797.10	0.621
797.28	0.624
797.46	0.626
797.64	0.629
797.81	0.636
797.99	0.640
798.17	0.644
798.35	0.639
798.52	0.642
798.70	0.636
798.88	0.645
799.06	0.646
799.23	0.648
799.41	0.654
799.59	0.647
799.77	0.636
799.94	0.643
800.12	0.651
800.30	0.666
800.48	0.666
800.65	0.666
800.83	0.656
801.01	0.647
801.19	0.648
801.36	0.643
801.54	0.646
801.72	0.655
801.90	0.644
802.07	0.641
802.25	0.629
802.43	0.614
802.60	0.612
802.78	0.617
802.96	0.623
803.14	0.616
803.31	0.615
803.49	0.615
803.67	0.611
803.84	0.614
804.02	0.605
804.20	0.609
804.38	0.614
804.55	0.613
804.73	0.602
804.91	0.602
805.08	0.616
805.26	0.613
805.44	0.677
805.61	0.679
805.79	0.678
805.97	0.680
806.15	0.669
806.32	0.664
806.50	0.669
806.68	0.668
806.85	0.661
807.03	0.650
807.21	0.669
807.38	0.602
807.56	0.593
807.74	0.603
807.91	0.608
808.09	0.611
808.27	0.628
808.44	0.653
808.62	0.659
808.80	0.661
808.97	0.658
809.15	0.651
809.33	0.668
809.50	0.676
809.68	0.663
809.86	0.669
810.03	0.699
810.21	0.682
810.39	0.665
810.56	0.672
810.74	0.692
810.91	0.759
811.09	0.749
811.27	0.766
811.44	0.769
811.62	0.772
811.80	0.755
811.97	0.728
812.15	0.724
812.33	0.721
812.50	0.705
812.68	0.695
812.85	0.644
813.03	0.646
813.21	0.618
813.38	0.612
813.56	0.615
813.74	0.626
813.91	0.631
814.09	0.661
814.26	0.653
814.44	0.658
814.62	0.648
814.79	0.649
814.97	0.653
815.14	0.659
815.32	0.662
815.50	0.678
815.67	0.678
815.85	0.670
816.02	0.659
816.20	0.667
816.38	0.680
816.55	0.688
816.73	0.687
816.90	0.696
817.08	0.720
817.26	0.725
817.43	0.705
817.61	0.728
817.78	0.746
817.96	0.728
818.13	0.714
818.31	0.715
818.49	0.727
818.66	0.719
818.84	0.708
819.01	0.690
819.19	0.695
819.36	0.699
819.54	0.673
819.71	0.712
819.89	0.727
820.07	0.742
820.24	0.735
820.42	0.731
820.59	0.749
820.77	0.768
820.94	0.760
821.12	0.776
821.29	0.790
821.47	0.790
821.64	0.731
821.82	0.739
822.00	0.737
822.17	0.735
822.35	0.732
822.52	0.733
822.70	0.723
822.87	0.729
823.05	0.712
823.22	0.723
823.40	0.745
823.57	0.767
823.75	0.750
823.92	0.769
824.10	0.785
824.27	0.822
824.45	0.810
824.62	0.866
824.80	0.884
824.97	0.900
825.15	0.887
825.32	0.901
825.50	0.897
825.67	0.911
825.85	0.894
826.02	0.906
826.20	0.924
826.37	1.042
826.55	0.961
826.72	1.128
826.90	1.175
827.07	1.219
827.25	1.165
827.42	1.285
827.60	1.384
827.77	1.500
827.95	1.499
828.12	1.542
828.30	1.284
828.47	1.391
828.65	1.109
828.82	1.155
829.00	1.200
829.17	1.283
829.34	1.281
829.52	1.307
829.69	-0.000
829.87	-0.000
830.04	-0.000
830.22	-0.000
830.39	-0.000
830.57	-0.000
830.74	-0.000
830.92	-0.000
831.09	-0.000
831.26	-0.000
831.44	-0.000
831.61	-0.000
831.79	-0.000
831.96	-0.000
832.14	-0.000
832.31	-0.000
832.49	-0.000
832.66	-0.000
832.83	-0.000
833.01	-0.000
833.18	-0.000
833.36	-0.000
833.53	-0.000
833.70	-0.000
833.88	-0.000
834.05	-0.000
834.23	-0.000
834.40	-0.000
834.58	-0.000
834.75	-0.000
834.92	-0.000
835.10	-0.000
835.27	-0.000
835.45	-0.000
835.62	-0.000
835.79	-0.000
835.97	-0.000
836.14	-0.000
836.32	-0.000
836.49	-0.000
836.66	-0.000
836.84	-0.000
837.01	-0.000
837.18	-0.000
837.36	-0.000
837.53	-0.000
837.71	-0.000
837.88	-0.000
838.05	-0.000
838.23	-0.000
838.40	-0.000
838.58	-0.000
838.75	-0.000
838.92	-0.000
839.10	-0.000
839.27	-0.000
839.44	-0.000
839.62	-0.000
839.79	-0.000
839.96	-0.000
840.14	-0.000
840.31	-0.000
840.48	-0.000
840.66	-0.000
840.83	-0.000
841.01	-0.000
841.18	-0.000
841.35	-0.000
841.53	-0.000
841.70	-0.000
841.87	-0.000
842.05	-0.000
842.22	-0.000
842.39	-0.000
842.57	-0.000
842.74	-0.000
842.91	-0.000
843.09	-0.000
843.26	-0.000
843.43	-0.000
843.60	-0.000
843.78	-0.000
843.95	-0.000
844.12	-0.000
844.30	-0.000
844.47	-0.000
844.64	-0.000
844.82	-0.000
844.99	-0.000
845.16	-0.000
845.34	-0.000
845.51	-0.000
845.68	-0.000
845.85	-0.000
846.03	-0.000
846.20	-0.000
846.37	-0.000
846.55	-0.000
846.72	-0.000
846.89	-0.000
847.06	-0.000
847.24	-0.000
847.41	-0.000
847.58	-0.000
847.76	-0.000
847.93	-0.000
848.10	-0.000
848.27	-0.000
848.45	-0.000
848.62	-0.000
848.79	-0.000
848.97	-0.000
849.14	-0.000
849.31	-0.000
849.48	-0.000
849.66	-0.000
849.83	-0.000
850.00	-0.000
850.17	-0.000
850.35	-0.000
850.52	-0.000
850.69	-0.000
850.86	-0.000
851.04	-0.000
851.21	-0.000
851.38	-0.000
851.55	-0.000
851.72	-0.000
851.90	-0.000
852.07	-0.000
852.24	-0.000
852.41	-0.000
852.59	-0.000
852.76	-0.000
852.93	-0.000
853.10	-0.000
853.28	-0.000
853.45	-0.000
853.62	-0.000
853.79	-0.000
853.96	-0.000
854.14	-0.000
854.31	-0.000
854.48	-0.000
854.65	-0.000
854.82	-0.000
855.00	-0.000
855.17	-0.000
855.34	-0.000
855.51	-0.000
855.68	-0.000
855.86	-0.000
856.03	-0.000
856.20	-0.000
856.37	-0.000
856.54	-0.000
856.72	-0.000
856.89	-0.000
857.06	-0.000
857.23	-0.000
857.40	-0.000
857.57	-0.000
857.75	-0.000
857.92	-0.000
858.09	-0.000
858.26	-0.000
858.43	-0.000
858.60	-0.000
858.78	-0.000
858.95	-0.000
859.12	-0.000
859.29	-0.000
859.46	-0.000
859.63	-0.000
859.81	-0.000
859.98	-0.000
860.15	-0.000
860.32	-0.000
860.49	-0.000
860.66	-0.000
860.83	-0.000
861.01	-0.000
861.18	-0.000
861.35	-0.000
861.52	-0.000
861.69	-0.000
861.86	-0.000
862.03	-0.000
862.21	-0.000
862.38	-0.000
862.55	-0.000
862.72	-0.000
862.89	-0.000
863.06	-0.000
863.23	-0.000
863.40	-0.000
863.58	-0.000
863.75	-0.000
863.92	-0.000
864.09	-0.000
864.26	-0.000
864.43	-0.000
864.60	-0.000
864.77	-0.000
864.94	-0.000
865.11	-0.000
865.29	-0.000
865.46	-0.000
865.63	-0.000
865.80	-0.000
865.97	-0.000
866.14	-0.000
866.31	-0.000
866.48	-0.000
866.65	-0.000
866.82	-0.000
866.99	-0.000
867.16	-0.000
867.34	-0.000
867.51	-0.000
867.68	-0.000
867.85	-0.000
868.02	-0.000
868.19	-0.000
868.36	-0.000
868.53	-0.000
868.70	-0.000
868.87	-0.000
869.04	-0.000
869.21	-0.000
869.38	-0.000
869.55	-0.000
869.72	-0.000
869.89	-0.000
870.06	-0.000
870.24	-0.000
870.41	-0.000
870.58	-0.000
870.75	-0.000
870.92	-0.000
871.09	-0.000
871.26	-0.000
871.43	-0.000
871.60	-0.000
871.77	-0.000
871.94	-0.000
872.11	-0.000
872.28	-0.000
872.45	-0.000
872.62	-0.000
872.79	-0.000
872.96	-0.000
873.13	-0.000
873.30	-0.000
873.47	-0.000
873.64	-0.000
873.81	-0.000
873.98	-0.000
874.15	-0.000
874.32	-0.000
874.49	-0.000
874.66	-0.000
874.83	-0.000
875.00	-0.000
875.17	-0.000
875.34	-0.000
875.51	-0.000
875.68	-0.000
875.85	-0.000
876.02	-0.000
876.19	-0.000
876.36	-0.000
876.53	-0.000
876.70	-0.000
876.87	-0.000
877.04	-0.000
877.21	-0.000
877.38	-0.000
877.55	-0.000
877.72	-0.000
877.89	-0.000
878.06	-0.000
878.23	-0.000
878.39	-0.000
878.56	-0.000
878.73	-0.000
878.90	-0.000
879.07	-0.000
879.24	-0.000
879.41	-0.000
879.58	-0.000
879.75	-0.000
879.92	-0.000
880.09	-0.000
880.26	-0.000
880.43	-0.000
880.60	-0.000
880.77	-0.000
880.94	-0.000
881.11	-0.000
881.27	-0.000
881.44	-0.000
881.61	-0.000
881.78	-0.000
881.95	-0.000
882.12	-0.000
882.29	-0.000
882.46	-0.000
882.63	-0.000
882.80	-0.000
882.97	-0.000
883.14	-0.000
883.30	-0.000
883.47	-0.000
883.64	-0.000
883.81	-0.000
883.98	-0.000
884.15	-0.000
884.32	-0.000
884.49	-0.000
884.66	-0.000
884.82	-0.000
884.99	-0.000
885.16	-0.000
885.33	-0.000
885.50	-0.000
885.67	-0.000
885.84	-0.000
886.01	-0.000
886.17	-0.000
886.34	-0.000
886.51	-0.000
886.68	-0.000
886.85	-0.000
887.02	-0.000
887.19	-0.000
887.36	-0.000
887.52	-0.000
887.69	-0.000
887.86	-0.000
888.03	-0.000
888.20	-0.000
888.37	-0.000
888.54	-0.000
888.70	-0.000
888.87	-0.000
889.04	-0.000
889.21	-0.000
889.38	-0.000
889.55	-0.000
889.71	-0.000
889.88	-0.000
890.05	-0.000
890.22	-0.000
890.39	-0.000
>>>>>End Processed Spectral Data<<<<<
