SpectraSuite Data File
++++++++++++++++++++++++++++++++++++
Date: Fri Jun 19 14:47:18 CEST 2015
User: introlabs
Dark Spectrum Present: Yes
Reference Spectrum Present: Yes
Number of Sampled Component Spectra: 1
Spectrometers: USB4H08886
Integration Time (usec): 745692 (USB4H08886)
Spectra Averaged: 5 (USB4H08886)
Boxcar Smoothing: 5 (USB4H08886)
Correct for Electrical Dark: Yes (USB4H08886)
Strobe/Lamp Enabled: No (USB4H08886)
Correct for Detector Non-linearity: Yes (USB4H08886)
Correct for Stray Light: Yes (USB4H08886)
Number of Pixels in Processed Spectrum: 3648
>>>>>Begin Processed Spectral Data<<<<<
178.14	-0.000
178.36	-0.000
178.57	-0.000
178.79	-0.000
179.01	-0.000
179.22	-0.000
179.44	-0.000
179.65	-0.000
179.87	-0.000
180.08	-0.000
180.30	-0.000
180.52	-0.000
180.73	-0.000
180.95	-0.000
181.16	-0.000
181.38	-0.000
181.59	-0.000
181.81	-0.000
182.03	-0.000
182.24	-0.000
182.46	-0.000
182.67	-0.000
182.89	-0.000
183.10	-0.000
183.32	-0.000
183.54	-0.000
183.75	-0.000
183.97	-0.000
184.18	-0.000
184.40	-0.000
184.61	-0.000
184.83	-0.000
185.04	-0.000
185.26	-0.000
185.48	-0.000
185.69	-0.000
185.91	-0.000
186.12	-0.000
186.34	-0.000
186.55	-0.000
186.77	-0.000
186.98	-0.000
187.20	-0.000
187.42	-0.000
187.63	-0.000
187.85	-0.000
188.06	-0.000
188.28	-0.000
188.49	-0.000
188.71	-0.000
188.92	-0.000
189.14	-0.000
189.36	-0.000
189.57	-0.000
189.79	-0.000
190.00	-0.000
190.22	-0.000
190.43	-0.000
190.65	-0.000
190.86	-0.000
191.08	-0.000
191.29	-0.000
191.51	-0.000
191.72	-0.000
191.94	-0.000
192.16	-0.000
192.37	-0.000
192.59	-0.000
192.80	-0.000
193.02	-0.000
193.23	-0.000
193.45	-0.000
193.66	-0.000
193.88	-0.000
194.09	-0.000
194.31	-0.000
194.52	-0.000
194.74	-0.000
194.95	-0.000
195.17	-0.000
195.38	-0.000
195.60	-0.000
195.81	-0.000
196.03	-0.000
196.25	-0.000
196.46	-0.000
196.68	-0.000
196.89	-0.000
197.11	-0.000
197.32	-0.000
197.54	-0.000
197.75	-0.000
197.97	-0.000
198.18	-0.000
198.40	-0.000
198.61	-0.000
198.83	-0.000
199.04	-0.000
199.26	-0.000
199.47	-0.000
199.69	-0.000
199.90	-0.000
200.12	-0.000
200.33	-0.000
200.55	-0.000
200.76	-0.000
200.98	-0.000
201.19	-0.000
201.41	-0.000
201.62	-0.000
201.84	-0.000
202.05	-0.000
202.27	-0.000
202.48	-0.000
202.70	-0.000
202.91	-0.000
203.13	-0.000
203.34	-0.000
203.56	-0.000
203.77	-0.000
203.99	-0.000
204.20	-0.000
204.42	-0.000
204.63	-0.000
204.85	-0.000
205.06	-0.000
205.28	-0.000
205.49	-0.000
205.71	-0.000
205.92	-0.000
206.14	-0.000
206.35	-0.000
206.56	-0.000
206.78	-0.000
206.99	-0.000
207.21	-0.000
207.42	-0.000
207.64	-0.000
207.85	-0.000
208.07	-0.000
208.28	-0.000
208.50	-0.000
208.71	-0.000
208.93	-0.000
209.14	-0.000
209.36	-0.000
209.57	-0.000
209.79	-0.000
210.00	-0.000
210.22	-0.000
210.43	-0.000
210.64	-0.000
210.86	-0.000
211.07	-0.000
211.29	-0.000
211.50	-0.000
211.72	-0.000
211.93	-0.000
212.15	-0.000
212.36	-0.000
212.58	-0.000
212.79	-0.000
213.01	-0.000
213.22	-0.000
213.43	-0.000
213.65	-0.000
213.86	-0.000
214.08	-0.000
214.29	-0.000
214.51	-0.000
214.72	-0.000
214.94	-0.000
215.15	-0.000
215.36	-0.000
215.58	-0.000
215.79	-0.000
216.01	-0.000
216.22	-0.000
216.44	-0.000
216.65	-0.000
216.87	-0.000
217.08	-0.000
217.29	-0.000
217.51	-0.000
217.72	-0.000
217.94	-0.000
218.15	-0.000
218.37	-0.000
218.58	-0.000
218.80	-0.000
219.01	-0.000
219.22	-0.000
219.44	-0.000
219.65	-0.000
219.87	-0.000
220.08	-0.000
220.30	-0.000
220.51	-0.000
220.72	-0.000
220.94	-0.000
221.15	-0.000
221.37	-0.000
221.58	-0.000
221.79	-0.000
222.01	-0.000
222.22	-0.000
222.44	-0.000
222.65	-0.000
222.87	-0.000
223.08	-0.000
223.29	-0.000
223.51	-0.000
223.72	-0.000
223.94	-0.000
224.15	-0.000
224.36	-0.000
224.58	-0.000
224.79	-0.000
225.01	-0.000
225.22	-0.000
225.44	-0.000
225.65	-0.000
225.86	-0.000
226.08	-0.000
226.29	-0.000
226.51	-0.000
226.72	-0.000
226.93	-0.000
227.15	-0.000
227.36	-0.000
227.58	-0.000
227.79	-0.000
228.00	-0.000
228.22	-0.000
228.43	-0.000
228.65	-0.000
228.86	-0.000
229.07	-0.000
229.29	-0.000
229.50	-0.000
229.72	-0.000
229.93	-0.000
230.14	-0.000
230.36	-0.000
230.57	-0.000
230.78	-0.000
231.00	-0.000
231.21	-0.000
231.43	-0.000
231.64	-0.000
231.85	-0.000
232.07	-0.000
232.28	-0.000
232.50	-0.000
232.71	-0.000
232.92	-0.000
233.14	-0.000
233.35	-0.000
233.56	-0.000
233.78	-0.000
233.99	-0.000
234.21	-0.000
234.42	-0.000
234.63	-0.000
234.85	-0.000
235.06	-0.000
235.27	-0.000
235.49	-0.000
235.70	-0.000
235.91	-0.000
236.13	-0.000
236.34	-0.000
236.56	-0.000
236.77	-0.000
236.98	-0.000
237.20	-0.000
237.41	-0.000
237.62	-0.000
237.84	-0.000
238.05	-0.000
238.26	-0.000
238.48	-0.000
238.69	-0.000
238.91	-0.000
239.12	-0.000
239.33	-0.000
239.55	-0.000
239.76	-0.000
239.97	-0.000
240.19	-0.000
240.40	-0.000
240.61	-0.000
240.83	-0.000
241.04	-0.000
241.25	-0.000
241.47	-0.000
241.68	-0.000
241.89	-0.000
242.11	-0.000
242.32	-0.000
242.53	-0.000
242.75	-0.000
242.96	-0.000
243.17	-0.000
243.39	-0.000
243.60	-0.000
243.81	-0.000
244.03	-0.000
244.24	-0.000
244.45	-0.000
244.67	-0.000
244.88	-0.000
245.09	-0.000
245.31	-0.000
245.52	-0.000
245.73	-0.000
245.95	-0.000
246.16	-0.000
246.37	-0.000
246.59	-0.000
246.80	-0.000
247.01	-0.000
247.23	-0.000
247.44	-0.000
247.65	-0.000
247.87	-0.000
248.08	-0.000
248.29	-0.000
248.51	-0.000
248.72	-0.000
248.93	-0.000
249.15	-0.000
249.36	-0.000
249.57	-0.000
249.78	-0.000
250.00	-0.000
250.21	-0.000
250.42	-0.000
250.64	-0.000
250.85	-0.000
251.06	-0.000
251.28	-0.000
251.49	-0.000
251.70	-0.000
251.92	-0.000
252.13	-0.000
252.34	-0.000
252.55	-0.000
252.77	-0.000
252.98	-0.000
253.19	-0.000
253.41	-0.000
253.62	-0.000
253.83	-0.000
254.05	-0.000
254.26	-0.000
254.47	-0.000
254.68	-0.000
254.90	-0.000
255.11	-0.000
255.32	-0.000
255.54	-0.000
255.75	-0.000
255.96	-0.000
256.17	-0.000
256.39	-0.000
256.60	-0.000
256.81	-0.000
257.03	-0.000
257.24	-0.000
257.45	-0.000
257.66	-0.000
257.88	-0.000
258.09	-0.000
258.30	-0.000
258.51	-0.000
258.73	-0.000
258.94	-0.000
259.15	-0.000
259.37	-0.000
259.58	-0.000
259.79	-0.000
260.00	-0.000
260.22	-0.000
260.43	-0.000
260.64	-0.000
260.85	-0.000
261.07	-0.000
261.28	-0.000
261.49	-0.000
261.71	-0.000
261.92	-0.000
262.13	-0.000
262.34	-0.000
262.56	-0.000
262.77	-0.000
262.98	-0.000
263.19	-0.000
263.41	-0.000
263.62	-0.000
263.83	-0.000
264.04	-0.000
264.26	-0.000
264.47	-0.000
264.68	-0.000
264.89	-0.000
265.11	-0.000
265.32	-0.000
265.53	-0.000
265.74	-0.000
265.96	-0.000
266.17	-0.000
266.38	-0.000
266.59	-0.000
266.81	-0.000
267.02	-0.000
267.23	-0.000
267.44	-0.000
267.65	-0.000
267.87	-0.000
268.08	-0.000
268.29	-0.000
268.50	-0.000
268.72	-0.000
268.93	-0.000
269.14	-0.000
269.35	-0.000
269.57	-0.000
269.78	-0.000
269.99	-0.000
270.20	-0.000
270.41	-0.000
270.63	-0.000
270.84	-0.000
271.05	-0.000
271.26	-0.000
271.48	-0.000
271.69	-0.000
271.90	-0.000
272.11	-0.000
272.32	-0.000
272.54	-0.000
272.75	-0.000
272.96	-0.000
273.17	-0.000
273.39	-0.000
273.60	-0.000
273.81	-0.000
274.02	-0.000
274.23	-0.000
274.45	-0.000
274.66	-0.000
274.87	-0.000
275.08	-0.000
275.29	-0.000
275.51	-0.000
275.72	-0.000
275.93	-0.000
276.14	-0.000
276.35	-0.000
276.57	-0.000
276.78	-0.000
276.99	-0.000
277.20	-0.000
277.41	-0.000
277.63	-0.000
277.84	-0.000
278.05	-0.000
278.26	-0.000
278.47	-0.000
278.69	-0.000
278.90	-0.000
279.11	-0.000
279.32	-0.000
279.53	-0.000
279.74	-0.000
279.96	-0.000
280.17	-0.000
280.38	-0.000
280.59	-0.000
280.80	-0.000
281.02	-0.000
281.23	-0.000
281.44	-0.000
281.65	-0.000
281.86	-0.000
282.07	-0.000
282.29	-0.000
282.50	-0.000
282.71	-0.000
282.92	-0.000
283.13	-0.000
283.35	-0.000
283.56	-0.000
283.77	-0.000
283.98	-0.000
284.19	-0.000
284.40	-0.000
284.62	-0.000
284.83	-0.000
285.04	-0.000
285.25	-0.000
285.46	-0.000
285.67	-0.000
285.88	-0.000
286.10	-0.000
286.31	-0.000
286.52	-0.000
286.73	-0.000
286.94	-0.000
287.15	-0.000
287.37	-0.000
287.58	-0.000
287.79	-0.000
288.00	-0.000
288.21	-0.000
288.42	-0.000
288.63	-0.000
288.85	-0.000
289.06	-0.000
289.27	-0.000
289.48	-0.000
289.69	-0.000
289.90	-0.000
290.11	-0.000
290.33	-0.000
290.54	-0.000
290.75	-0.000
290.96	-0.000
291.17	-0.000
291.38	-0.000
291.59	-0.000
291.81	-0.000
292.02	-0.000
292.23	-0.000
292.44	-0.000
292.65	-0.000
292.86	-0.000
293.07	-0.000
293.28	-0.000
293.50	-0.000
293.71	-0.000
293.92	-0.000
294.13	-0.000
294.34	-0.000
294.55	-0.000
294.76	-0.000
294.97	-0.000
295.19	-0.000
295.40	-0.000
295.61	-0.000
295.82	-0.000
296.03	-0.000
296.24	-0.000
296.45	2.367
296.66	1.863
296.87	1.887
297.09	1.983
297.30	2.263
297.51	1.775
297.72	1.727
297.93	1.836
298.14	1.789
298.35	1.733
298.56	1.705
298.77	1.858
298.99	1.830
299.20	1.797
299.41	1.776
299.62	1.733
299.83	1.725
300.04	1.647
300.25	1.637
300.46	1.679
300.67	1.651
300.88	1.590
301.10	1.587
301.31	1.662
301.52	1.592
301.73	1.525
301.94	1.521
302.15	1.538
302.36	1.498
302.57	1.435
302.78	1.447
302.99	1.497
303.20	1.515
303.41	1.418
303.63	1.398
303.84	1.407
304.05	1.406
304.26	1.347
304.47	1.354
304.68	1.354
304.89	1.346
305.10	1.304
305.31	1.289
305.52	1.336
305.73	1.327
305.94	1.288
306.15	1.279
306.37	1.302
306.58	1.313
306.79	1.281
307.00	1.306
307.21	1.346
307.42	1.337
307.63	1.301
307.84	1.266
308.05	1.307
308.26	1.308
308.47	1.284
308.68	1.280
308.89	1.275
309.10	1.272
309.31	1.230
309.52	1.219
309.73	1.233
309.95	1.227
310.16	1.196
310.37	1.185
310.58	1.201
310.79	1.199
311.00	1.194
311.21	1.196
311.42	1.198
311.63	1.194
311.84	1.179
312.05	1.177
312.26	1.200
312.47	1.214
312.68	1.190
312.89	1.173
313.10	1.178
313.31	1.150
313.52	1.154
313.73	1.156
313.94	1.158
314.15	1.138
314.36	1.118
314.57	1.109
314.78	1.096
314.99	1.089
315.21	1.078
315.42	1.083
315.63	1.097
315.84	1.075
316.05	1.058
316.26	1.066
316.47	1.085
316.68	1.081
316.89	1.061
317.10	1.082
317.31	1.090
317.52	1.091
317.73	1.072
317.94	1.072
318.15	1.116
318.36	1.116
318.57	1.097
318.78	1.087
318.99	1.121
319.20	1.121
319.41	1.085
319.62	1.086
319.83	1.100
320.04	1.092
320.25	1.077
320.46	1.041
320.67	1.044
320.88	1.041
321.09	1.027
321.30	1.013
321.51	1.027
321.72	1.026
321.93	1.009
322.14	1.002
322.35	1.029
322.56	1.031
322.77	1.019
322.98	1.032
323.19	1.039
323.40	1.044
323.61	1.024
323.82	1.018
324.03	1.023
324.24	1.022
324.45	1.008
324.66	0.989
324.87	0.986
325.08	0.985
325.29	0.964
325.50	0.962
325.71	0.968
325.92	0.976
326.13	0.962
326.34	0.962
326.55	0.970
326.76	0.968
326.97	0.957
327.18	0.952
327.39	0.978
327.60	0.979
327.80	0.974
328.01	0.972
328.22	0.971
328.43	0.975
328.64	0.965
328.85	0.969
329.06	0.972
329.27	0.970
329.48	0.965
329.69	0.946
329.90	0.956
330.11	0.950
330.32	0.944
330.53	0.938
330.74	0.938
330.95	0.936
331.16	0.921
331.37	0.930
331.58	0.932
331.79	0.933
332.00	0.923
332.21	0.917
332.42	0.920
332.63	0.911
332.83	0.906
333.04	0.908
333.25	0.919
333.46	0.918
333.67	0.902
333.88	0.904
334.09	0.914
334.30	0.912
334.51	0.903
334.72	0.899
334.93	0.902
335.14	0.901
335.35	0.893
335.56	0.889
335.77	0.897
335.98	0.896
336.18	0.889
336.39	0.880
336.60	0.883
336.81	0.882
337.02	0.881
337.23	0.886
337.44	0.888
337.65	0.890
337.86	0.878
338.07	0.873
338.28	0.877
338.49	0.876
338.70	0.869
338.91	0.877
339.11	0.883
339.32	0.880
339.53	0.868
339.74	0.866
339.95	0.862
340.16	0.861
340.37	0.855
340.58	0.855
340.79	0.858
341.00	0.859
341.21	0.847
341.41	0.847
341.62	0.847
341.83	0.848
342.04	0.843
342.25	0.854
342.46	0.857
342.67	0.855
342.88	0.847
343.09	0.847
343.30	0.853
343.50	0.857
343.71	0.847
343.92	0.845
344.13	0.850
344.34	0.849
344.55	0.833
344.76	0.833
344.97	0.837
345.18	0.835
345.38	0.832
345.59	0.827
345.80	0.825
346.01	0.824
346.22	0.819
346.43	0.813
346.64	0.821
346.85	0.820
347.06	0.813
347.26	0.814
347.47	0.817
347.68	0.813
347.89	0.809
348.10	0.805
348.31	0.812
348.52	0.812
348.73	0.809
348.93	0.806
349.14	0.810
349.35	0.810
349.56	0.804
349.77	0.799
349.98	0.806
350.19	0.802
350.39	0.797
350.60	0.793
350.81	0.808
351.02	0.807
351.23	0.802
351.44	0.804
351.65	0.807
351.86	0.805
352.06	0.803
352.27	0.801
352.48	0.804
352.69	0.803
352.90	0.798
353.11	0.785
353.31	0.792
353.52	0.788
353.73	0.780
353.94	0.781
354.15	0.786
354.36	0.786
354.57	0.778
354.77	0.780
354.98	0.780
355.19	0.779
355.40	0.779
355.61	0.785
355.82	0.789
356.02	0.789
356.23	0.782
356.44	0.785
356.65	0.788
356.86	0.789
357.07	0.782
357.27	0.784
357.48	0.787
357.69	0.781
357.90	0.766
358.11	0.763
358.32	0.767
358.52	0.770
358.73	0.760
358.94	0.763
359.15	0.767
359.36	0.768
359.56	0.764
359.77	0.761
359.98	0.768
360.19	0.768
360.40	0.764
360.61	0.765
360.81	0.763
361.02	0.763
361.23	0.754
361.44	0.751
361.65	0.751
361.85	0.751
362.06	0.750
362.27	0.752
362.48	0.751
362.69	0.753
362.89	0.747
363.10	0.749
363.31	0.754
363.52	0.757
363.73	0.753
363.93	0.754
364.14	0.756
364.35	0.757
364.56	0.747
364.77	0.749
364.97	0.752
365.18	0.752
365.39	0.747
365.60	0.744
365.81	0.744
366.01	0.744
366.22	0.741
366.43	0.740
366.64	0.742
366.84	0.748
367.05	0.744
367.26	0.743
367.47	0.745
367.68	0.745
367.88	0.741
368.09	0.739
368.30	0.742
368.51	0.741
368.71	0.741
368.92	0.745
369.13	0.742
369.34	0.742
369.55	0.741
369.75	0.741
369.96	0.747
370.17	0.748
370.38	0.745
370.58	0.744
370.79	0.749
371.00	0.747
371.21	0.738
371.41	0.744
371.62	0.748
371.83	0.744
372.04	0.742
372.24	0.736
372.45	0.737
372.66	0.737
372.87	0.734
373.07	0.732
373.28	0.733
373.49	0.737
373.70	0.727
373.90	0.726
374.11	0.735
374.32	0.735
374.53	0.734
374.73	0.734
374.94	0.736
375.15	0.736
375.36	0.733
375.56	0.742
375.77	0.742
375.98	0.742
376.19	0.739
376.39	0.733
376.60	0.736
376.81	0.736
377.02	0.734
377.22	0.732
377.43	0.733
377.64	0.732
377.84	0.723
378.05	0.728
378.26	0.734
378.47	0.733
378.67	0.730
378.88	0.727
379.09	0.728
379.30	0.730
379.50	0.727
379.71	0.730
379.92	0.733
380.12	0.732
380.33	0.723
380.54	0.720
380.75	0.727
380.95	0.726
381.16	0.725
381.37	0.724
381.57	0.726
381.78	0.726
381.99	0.725
382.20	0.724
382.40	0.727
382.61	0.728
382.82	0.724
383.02	0.718
383.23	0.722
383.44	0.722
383.64	0.720
383.85	0.722
384.06	0.725
384.27	0.723
384.47	0.721
384.68	0.722
384.89	0.727
385.09	0.727
385.30	0.726
385.51	0.725
385.71	0.728
385.92	0.728
386.13	0.727
386.33	0.728
386.54	0.730
386.75	0.729
386.95	0.725
387.16	0.721
387.37	0.723
387.58	0.723
387.78	0.722
387.99	0.720
388.20	0.722
388.40	0.718
388.61	0.714
388.82	0.717
389.02	0.720
389.23	0.720
389.44	0.718
389.64	0.719
389.85	0.730
390.06	0.730
390.26	0.730
390.47	0.729
390.68	0.732
390.88	0.731
391.09	0.726
391.30	0.725
391.50	0.725
391.71	0.725
391.92	0.722
392.12	0.715
392.33	0.715
392.53	0.715
392.74	0.715
392.95	0.715
393.15	0.717
393.36	0.719
393.57	0.717
393.77	0.720
393.98	0.722
394.19	0.721
394.39	0.721
394.60	0.723
394.81	0.725
395.01	0.723
395.22	0.721
395.43	0.722
395.63	0.726
395.84	0.728
396.04	0.724
396.25	0.725
396.46	0.727
396.66	0.726
396.87	0.723
397.08	0.721
397.28	0.723
397.49	0.724
397.69	0.720
397.90	0.716
398.11	0.717
398.31	0.717
398.52	0.713
398.73	0.715
398.93	0.713
399.14	0.713
399.34	0.712
399.55	0.713
399.76	0.713
399.96	0.714
400.17	0.713
400.37	0.712
400.58	0.718
400.79	0.720
400.99	0.717
401.20	0.723
401.41	0.726
401.61	0.726
401.82	0.731
402.02	0.730
402.23	0.732
402.44	0.731
402.64	0.731
402.85	0.725
403.05	0.724
403.26	0.723
403.47	0.717
403.67	0.715
403.88	0.717
404.08	0.710
404.29	0.709
404.50	0.708
404.70	0.709
404.91	0.708
405.11	0.706
405.32	0.707
405.52	0.708
405.73	0.708
405.94	0.706
406.14	0.707
406.35	0.710
406.55	0.710
406.76	0.708
406.97	0.709
407.17	0.711
407.38	0.711
407.58	0.709
407.79	0.711
407.99	0.714
408.20	0.715
408.41	0.712
408.61	0.709
408.82	0.710
409.02	0.709
409.23	0.707
409.43	0.706
409.64	0.706
409.84	0.706
410.05	0.703
410.26	0.701
410.46	0.700
410.67	0.700
410.87	0.701
411.08	0.703
411.28	0.705
411.49	0.707
411.69	0.704
411.90	0.705
412.11	0.707
412.31	0.707
412.52	0.706
412.72	0.707
412.93	0.708
413.13	0.707
413.34	0.703
413.54	0.705
413.75	0.707
413.95	0.707
414.16	0.704
414.37	0.706
414.57	0.707
414.78	0.709
414.98	0.707
415.19	0.707
415.39	0.705
415.60	0.707
415.80	0.706
416.01	0.705
416.21	0.707
416.42	0.707
416.62	0.702
416.83	0.702
417.03	0.702
417.24	0.702
417.44	0.699
417.65	0.699
417.86	0.699
418.06	0.696
418.27	0.694
418.47	0.695
418.68	0.696
418.88	0.697
419.09	0.695
419.29	0.695
419.50	0.696
419.70	0.696
419.91	0.694
420.11	0.693
420.32	0.696
420.52	0.695
420.73	0.695
420.93	0.695
421.14	0.697
421.34	0.695
421.55	0.692
421.75	0.692
421.96	0.693
422.16	0.693
422.37	0.692
422.57	0.689
422.78	0.690
422.98	0.687
423.19	0.685
423.39	0.683
423.60	0.687
423.80	0.688
424.01	0.687
424.21	0.690
424.42	0.691
424.62	0.691
424.83	0.690
425.03	0.691
425.23	0.693
425.44	0.693
425.64	0.694
425.85	0.692
426.05	0.693
426.26	0.694
426.46	0.690
426.67	0.689
426.87	0.693
427.08	0.694
427.28	0.692
427.49	0.692
427.69	0.692
427.90	0.691
428.10	0.689
428.31	0.688
428.51	0.689
428.71	0.689
428.92	0.689
429.12	0.687
429.33	0.687
429.53	0.691
429.74	0.696
429.94	0.696
430.15	0.696
430.35	0.695
430.56	0.693
430.76	0.692
430.96	0.693
431.17	0.690
431.37	0.688
431.58	0.686
431.78	0.683
431.99	0.676
432.19	0.678
432.40	0.679
432.60	0.680
432.80	0.682
433.01	0.680
433.21	0.681
433.42	0.683
433.62	0.682
433.83	0.682
434.03	0.685
434.23	0.688
434.44	0.687
434.64	0.685
434.85	0.689
435.05	0.690
435.26	0.690
435.46	0.688
435.66	0.688
435.87	0.689
436.07	0.688
436.28	0.684
436.48	0.680
436.69	0.680
436.89	0.680
437.09	0.674
437.30	0.672
437.50	0.673
437.71	0.685
437.91	0.684
438.11	0.685
438.32	0.689
438.52	0.689
438.73	0.689
438.93	0.687
439.13	0.687
439.34	0.690
439.54	0.688
439.75	0.688
439.95	0.678
440.15	0.682
440.36	0.681
440.56	0.678
440.77	0.679
440.97	0.679
441.17	0.678
441.38	0.680
441.58	0.677
441.79	0.676
441.99	0.674
442.19	0.673
442.40	0.671
442.60	0.671
442.81	0.668
443.01	0.669
443.21	0.669
443.42	0.669
443.62	0.667
443.82	0.667
444.03	0.669
444.23	0.668
444.44	0.669
444.64	0.668
444.84	0.669
445.05	0.669
445.25	0.667
445.45	0.667
445.66	0.669
445.86	0.669
446.06	0.670
446.27	0.669
446.47	0.673
446.68	0.670
446.88	0.669
447.08	0.669
447.29	0.670
447.49	0.670
447.69	0.670
447.90	0.669
448.10	0.672
448.30	0.670
448.51	0.671
448.71	0.668
448.91	0.671
449.12	0.670
449.32	0.671
449.52	0.670
449.73	0.675
449.93	0.673
450.14	0.673
450.34	0.671
450.54	0.674
450.75	0.671
450.95	0.670
451.15	0.669
451.36	0.672
451.56	0.668
451.76	0.667
451.97	0.664
452.17	0.664
452.37	0.663
452.58	0.660
452.78	0.659
452.98	0.662
453.19	0.661
453.39	0.662
453.59	0.661
453.79	0.661
454.00	0.662
454.20	0.661
454.40	0.661
454.61	0.663
454.81	0.664
455.01	0.662
455.22	0.663
455.42	0.665
455.62	0.663
455.83	0.663
456.03	0.665
456.23	0.667
456.44	0.667
456.64	0.666
456.84	0.666
457.04	0.666
457.25	0.665
457.45	0.662
457.65	0.660
457.86	0.661
458.06	0.660
458.26	0.656
458.47	0.655
458.67	0.657
458.87	0.657
459.07	0.655
459.28	0.658
459.48	0.660
459.68	0.660
459.89	0.659
460.09	0.659
460.29	0.659
460.49	0.660
460.70	0.659
460.90	0.659
461.10	0.660
461.31	0.659
461.51	0.656
461.71	0.658
461.91	0.659
462.12	0.659
462.32	0.658
462.52	0.659
462.72	0.662
462.93	0.662
463.13	0.661
463.33	0.662
463.53	0.664
463.74	0.663
463.94	0.659
464.14	0.660
464.35	0.661
464.55	0.661
464.75	0.659
464.95	0.656
465.16	0.658
465.36	0.657
465.56	0.656
465.76	0.655
465.97	0.655
466.17	0.656
466.37	0.653
466.57	0.654
466.78	0.655
466.98	0.655
467.18	0.653
467.38	0.652
467.59	0.653
467.79	0.655
467.99	0.654
468.19	0.655
468.39	0.658
468.60	0.658
468.80	0.656
469.00	0.658
469.20	0.659
469.41	0.659
469.61	0.659
469.81	0.659
470.01	0.659
470.22	0.659
470.42	0.657
470.62	0.655
470.82	0.657
471.02	0.656
471.23	0.654
471.43	0.654
471.63	0.657
471.83	0.657
472.04	0.655
472.24	0.653
472.44	0.658
472.64	0.658
472.84	0.656
473.05	0.656
473.25	0.659
473.45	0.658
473.65	0.656
473.85	0.657
474.06	0.658
474.26	0.657
474.46	0.658
474.66	0.655
474.86	0.656
475.07	0.656
475.27	0.654
475.47	0.651
475.67	0.652
475.87	0.654
476.08	0.651
476.28	0.652
476.48	0.653
476.68	0.651
476.88	0.649
477.09	0.650
477.29	0.652
477.49	0.652
477.69	0.651
477.89	0.651
478.09	0.651
478.30	0.653
478.50	0.650
478.70	0.650
478.90	0.650
479.10	0.653
479.31	0.654
479.51	0.652
479.71	0.653
479.91	0.652
480.11	0.651
480.31	0.651
480.52	0.650
480.72	0.650
480.92	0.649
481.12	0.648
481.32	0.645
481.52	0.643
481.72	0.643
481.93	0.647
482.13	0.648
482.33	0.648
482.53	0.646
482.73	0.647
482.93	0.648
483.14	0.647
483.34	0.646
483.54	0.647
483.74	0.646
483.94	0.645
484.14	0.641
484.34	0.641
484.55	0.641
484.75	0.641
484.95	0.639
485.15	0.639
485.35	0.639
485.55	0.639
485.75	0.637
485.96	0.637
486.16	0.638
486.36	0.638
486.56	0.636
486.76	0.636
486.96	0.637
487.16	0.636
487.36	0.634
487.57	0.634
487.77	0.635
487.97	0.636
488.17	0.634
488.37	0.633
488.57	0.634
488.77	0.634
488.97	0.632
489.18	0.631
489.38	0.634
489.58	0.635
489.78	0.634
489.98	0.633
490.18	0.633
490.38	0.634
490.58	0.633
490.78	0.633
490.98	0.635
491.19	0.635
491.39	0.634
491.59	0.633
491.79	0.636
491.99	0.637
492.19	0.637
492.39	0.640
492.59	0.640
492.79	0.642
492.99	0.642
493.20	0.642
493.40	0.643
493.60	0.645
493.80	0.643
494.00	0.641
494.20	0.641
494.40	0.641
494.60	0.638
494.80	0.642
495.00	0.642
495.20	0.640
495.40	0.640
495.61	0.641
495.81	0.640
496.01	0.643
496.21	0.644
496.41	0.644
496.61	0.645
496.81	0.644
497.01	0.639
497.21	0.638
497.41	0.639
497.61	0.638
497.81	0.635
498.01	0.635
498.21	0.633
498.41	0.631
498.61	0.630
498.82	0.632
499.02	0.633
499.22	0.633
499.42	0.633
499.62	0.634
499.82	0.635
500.02	0.637
500.22	0.636
500.42	0.638
500.62	0.638
500.82	0.638
501.02	0.636
501.22	0.636
501.42	0.636
501.62	0.638
501.82	0.637
502.02	0.638
502.22	0.637
502.42	0.639
502.62	0.636
502.82	0.637
503.02	0.637
503.22	0.637
503.42	0.635
503.63	0.635
503.83	0.634
504.03	0.632
504.23	0.631
504.43	0.632
504.63	0.632
504.83	0.632
505.03	0.631
505.23	0.633
505.43	0.635
505.63	0.636
505.83	0.636
506.03	0.638
506.23	0.640
506.43	0.640
506.63	0.639
506.83	0.637
507.03	0.640
507.23	0.640
507.43	0.637
507.63	0.638
507.83	0.638
508.03	0.638
508.23	0.637
508.43	0.635
508.63	0.637
508.83	0.638
509.03	0.639
509.23	0.638
509.43	0.639
509.63	0.639
509.83	0.638
510.03	0.641
510.23	0.642
510.43	0.643
510.63	0.643
510.83	0.643
511.03	0.645
511.23	0.642
511.43	0.642
511.63	0.643
511.83	0.645
512.03	0.645
512.22	0.642
512.42	0.641
512.62	0.642
512.82	0.641
513.02	0.640
513.22	0.640
513.42	0.642
513.62	0.645
513.82	0.643
514.02	0.642
514.22	0.644
514.42	0.644
514.62	0.644
514.82	0.644
515.02	0.647
515.22	0.650
515.42	0.649
515.62	0.651
515.82	0.650
516.02	0.651
516.22	0.652
516.42	0.653
516.62	0.654
516.82	0.655
517.01	0.654
517.21	0.653
517.41	0.656
517.61	0.656
517.81	0.652
518.01	0.651
518.21	0.651
518.41	0.650
518.61	0.648
518.81	0.649
519.01	0.650
519.21	0.650
519.41	0.649
519.61	0.643
519.81	0.646
520.00	0.647
520.20	0.647
520.40	0.649
520.60	0.650
520.80	0.649
521.00	0.650
521.20	0.651
521.40	0.655
521.60	0.656
521.80	0.655
522.00	0.655
522.20	0.658
522.39	0.657
522.59	0.654
522.79	0.656
522.99	0.658
523.19	0.656
523.39	0.654
523.59	0.652
523.79	0.655
523.99	0.657
524.19	0.656
524.38	0.655
524.58	0.657
524.78	0.657
524.98	0.655
525.18	0.657
525.38	0.658
525.58	0.659
525.78	0.657
525.98	0.655
526.18	0.655
526.37	0.654
526.57	0.656
526.77	0.656
526.97	0.656
527.17	0.657
527.37	0.653
527.57	0.655
527.77	0.657
527.96	0.657
528.16	0.656
528.36	0.656
528.56	0.659
528.76	0.656
528.96	0.655
529.16	0.656
529.36	0.659
529.55	0.659
529.75	0.656
529.95	0.656
530.15	0.658
530.35	0.660
530.55	0.658
530.75	0.659
530.94	0.661
531.14	0.662
531.34	0.661
531.54	0.658
531.74	0.662
531.94	0.665
532.13	0.663
532.33	0.664
532.53	0.663
532.73	0.662
532.93	0.660
533.13	0.660
533.33	0.660
533.52	0.660
533.72	0.663
533.92	0.662
534.12	0.660
534.32	0.660
534.52	0.659
534.71	0.661
534.91	0.664
535.11	0.666
535.31	0.664
535.51	0.667
535.71	0.668
535.90	0.665
536.10	0.666
536.30	0.667
536.50	0.668
536.70	0.668
536.89	0.665
537.09	0.665
537.29	0.666
537.49	0.667
537.69	0.664
537.89	0.665
538.08	0.665
538.28	0.663
538.48	0.664
538.68	0.665
538.88	0.667
539.07	0.668
539.27	0.666
539.47	0.665
539.67	0.666
539.87	0.667
540.06	0.665
540.26	0.666
540.46	0.667
540.66	0.664
540.86	0.663
541.05	0.663
541.25	0.665
541.45	0.665
541.65	0.663
541.84	0.665
542.04	0.666
542.24	0.667
542.44	0.666
542.64	0.667
542.83	0.670
543.03	0.670
543.23	0.667
543.43	0.668
543.62	0.669
543.82	0.670
544.02	0.668
544.22	0.668
544.42	0.672
544.61	0.672
544.81	0.669
545.01	0.668
545.21	0.671
545.40	0.671
545.60	0.669
545.80	0.672
546.00	0.672
546.19	0.671
546.39	0.670
546.59	0.668
546.79	0.669
546.98	0.670
547.18	0.669
547.38	0.670
547.58	0.672
547.77	0.673
547.97	0.669
548.17	0.670
548.37	0.671
548.56	0.670
548.76	0.670
548.96	0.671
549.16	0.674
549.35	0.674
549.55	0.671
549.75	0.672
549.95	0.675
550.14	0.675
550.34	0.674
550.54	0.679
550.73	0.683
550.93	0.683
551.13	0.680
551.33	0.678
551.52	0.679
551.72	0.679
551.92	0.677
552.12	0.678
552.31	0.678
552.51	0.678
552.71	0.673
552.90	0.674
553.10	0.674
553.30	0.675
553.50	0.674
553.69	0.675
553.89	0.675
554.09	0.676
554.28	0.672
554.48	0.674
554.68	0.677
554.87	0.677
555.07	0.673
555.27	0.673
555.47	0.674
555.66	0.675
555.86	0.674
556.06	0.676
556.25	0.676
556.45	0.684
556.65	0.682
556.84	0.685
557.04	0.688
557.24	0.690
557.43	0.690
557.63	0.694
557.83	0.696
558.02	0.697
558.22	0.701
558.42	0.702
558.61	0.694
558.81	0.694
559.01	0.690
559.21	0.691
559.40	0.692
559.60	0.692
559.80	0.686
559.99	0.687
560.19	0.689
560.39	0.683
560.58	0.680
560.78	0.681
560.97	0.684
561.17	0.683
561.37	0.681
561.56	0.681
561.76	0.683
561.96	0.684
562.15	0.681
562.35	0.683
562.55	0.686
562.74	0.686
562.94	0.684
563.14	0.682
563.33	0.683
563.53	0.683
563.73	0.680
563.92	0.681
564.12	0.683
564.31	0.686
564.51	0.683
564.71	0.684
564.90	0.687
565.10	0.689
565.30	0.692
565.49	0.692
565.69	0.695
565.89	0.696
566.08	0.693
566.28	0.695
566.47	0.697
566.67	0.695
566.87	0.693
567.06	0.694
567.26	0.700
567.46	0.696
567.65	0.695
567.85	0.696
568.04	0.699
568.24	0.698
568.44	0.695
568.63	0.693
568.83	0.695
569.02	0.694
569.22	0.690
569.42	0.686
569.61	0.688
569.81	0.687
570.00	0.685
570.20	0.686
570.40	0.688
570.59	0.687
570.79	0.685
570.98	0.683
571.18	0.684
571.38	0.683
571.57	0.680
571.77	0.678
571.96	0.682
572.16	0.679
572.35	0.673
572.55	0.674
572.75	0.672
572.94	0.672
573.14	0.671
573.33	0.672
573.53	0.672
573.73	0.672
573.92	0.670
574.12	0.667
574.31	0.670
574.51	0.671
574.70	0.668
574.90	0.670
575.09	0.672
575.29	0.672
575.49	0.670
575.68	0.671
575.88	0.672
576.07	0.673
576.27	0.671
576.46	0.670
576.66	0.669
576.86	0.669
577.05	0.666
577.25	0.664
577.44	0.666
577.64	0.666
577.83	0.663
578.03	0.665
578.22	0.664
578.42	0.664
578.61	0.662
578.81	0.663
579.00	0.663
579.20	0.663
579.40	0.662
579.59	0.661
579.79	0.661
579.98	0.661
580.18	0.660
580.37	0.660
580.57	0.663
580.76	0.667
580.96	0.665
581.15	0.666
581.35	0.668
581.54	0.668
581.74	0.667
581.93	0.669
582.13	0.670
582.32	0.667
582.52	0.665
582.71	0.665
582.91	0.661
583.10	0.660
583.30	0.659
583.49	0.658
583.69	0.661
583.88	0.663
584.08	0.661
584.27	0.663
584.47	0.666
584.66	0.667
584.86	0.666
585.05	0.668
585.25	0.670
585.44	0.670
585.64	0.668
585.83	0.665
586.03	0.666
586.22	0.664
586.42	0.660
586.61	0.662
586.81	0.664
587.00	0.663
587.20	0.661
587.39	0.662
587.59	0.664
587.78	0.665
587.98	0.666
588.17	0.666
588.37	0.669
588.56	0.671
588.76	0.667
588.95	0.667
589.15	0.672
589.34	0.674
589.54	0.672
589.73	0.673
589.92	0.676
590.12	0.676
590.31	0.674
590.51	0.679
590.70	0.681
590.90	0.682
591.09	0.680
591.29	0.678
591.48	0.678
591.68	0.678
591.87	0.677
592.06	0.676
592.26	0.679
592.45	0.679
592.65	0.671
592.84	0.670
593.04	0.673
593.23	0.675
593.43	0.672
593.62	0.672
593.81	0.672
594.01	0.672
594.20	0.669
594.40	0.667
594.59	0.669
594.79	0.671
594.98	0.671
595.17	0.670
595.37	0.671
595.56	0.673
595.76	0.673
595.95	0.674
596.14	0.678
596.34	0.679
596.53	0.678
596.73	0.680
596.92	0.681
597.12	0.683
597.31	0.683
597.50	0.682
597.70	0.684
597.89	0.683
598.09	0.680
598.28	0.680
598.47	0.683
598.67	0.682
598.86	0.678
599.06	0.680
599.25	0.679
599.44	0.677
599.64	0.675
599.83	0.672
600.03	0.675
600.22	0.675
600.41	0.675
600.61	0.672
600.80	0.675
601.00	0.675
601.19	0.670
601.38	0.669
601.58	0.672
601.77	0.673
601.96	0.675
602.16	0.675
602.35	0.684
602.55	0.682
602.74	0.684
602.93	0.685
603.13	0.691
603.32	0.692
603.51	0.692
603.71	0.695
603.90	0.697
604.09	0.697
604.29	0.694
604.48	0.689
604.68	0.690
604.87	0.688
605.06	0.684
605.26	0.681
605.45	0.681
605.64	0.680
605.84	0.675
606.03	0.675
606.22	0.674
606.42	0.673
606.61	0.670
606.80	0.671
607.00	0.672
607.19	0.673
607.38	0.671
607.58	0.672
607.77	0.675
607.96	0.675
608.16	0.673
608.35	0.678
608.54	0.681
608.74	0.683
608.93	0.688
609.12	0.691
609.32	0.694
609.51	0.699
609.70	0.698
609.90	0.699
610.09	0.704
610.28	0.709
610.48	0.702
610.67	0.704
610.86	0.704
611.06	0.699
611.25	0.696
611.44	0.696
611.64	0.696
611.83	0.698
612.02	0.695
612.21	0.694
612.41	0.692
612.60	0.692
612.79	0.688
612.99	0.689
613.18	0.690
613.37	0.688
613.57	0.685
613.76	0.687
613.95	0.684
614.14	0.684
614.34	0.681
614.53	0.682
614.72	0.685
614.92	0.684
615.11	0.681
615.30	0.677
615.49	0.679
615.69	0.681
615.88	0.678
616.07	0.679
616.26	0.681
616.46	0.683
616.65	0.680
616.84	0.678
617.04	0.680
617.23	0.684
617.42	0.685
617.61	0.689
617.81	0.690
618.00	0.691
618.19	0.690
618.38	0.693
618.58	0.696
618.77	0.697
618.96	0.697
619.15	0.699
619.35	0.700
619.54	0.701
619.73	0.697
619.92	0.699
620.12	0.703
620.31	0.704
620.50	0.698
620.69	0.699
620.89	0.702
621.08	0.702
621.27	0.703
621.46	0.702
621.66	0.706
621.85	0.705
622.04	0.702
622.23	0.703
622.43	0.703
622.62	0.703
622.81	0.702
623.00	0.702
623.19	0.705
623.39	0.703
623.58	0.700
623.77	0.699
623.96	0.702
624.16	0.702
624.35	0.696
624.54	0.699
624.73	0.703
624.92	0.701
625.12	0.699
625.31	0.700
625.50	0.703
625.69	0.704
625.88	0.700
626.08	0.700
626.27	0.701
626.46	0.702
626.65	0.699
626.84	0.699
627.04	0.703
627.23	0.703
627.42	0.698
627.61	0.700
627.80	0.702
628.00	0.702
628.19	0.700
628.38	0.705
628.57	0.708
628.76	0.706
628.96	0.703
629.15	0.703
629.34	0.707
629.53	0.707
629.72	0.702
629.91	0.703
630.11	0.708
630.30	0.708
630.49	0.709
630.68	0.709
630.87	0.713
631.06	0.715
631.26	0.711
631.45	0.712
631.64	0.721
631.83	0.722
632.02	0.719
632.21	0.718
632.41	0.724
632.60	0.719
632.79	0.718
632.98	0.718
633.17	0.718
633.36	0.719
633.55	0.716
633.75	0.712
633.94	0.713
634.13	0.714
634.32	0.712
634.51	0.707
634.70	0.709
634.89	0.708
635.09	0.704
635.28	0.705
635.47	0.706
635.66	0.709
635.85	0.704
636.04	0.706
636.23	0.710
636.43	0.711
636.62	0.710
636.81	0.709
637.00	0.712
637.19	0.716
637.38	0.713
637.57	0.713
637.76	0.714
637.95	0.716
638.15	0.713
638.34	0.709
638.53	0.712
638.72	0.714
638.91	0.711
639.10	0.708
639.29	0.708
639.48	0.708
639.67	0.709
639.87	0.708
640.06	0.712
640.25	0.712
640.44	0.713
640.63	0.714
640.82	0.716
641.01	0.715
641.20	0.714
641.39	0.717
641.58	0.719
641.78	0.719
641.97	0.715
642.16	0.729
642.35	0.730
642.54	0.729
642.73	0.722
642.92	0.722
643.11	0.725
643.30	0.726
643.49	0.721
643.68	0.723
643.87	0.723
644.06	0.722
644.25	0.703
644.45	0.705
644.64	0.707
644.83	0.707
645.02	0.704
645.21	0.704
645.40	0.706
645.59	0.705
645.78	0.700
645.97	0.703
646.16	0.704
646.35	0.703
646.54	0.701
646.73	0.702
646.92	0.704
647.11	0.702
647.30	0.697
647.49	0.699
647.68	0.699
647.88	0.697
648.07	0.691
648.26	0.694
648.45	0.697
648.64	0.693
648.83	0.691
649.02	0.694
649.21	0.705
649.40	0.703
649.59	0.698
649.78	0.699
649.97	0.714
650.16	0.713
650.35	0.708
650.54	0.710
650.73	0.717
650.92	0.714
651.11	0.706
651.30	0.704
651.49	0.709
651.68	0.711
651.87	0.707
652.06	0.696
652.25	0.700
652.44	0.702
652.63	0.701
652.82	0.701
653.01	0.702
653.20	0.700
653.39	0.688
653.58	0.686
653.77	0.686
653.96	0.681
654.15	0.673
654.34	0.671
654.53	0.666
654.72	0.660
654.91	0.651
655.10	0.647
655.29	0.645
655.48	0.643
655.67	0.638
655.86	0.635
656.05	0.633
656.24	0.633
656.43	0.628
656.62	0.627
656.81	0.627
657.00	0.624
657.19	0.621
657.38	0.620
657.57	0.619
657.76	0.621
657.95	0.618
658.14	0.622
658.33	0.625
658.51	0.630
658.70	0.630
658.89	0.632
659.08	0.642
659.27	0.649
659.46	0.649
659.65	0.657
659.84	0.661
660.03	0.664
660.22	0.665
660.41	0.669
660.60	0.668
660.79	0.670
660.98	0.675
661.17	0.674
661.36	0.674
661.55	0.674
661.74	0.671
661.92	0.674
662.11	0.675
662.30	0.673
662.49	0.667
662.68	0.667
662.87	0.670
663.06	0.664
663.25	0.665
663.44	0.664
663.63	0.665
663.82	0.665
664.01	0.659
664.20	0.659
664.38	0.660
664.57	0.661
664.76	0.660
664.95	0.661
665.14	0.666
665.33	0.661
665.52	0.668
665.71	0.673
665.90	0.672
666.09	0.673
666.28	0.671
666.46	0.670
666.65	0.671
666.84	0.669
667.03	0.663
667.22	0.661
667.41	0.664
667.60	0.654
667.79	0.647
667.98	0.649
668.16	0.651
668.35	0.650
668.54	0.646
668.73	0.647
668.92	0.648
669.11	0.647
669.30	0.641
669.49	0.637
669.67	0.639
669.86	0.641
670.05	0.638
670.24	0.635
670.43	0.632
670.62	0.632
670.81	0.627
671.00	0.628
671.18	0.628
671.37	0.627
671.56	0.626
671.75	0.625
671.94	0.621
672.13	0.619
672.32	0.615
672.50	0.614
672.69	0.614
672.88	0.615
673.07	0.610
673.26	0.612
673.45	0.613
673.63	0.612
673.82	0.608
674.01	0.609
674.20	0.608
674.39	0.608
674.58	0.608
674.76	0.608
674.95	0.606
675.14	0.607
675.33	0.602
675.52	0.601
675.71	0.601
675.89	0.600
676.08	0.597
676.27	0.597
676.46	0.598
676.65	0.597
676.84	0.597
677.02	0.598
677.21	0.600
677.40	0.599
677.59	0.597
677.78	0.599
677.96	0.601
678.15	0.600
678.34	0.598
678.53	0.599
678.72	0.599
678.90	0.595
679.09	0.591
679.28	0.588
679.47	0.588
679.66	0.587
679.84	0.584
680.03	0.582
680.22	0.581
680.41	0.582
680.60	0.579
680.78	0.578
680.97	0.581
681.16	0.581
681.35	0.580
681.53	0.579
681.72	0.580
681.91	0.582
682.10	0.580
682.29	0.582
682.47	0.580
682.66	0.580
682.85	0.579
683.04	0.577
683.22	0.577
683.41	0.578
683.60	0.577
683.79	0.578
683.97	0.578
684.16	0.576
684.35	0.572
684.54	0.573
684.72	0.573
684.91	0.573
685.10	0.572
685.29	0.573
685.47	0.571
685.66	0.569
685.85	0.566
686.04	0.565
686.22	0.568
686.41	0.571
686.60	0.568
686.79	0.571
686.97	0.572
687.16	0.573
687.35	0.570
687.54	0.573
687.72	0.577
687.91	0.577
688.10	0.579
688.29	0.578
688.47	0.577
688.66	0.577
688.85	0.573
689.03	0.571
689.22	0.575
689.41	0.576
689.60	0.571
689.78	0.569
689.97	0.569
690.16	0.566
690.34	0.563
690.53	0.562
690.72	0.562
690.91	0.560
691.09	0.557
691.28	0.552
691.47	0.551
691.65	0.549
691.84	0.546
692.03	0.545
692.21	0.543
692.40	0.543
692.59	0.540
692.77	0.539
692.96	0.541
693.15	0.541
693.34	0.538
693.52	0.538
693.71	0.539
693.90	0.541
694.08	0.542
694.27	0.543
694.46	0.553
694.64	0.554
694.83	0.553
695.02	0.552
695.20	0.551
695.39	0.551
695.58	0.551
695.76	0.552
695.95	0.550
696.14	0.549
696.32	0.547
696.51	0.537
696.70	0.537
696.88	0.538
697.07	0.537
697.26	0.538
697.44	0.539
697.63	0.538
697.81	0.536
698.00	0.536
698.19	0.536
698.37	0.536
698.56	0.535
698.75	0.535
698.93	0.534
699.12	0.534
699.31	0.533
699.49	0.532
699.68	0.534
699.87	0.536
700.05	0.536
700.24	0.535
700.42	0.537
700.61	0.536
700.80	0.535
700.98	0.535
701.17	0.536
701.36	0.535
701.54	0.534
701.73	0.535
701.91	0.532
702.10	0.532
702.29	0.529
702.47	0.528
702.66	0.530
702.84	0.531
703.03	0.529
703.22	0.531
703.40	0.531
703.59	0.533
703.77	0.532
703.96	0.532
704.15	0.532
704.33	0.533
704.52	0.532
704.70	0.531
704.89	0.532
705.08	0.531
705.26	0.526
705.45	0.526
705.63	0.526
705.82	0.524
706.00	0.522
706.19	0.522
706.38	0.522
706.56	0.521
706.75	0.519
706.93	0.518
707.12	0.519
707.30	0.520
707.49	0.517
707.68	0.515
707.86	0.514
708.05	0.514
708.23	0.511
708.42	0.512
708.60	0.515
708.79	0.515
708.98	0.513
709.16	0.512
709.35	0.514
709.53	0.518
709.72	0.517
709.90	0.519
710.09	0.521
710.27	0.523
710.46	0.527
710.64	0.525
710.83	0.527
711.02	0.528
711.20	0.527
711.39	0.525
711.57	0.523
711.76	0.524
711.94	0.521
712.13	0.522
712.31	0.522
712.50	0.517
712.68	0.515
712.87	0.516
713.05	0.516
713.24	0.517
713.42	0.516
713.61	0.516
713.79	0.517
713.98	0.517
714.16	0.518
714.35	0.518
714.54	0.519
714.72	0.519
714.91	0.517
715.09	0.523
715.28	0.526
715.46	0.526
715.65	0.524
715.83	0.523
716.02	0.525
716.20	0.522
716.39	0.521
716.57	0.522
716.76	0.524
716.94	0.524
717.12	0.516
717.31	0.517
717.49	0.520
717.68	0.522
717.86	0.521
718.05	0.523
718.23	0.525
718.42	0.527
718.60	0.528
718.79	0.535
718.97	0.538
719.16	0.538
719.34	0.536
719.53	0.535
719.71	0.535
719.90	0.536
720.08	0.533
720.27	0.534
720.45	0.534
720.63	0.533
720.82	0.527
721.00	0.530
721.19	0.533
721.37	0.533
721.56	0.534
721.74	0.537
721.93	0.546
722.11	0.554
722.30	0.552
722.48	0.557
722.66	0.558
722.85	0.559
723.03	0.559
723.22	0.557
723.40	0.560
723.59	0.561
723.77	0.563
723.95	0.557
724.14	0.557
724.32	0.560
724.51	0.558
724.69	0.560
724.88	0.559
725.06	0.557
725.24	0.558
725.43	0.559
725.61	0.561
725.80	0.556
725.98	0.553
726.16	0.550
726.35	0.555
726.53	0.555
726.72	0.553
726.90	0.564
727.09	0.564
727.27	0.570
727.45	0.567
727.64	0.576
727.82	0.583
728.01	0.588
728.19	0.586
728.37	0.591
728.56	0.595
728.74	0.601
728.92	0.590
729.11	0.592
729.29	0.590
729.48	0.593
729.66	0.583
729.84	0.582
730.03	0.585
730.21	0.588
730.40	0.579
730.58	0.580
730.76	0.581
730.95	0.583
731.13	0.583
731.31	0.596
731.50	0.604
731.68	0.607
731.86	0.603
732.05	0.617
732.23	0.620
732.42	0.622
732.60	0.625
732.78	0.629
732.97	0.647
733.15	0.654
733.33	0.642
733.52	0.651
733.70	0.662
733.88	0.670
734.07	0.655
734.25	0.679
734.43	0.688
734.62	0.690
734.80	0.686
734.98	0.675
735.17	0.682
735.35	0.686
735.53	0.675
735.72	0.679
735.90	0.699
736.08	0.719
736.27	0.698
736.45	0.708
736.63	0.721
736.82	0.729
737.00	0.730
737.18	0.740
737.37	0.772
737.55	0.795
737.73	0.787
737.92	0.791
738.10	0.785
738.28	0.801
738.46	0.789
738.65	0.798
738.83	0.816
739.01	0.866
739.20	0.856
739.38	0.838
739.56	0.828
739.75	0.835
739.93	0.801
740.11	0.825
740.29	0.828
740.48	0.836
740.66	0.818
740.84	0.816
741.03	0.782
741.21	0.793
741.39	0.776
741.57	0.790
741.76	0.805
741.94	0.814
742.12	0.784
742.31	0.786
742.49	0.804
742.67	0.825
742.85	0.838
743.04	0.842
743.22	0.852
743.40	0.901
743.58	0.881
743.77	0.896
743.95	0.926
744.13	0.974
744.31	0.959
744.50	0.953
744.68	0.953
744.86	0.924
745.04	0.932
745.23	0.991
745.41	0.975
745.59	0.981
745.77	0.945
745.96	0.936
746.14	0.941
746.32	0.936
746.50	0.924
746.69	0.909
746.87	0.921
747.05	0.906
747.23	0.836
747.42	0.821
747.60	0.847
747.78	0.855
747.96	0.878
748.14	0.840
748.33	0.868
748.51	0.864
748.69	0.858
748.87	0.886
749.06	0.888
749.24	0.887
749.42	0.874
749.60	0.856
749.78	0.859
749.97	0.817
750.15	0.808
750.33	0.808
750.51	0.830
750.69	0.837
750.88	0.838
751.06	0.847
751.24	0.874
751.42	0.867
751.60	0.856
751.79	0.923
751.97	0.965
752.15	0.965
752.33	0.938
752.51	0.996
752.69	1.000
752.88	0.968
753.06	1.005
753.24	0.983
753.42	1.014
753.60	1.168
753.78	1.045
753.97	1.062
754.15	1.083
754.33	1.105
754.51	0.997
754.69	0.991
754.87	1.025
755.06	0.958
755.24	0.956
755.42	0.966
755.60	0.869
755.78	0.874
755.96	0.822
756.15	0.823
756.33	0.827
756.51	0.843
756.69	0.828
756.87	0.797
757.05	0.817
757.23	0.804
757.42	0.776
757.60	0.776
757.78	0.767
757.96	0.766
758.14	0.748
758.32	0.734
758.50	0.745
758.69	0.744
758.87	0.734
759.05	0.735
759.23	0.743
759.41	0.742
759.59	0.734
759.77	0.754
759.95	0.778
760.13	0.825
760.32	0.827
760.50	0.826
760.68	0.847
760.86	0.848
761.04	0.821
761.22	0.827
761.40	0.871
761.58	0.873
761.76	0.847
761.95	0.832
762.13	0.790
762.31	0.790
762.49	0.760
762.67	0.777
762.85	0.790
763.03	0.785
763.21	0.767
763.39	0.750
763.57	0.754
763.75	0.749
763.94	0.736
764.12	0.739
764.30	0.759
764.48	0.762
764.66	0.731
764.84	0.731
765.02	0.767
765.20	0.773
765.38	0.753
765.56	0.762
765.74	0.801
765.92	0.800
766.10	0.806
766.28	0.802
766.46	0.829
766.65	0.825
766.83	0.811
767.01	0.798
767.19	0.805
767.37	0.804
767.55	0.785
767.73	0.762
767.91	0.766
768.09	0.752
768.27	0.740
768.45	0.731
768.63	0.740
768.81	0.741
768.99	0.718
769.17	0.741
769.35	0.755
769.53	0.754
769.71	0.738
769.89	0.748
770.07	0.754
770.25	0.737
770.43	0.717
770.61	0.736
770.79	0.744
770.97	0.752
771.15	0.721
771.33	0.724
771.51	0.725
771.69	0.737
771.87	0.744
772.05	0.749
772.24	0.759
772.42	0.768
772.60	0.749
772.78	0.802
772.96	0.828
773.14	0.826
773.32	0.801
773.49	0.812
773.67	0.808
773.85	0.785
774.03	0.776
774.21	0.807
774.39	0.816
774.57	0.836
774.75	0.770
774.93	0.764
775.11	0.784
775.29	0.794
775.47	0.792
775.65	0.800
775.83	0.815
776.01	0.833
776.19	0.787
776.37	0.788
776.55	0.787
776.73	0.786
776.91	0.782
777.09	0.765
777.27	0.763
777.45	0.753
777.63	0.735
777.81	0.734
777.99	0.723
778.17	0.726
778.35	0.706
778.53	0.696
778.71	0.700
778.89	0.688
779.07	0.678
779.24	0.682
779.42	0.685
779.60	0.702
779.78	0.699
779.96	0.703
780.14	0.709
780.32	0.729
780.50	0.711
780.68	0.710
780.86	0.704
781.04	0.722
781.22	0.727
781.40	0.736
781.58	0.727
781.75	0.720
781.93	0.702
782.11	0.703
782.29	0.690
782.47	0.690
782.65	0.679
782.83	0.704
783.01	0.697
783.19	0.691
783.37	0.678
783.55	0.680
783.72	0.697
783.90	0.709
784.08	0.701
784.26	0.714
784.44	0.736
784.62	0.739
784.80	0.708
784.98	0.713
785.16	0.716
785.33	0.730
785.51	0.717
785.69	0.702
785.87	0.701
786.05	0.713
786.23	0.708
786.41	0.705
786.59	0.712
786.77	0.712
786.94	0.702
787.12	0.706
787.30	0.708
787.48	0.707
787.66	0.696
787.84	0.696
788.02	0.684
788.19	0.682
788.37	0.667
788.55	0.667
788.73	0.667
788.91	0.662
789.09	0.648
789.27	0.636
789.44	0.646
789.62	0.652
789.80	0.662
789.98	0.688
790.16	0.675
790.34	0.673
790.51	0.660
790.69	0.678
790.87	0.682
791.05	0.678
791.23	0.673
791.41	0.674
791.58	0.681
791.76	0.661
791.94	0.631
792.12	0.640
792.30	0.641
792.48	0.639
792.65	0.634
792.83	0.641
793.01	0.648
793.19	0.646
793.37	0.632
793.54	0.628
793.72	0.639
793.90	0.637
794.08	0.625
794.26	0.627
794.43	0.636
794.61	0.621
794.79	0.609
794.97	0.608
795.15	0.613
795.32	0.618
795.50	0.608
795.68	0.601
795.86	0.606
796.04	0.609
796.21	0.604
796.39	0.601
796.57	0.614
796.75	0.623
796.92	0.624
797.10	0.628
797.28	0.631
797.46	0.633
797.64	0.636
797.81	0.644
797.99	0.648
798.17	0.652
798.35	0.649
798.52	0.651
798.70	0.646
798.88	0.655
799.06	0.652
799.23	0.652
799.41	0.659
799.59	0.652
799.77	0.640
799.94	0.646
800.12	0.654
800.30	0.670
800.48	0.667
800.65	0.667
800.83	0.657
801.01	0.650
801.19	0.652
801.36	0.650
801.54	0.652
801.72	0.661
801.90	0.648
802.07	0.646
802.25	0.631
802.43	0.617
802.60	0.614
802.78	0.620
802.96	0.626
803.14	0.620
803.31	0.617
803.49	0.618
803.67	0.614
803.84	0.618
804.02	0.610
804.20	0.613
804.38	0.618
804.55	0.617
804.73	0.604
804.91	0.604
805.08	0.615
805.26	0.612
805.44	0.675
805.61	0.679
805.79	0.679
805.97	0.678
806.15	0.670
806.32	0.665
806.50	0.671
806.68	0.671
806.85	0.661
807.03	0.653
807.21	0.670
807.38	0.605
807.56	0.595
807.74	0.605
807.91	0.611
808.09	0.614
808.27	0.632
808.44	0.656
808.62	0.666
808.80	0.668
808.97	0.664
809.15	0.657
809.33	0.674
809.50	0.682
809.68	0.668
809.86	0.675
810.03	0.705
810.21	0.684
810.39	0.667
810.56	0.672
810.74	0.696
810.91	0.766
811.09	0.755
811.27	0.772
811.44	0.777
811.62	0.778
811.80	0.763
811.97	0.735
812.15	0.735
812.33	0.729
812.50	0.714
812.68	0.702
812.85	0.647
813.03	0.652
813.21	0.622
813.38	0.617
813.56	0.619
813.74	0.629
813.91	0.636
814.09	0.664
814.26	0.656
814.44	0.661
814.62	0.650
814.79	0.654
814.97	0.657
815.14	0.660
815.32	0.663
815.50	0.680
815.67	0.681
815.85	0.671
816.02	0.661
816.20	0.670
816.38	0.685
816.55	0.690
816.73	0.690
816.90	0.701
817.08	0.731
817.26	0.735
817.43	0.716
817.61	0.740
817.78	0.760
817.96	0.742
818.13	0.732
818.31	0.731
818.49	0.745
818.66	0.735
818.84	0.722
819.01	0.702
819.19	0.709
819.36	0.709
819.54	0.679
819.71	0.720
819.89	0.731
820.07	0.742
820.24	0.737
820.42	0.735
820.59	0.754
820.77	0.774
820.94	0.766
821.12	0.784
821.29	0.801
821.47	0.805
821.64	0.745
821.82	0.756
822.00	0.754
822.17	0.749
822.35	0.742
822.52	0.744
822.70	0.732
822.87	0.740
823.05	0.719
823.22	0.727
823.40	0.749
823.57	0.767
823.75	0.750
823.92	0.775
824.10	0.792
824.27	0.831
824.45	0.820
824.62	0.878
824.80	0.896
824.97	0.909
825.15	0.902
825.32	0.919
825.50	0.918
825.67	0.931
825.85	0.903
826.02	0.925
826.20	0.942
826.37	1.057
826.55	0.984
826.72	1.148
826.90	1.205
827.07	1.250
827.25	1.186
827.42	1.334
827.60	1.451
827.77	1.613
827.95	1.575
828.12	1.646
828.30	1.349
828.47	1.461
828.65	1.151
828.82	1.209
829.00	1.255
829.17	1.338
829.34	1.334
829.52	1.377
829.69	-0.000
829.87	-0.000
830.04	-0.000
830.22	-0.000
830.39	-0.000
830.57	-0.000
830.74	-0.000
830.92	-0.000
831.09	-0.000
831.26	-0.000
831.44	-0.000
831.61	-0.000
831.79	-0.000
831.96	-0.000
832.14	-0.000
832.31	-0.000
832.49	-0.000
832.66	-0.000
832.83	-0.000
833.01	-0.000
833.18	-0.000
833.36	-0.000
833.53	-0.000
833.70	-0.000
833.88	-0.000
834.05	-0.000
834.23	-0.000
834.40	-0.000
834.58	-0.000
834.75	-0.000
834.92	-0.000
835.10	-0.000
835.27	-0.000
835.45	-0.000
835.62	-0.000
835.79	-0.000
835.97	-0.000
836.14	-0.000
836.32	-0.000
836.49	-0.000
836.66	-0.000
836.84	-0.000
837.01	-0.000
837.18	-0.000
837.36	-0.000
837.53	-0.000
837.71	-0.000
837.88	-0.000
838.05	-0.000
838.23	-0.000
838.40	-0.000
838.58	-0.000
838.75	-0.000
838.92	-0.000
839.10	-0.000
839.27	-0.000
839.44	-0.000
839.62	-0.000
839.79	-0.000
839.96	-0.000
840.14	-0.000
840.31	-0.000
840.48	-0.000
840.66	-0.000
840.83	-0.000
841.01	-0.000
841.18	-0.000
841.35	-0.000
841.53	-0.000
841.70	-0.000
841.87	-0.000
842.05	-0.000
842.22	-0.000
842.39	-0.000
842.57	-0.000
842.74	-0.000
842.91	-0.000
843.09	-0.000
843.26	-0.000
843.43	-0.000
843.60	-0.000
843.78	-0.000
843.95	-0.000
844.12	-0.000
844.30	-0.000
844.47	-0.000
844.64	-0.000
844.82	-0.000
844.99	-0.000
845.16	-0.000
845.34	-0.000
845.51	-0.000
845.68	-0.000
845.85	-0.000
846.03	-0.000
846.20	-0.000
846.37	-0.000
846.55	-0.000
846.72	-0.000
846.89	-0.000
847.06	-0.000
847.24	-0.000
847.41	-0.000
847.58	-0.000
847.76	-0.000
847.93	-0.000
848.10	-0.000
848.27	-0.000
848.45	-0.000
848.62	-0.000
848.79	-0.000
848.97	-0.000
849.14	-0.000
849.31	-0.000
849.48	-0.000
849.66	-0.000
849.83	-0.000
850.00	-0.000
850.17	-0.000
850.35	-0.000
850.52	-0.000
850.69	-0.000
850.86	-0.000
851.04	-0.000
851.21	-0.000
851.38	-0.000
851.55	-0.000
851.72	-0.000
851.90	-0.000
852.07	-0.000
852.24	-0.000
852.41	-0.000
852.59	-0.000
852.76	-0.000
852.93	-0.000
853.10	-0.000
853.28	-0.000
853.45	-0.000
853.62	-0.000
853.79	-0.000
853.96	-0.000
854.14	-0.000
854.31	-0.000
854.48	-0.000
854.65	-0.000
854.82	-0.000
855.00	-0.000
855.17	-0.000
855.34	-0.000
855.51	-0.000
855.68	-0.000
855.86	-0.000
856.03	-0.000
856.20	-0.000
856.37	-0.000
856.54	-0.000
856.72	-0.000
856.89	-0.000
857.06	-0.000
857.23	-0.000
857.40	-0.000
857.57	-0.000
857.75	-0.000
857.92	-0.000
858.09	-0.000
858.26	-0.000
858.43	-0.000
858.60	-0.000
858.78	-0.000
858.95	-0.000
859.12	-0.000
859.29	-0.000
859.46	-0.000
859.63	-0.000
859.81	-0.000
859.98	-0.000
860.15	-0.000
860.32	-0.000
860.49	-0.000
860.66	-0.000
860.83	-0.000
861.01	-0.000
861.18	-0.000
861.35	-0.000
861.52	-0.000
861.69	-0.000
861.86	-0.000
862.03	-0.000
862.21	-0.000
862.38	-0.000
862.55	-0.000
862.72	-0.000
862.89	-0.000
863.06	-0.000
863.23	-0.000
863.40	-0.000
863.58	-0.000
863.75	-0.000
863.92	-0.000
864.09	-0.000
864.26	-0.000
864.43	-0.000
864.60	-0.000
864.77	-0.000
864.94	-0.000
865.11	-0.000
865.29	-0.000
865.46	-0.000
865.63	-0.000
865.80	-0.000
865.97	-0.000
866.14	-0.000
866.31	-0.000
866.48	-0.000
866.65	-0.000
866.82	-0.000
866.99	-0.000
867.16	-0.000
867.34	-0.000
867.51	-0.000
867.68	-0.000
867.85	-0.000
868.02	-0.000
868.19	-0.000
868.36	-0.000
868.53	-0.000
868.70	-0.000
868.87	-0.000
869.04	-0.000
869.21	-0.000
869.38	-0.000
869.55	-0.000
869.72	-0.000
869.89	-0.000
870.06	-0.000
870.24	-0.000
870.41	-0.000
870.58	-0.000
870.75	-0.000
870.92	-0.000
871.09	-0.000
871.26	-0.000
871.43	-0.000
871.60	-0.000
871.77	-0.000
871.94	-0.000
872.11	-0.000
872.28	-0.000
872.45	-0.000
872.62	-0.000
872.79	-0.000
872.96	-0.000
873.13	-0.000
873.30	-0.000
873.47	-0.000
873.64	-0.000
873.81	-0.000
873.98	-0.000
874.15	-0.000
874.32	-0.000
874.49	-0.000
874.66	-0.000
874.83	-0.000
875.00	-0.000
875.17	-0.000
875.34	-0.000
875.51	-0.000
875.68	-0.000
875.85	-0.000
876.02	-0.000
876.19	-0.000
876.36	-0.000
876.53	-0.000
876.70	-0.000
876.87	-0.000
877.04	-0.000
877.21	-0.000
877.38	-0.000
877.55	-0.000
877.72	-0.000
877.89	-0.000
878.06	-0.000
878.23	-0.000
878.39	-0.000
878.56	-0.000
878.73	-0.000
878.90	-0.000
879.07	-0.000
879.24	-0.000
879.41	-0.000
879.58	-0.000
879.75	-0.000
879.92	-0.000
880.09	-0.000
880.26	-0.000
880.43	-0.000
880.60	-0.000
880.77	-0.000
880.94	-0.000
881.11	-0.000
881.27	-0.000
881.44	-0.000
881.61	-0.000
881.78	-0.000
881.95	-0.000
882.12	-0.000
882.29	-0.000
882.46	-0.000
882.63	-0.000
882.80	-0.000
882.97	-0.000
883.14	-0.000
883.30	-0.000
883.47	-0.000
883.64	-0.000
883.81	-0.000
883.98	-0.000
884.15	-0.000
884.32	-0.000
884.49	-0.000
884.66	-0.000
884.82	-0.000
884.99	-0.000
885.16	-0.000
885.33	-0.000
885.50	-0.000
885.67	-0.000
885.84	-0.000
886.01	-0.000
886.17	-0.000
886.34	-0.000
886.51	-0.000
886.68	-0.000
886.85	-0.000
887.02	-0.000
887.19	-0.000
887.36	-0.000
887.52	-0.000
887.69	-0.000
887.86	-0.000
888.03	-0.000
888.20	-0.000
888.37	-0.000
888.54	-0.000
888.70	-0.000
888.87	-0.000
889.04	-0.000
889.21	-0.000
889.38	-0.000
889.55	-0.000
889.71	-0.000
889.88	-0.000
890.05	-0.000
890.22	-0.000
890.39	-0.000
>>>>>End Processed Spectral Data<<<<<
