SpectraSuite Data File
++++++++++++++++++++++++++++++++++++
Date: Fri Jun 19 13:35:21 CEST 2015
User: introlabs
Dark Spectrum Present: Yes
Reference Spectrum Present: Yes
Number of Sampled Component Spectra: 1
Spectrometers: USB4H08886
Integration Time (usec): 745692 (USB4H08886)
Spectra Averaged: 5 (USB4H08886)
Boxcar Smoothing: 5 (USB4H08886)
Correct for Electrical Dark: Yes (USB4H08886)
Strobe/Lamp Enabled: No (USB4H08886)
Correct for Detector Non-linearity: Yes (USB4H08886)
Correct for Stray Light: Yes (USB4H08886)
Number of Pixels in Processed Spectrum: 3648
>>>>>Begin Processed Spectral Data<<<<<
178.14	-0.000
178.36	-0.000
178.57	-0.000
178.79	-0.000
179.01	-0.000
179.22	-0.000
179.44	-0.000
179.65	-0.000
179.87	-0.000
180.08	-0.000
180.30	-0.000
180.52	-0.000
180.73	-0.000
180.95	-0.000
181.16	-0.000
181.38	-0.000
181.59	-0.000
181.81	-0.000
182.03	-0.000
182.24	-0.000
182.46	-0.000
182.67	-0.000
182.89	-0.000
183.10	-0.000
183.32	-0.000
183.54	-0.000
183.75	-0.000
183.97	-0.000
184.18	-0.000
184.40	-0.000
184.61	-0.000
184.83	-0.000
185.04	-0.000
185.26	-0.000
185.48	-0.000
185.69	-0.000
185.91	-0.000
186.12	-0.000
186.34	-0.000
186.55	-0.000
186.77	-0.000
186.98	-0.000
187.20	-0.000
187.42	-0.000
187.63	-0.000
187.85	-0.000
188.06	-0.000
188.28	-0.000
188.49	-0.000
188.71	-0.000
188.92	-0.000
189.14	-0.000
189.36	-0.000
189.57	-0.000
189.79	-0.000
190.00	-0.000
190.22	-0.000
190.43	-0.000
190.65	-0.000
190.86	-0.000
191.08	-0.000
191.29	-0.000
191.51	-0.000
191.72	-0.000
191.94	-0.000
192.16	-0.000
192.37	-0.000
192.59	-0.000
192.80	-0.000
193.02	-0.000
193.23	-0.000
193.45	-0.000
193.66	-0.000
193.88	-0.000
194.09	-0.000
194.31	-0.000
194.52	-0.000
194.74	-0.000
194.95	-0.000
195.17	-0.000
195.38	-0.000
195.60	-0.000
195.81	-0.000
196.03	-0.000
196.25	-0.000
196.46	-0.000
196.68	-0.000
196.89	-0.000
197.11	-0.000
197.32	-0.000
197.54	-0.000
197.75	-0.000
197.97	-0.000
198.18	-0.000
198.40	-0.000
198.61	-0.000
198.83	-0.000
199.04	-0.000
199.26	-0.000
199.47	-0.000
199.69	-0.000
199.90	-0.000
200.12	-0.000
200.33	-0.000
200.55	-0.000
200.76	-0.000
200.98	-0.000
201.19	-0.000
201.41	-0.000
201.62	-0.000
201.84	-0.000
202.05	-0.000
202.27	-0.000
202.48	-0.000
202.70	-0.000
202.91	-0.000
203.13	-0.000
203.34	-0.000
203.56	-0.000
203.77	-0.000
203.99	-0.000
204.20	-0.000
204.42	-0.000
204.63	-0.000
204.85	-0.000
205.06	-0.000
205.28	-0.000
205.49	-0.000
205.71	-0.000
205.92	-0.000
206.14	-0.000
206.35	-0.000
206.56	-0.000
206.78	-0.000
206.99	-0.000
207.21	-0.000
207.42	-0.000
207.64	-0.000
207.85	-0.000
208.07	-0.000
208.28	-0.000
208.50	-0.000
208.71	-0.000
208.93	-0.000
209.14	-0.000
209.36	-0.000
209.57	-0.000
209.79	-0.000
210.00	-0.000
210.22	-0.000
210.43	-0.000
210.64	-0.000
210.86	-0.000
211.07	-0.000
211.29	-0.000
211.50	-0.000
211.72	-0.000
211.93	-0.000
212.15	-0.000
212.36	-0.000
212.58	-0.000
212.79	-0.000
213.01	-0.000
213.22	-0.000
213.43	-0.000
213.65	-0.000
213.86	-0.000
214.08	-0.000
214.29	-0.000
214.51	-0.000
214.72	-0.000
214.94	-0.000
215.15	-0.000
215.36	-0.000
215.58	-0.000
215.79	-0.000
216.01	-0.000
216.22	-0.000
216.44	-0.000
216.65	-0.000
216.87	-0.000
217.08	-0.000
217.29	-0.000
217.51	-0.000
217.72	-0.000
217.94	-0.000
218.15	-0.000
218.37	-0.000
218.58	-0.000
218.80	-0.000
219.01	-0.000
219.22	-0.000
219.44	-0.000
219.65	-0.000
219.87	-0.000
220.08	-0.000
220.30	-0.000
220.51	-0.000
220.72	-0.000
220.94	-0.000
221.15	-0.000
221.37	-0.000
221.58	-0.000
221.79	-0.000
222.01	-0.000
222.22	-0.000
222.44	-0.000
222.65	-0.000
222.87	-0.000
223.08	-0.000
223.29	-0.000
223.51	-0.000
223.72	-0.000
223.94	-0.000
224.15	-0.000
224.36	-0.000
224.58	-0.000
224.79	-0.000
225.01	-0.000
225.22	-0.000
225.44	-0.000
225.65	-0.000
225.86	-0.000
226.08	-0.000
226.29	-0.000
226.51	-0.000
226.72	-0.000
226.93	-0.000
227.15	-0.000
227.36	-0.000
227.58	-0.000
227.79	-0.000
228.00	-0.000
228.22	-0.000
228.43	-0.000
228.65	-0.000
228.86	-0.000
229.07	-0.000
229.29	-0.000
229.50	-0.000
229.72	-0.000
229.93	-0.000
230.14	-0.000
230.36	-0.000
230.57	-0.000
230.78	-0.000
231.00	-0.000
231.21	-0.000
231.43	-0.000
231.64	-0.000
231.85	-0.000
232.07	-0.000
232.28	-0.000
232.50	-0.000
232.71	-0.000
232.92	-0.000
233.14	-0.000
233.35	-0.000
233.56	-0.000
233.78	-0.000
233.99	-0.000
234.21	-0.000
234.42	-0.000
234.63	-0.000
234.85	-0.000
235.06	-0.000
235.27	-0.000
235.49	-0.000
235.70	-0.000
235.91	-0.000
236.13	-0.000
236.34	-0.000
236.56	-0.000
236.77	-0.000
236.98	-0.000
237.20	-0.000
237.41	-0.000
237.62	-0.000
237.84	-0.000
238.05	-0.000
238.26	-0.000
238.48	-0.000
238.69	-0.000
238.91	-0.000
239.12	-0.000
239.33	-0.000
239.55	-0.000
239.76	-0.000
239.97	-0.000
240.19	-0.000
240.40	-0.000
240.61	-0.000
240.83	-0.000
241.04	-0.000
241.25	-0.000
241.47	-0.000
241.68	-0.000
241.89	-0.000
242.11	-0.000
242.32	-0.000
242.53	-0.000
242.75	-0.000
242.96	-0.000
243.17	-0.000
243.39	-0.000
243.60	-0.000
243.81	-0.000
244.03	-0.000
244.24	-0.000
244.45	-0.000
244.67	-0.000
244.88	-0.000
245.09	-0.000
245.31	-0.000
245.52	-0.000
245.73	-0.000
245.95	-0.000
246.16	-0.000
246.37	-0.000
246.59	-0.000
246.80	-0.000
247.01	-0.000
247.23	-0.000
247.44	-0.000
247.65	-0.000
247.87	-0.000
248.08	-0.000
248.29	-0.000
248.51	-0.000
248.72	-0.000
248.93	-0.000
249.15	-0.000
249.36	-0.000
249.57	-0.000
249.78	-0.000
250.00	-0.000
250.21	-0.000
250.42	-0.000
250.64	-0.000
250.85	-0.000
251.06	-0.000
251.28	-0.000
251.49	-0.000
251.70	-0.000
251.92	-0.000
252.13	-0.000
252.34	-0.000
252.55	-0.000
252.77	-0.000
252.98	-0.000
253.19	-0.000
253.41	-0.000
253.62	-0.000
253.83	-0.000
254.05	-0.000
254.26	-0.000
254.47	-0.000
254.68	-0.000
254.90	-0.000
255.11	-0.000
255.32	-0.000
255.54	-0.000
255.75	-0.000
255.96	-0.000
256.17	-0.000
256.39	-0.000
256.60	-0.000
256.81	-0.000
257.03	-0.000
257.24	-0.000
257.45	-0.000
257.66	-0.000
257.88	-0.000
258.09	-0.000
258.30	-0.000
258.51	-0.000
258.73	-0.000
258.94	-0.000
259.15	-0.000
259.37	-0.000
259.58	-0.000
259.79	-0.000
260.00	-0.000
260.22	-0.000
260.43	-0.000
260.64	-0.000
260.85	-0.000
261.07	-0.000
261.28	-0.000
261.49	-0.000
261.71	-0.000
261.92	-0.000
262.13	-0.000
262.34	-0.000
262.56	-0.000
262.77	-0.000
262.98	-0.000
263.19	-0.000
263.41	-0.000
263.62	-0.000
263.83	-0.000
264.04	-0.000
264.26	-0.000
264.47	-0.000
264.68	-0.000
264.89	-0.000
265.11	-0.000
265.32	-0.000
265.53	-0.000
265.74	-0.000
265.96	-0.000
266.17	-0.000
266.38	-0.000
266.59	-0.000
266.81	-0.000
267.02	-0.000
267.23	-0.000
267.44	-0.000
267.65	-0.000
267.87	-0.000
268.08	-0.000
268.29	-0.000
268.50	-0.000
268.72	-0.000
268.93	-0.000
269.14	-0.000
269.35	-0.000
269.57	-0.000
269.78	-0.000
269.99	-0.000
270.20	-0.000
270.41	-0.000
270.63	-0.000
270.84	-0.000
271.05	-0.000
271.26	-0.000
271.48	-0.000
271.69	-0.000
271.90	-0.000
272.11	-0.000
272.32	-0.000
272.54	-0.000
272.75	-0.000
272.96	-0.000
273.17	-0.000
273.39	-0.000
273.60	-0.000
273.81	-0.000
274.02	-0.000
274.23	-0.000
274.45	-0.000
274.66	-0.000
274.87	-0.000
275.08	-0.000
275.29	-0.000
275.51	-0.000
275.72	-0.000
275.93	-0.000
276.14	-0.000
276.35	-0.000
276.57	-0.000
276.78	-0.000
276.99	-0.000
277.20	-0.000
277.41	-0.000
277.63	-0.000
277.84	-0.000
278.05	-0.000
278.26	-0.000
278.47	-0.000
278.69	-0.000
278.90	-0.000
279.11	-0.000
279.32	-0.000
279.53	-0.000
279.74	-0.000
279.96	-0.000
280.17	-0.000
280.38	-0.000
280.59	-0.000
280.80	-0.000
281.02	-0.000
281.23	-0.000
281.44	-0.000
281.65	-0.000
281.86	-0.000
282.07	-0.000
282.29	-0.000
282.50	-0.000
282.71	-0.000
282.92	-0.000
283.13	-0.000
283.35	-0.000
283.56	-0.000
283.77	-0.000
283.98	-0.000
284.19	-0.000
284.40	-0.000
284.62	-0.000
284.83	-0.000
285.04	-0.000
285.25	-0.000
285.46	-0.000
285.67	-0.000
285.88	-0.000
286.10	-0.000
286.31	-0.000
286.52	-0.000
286.73	-0.000
286.94	-0.000
287.15	-0.000
287.37	-0.000
287.58	-0.000
287.79	-0.000
288.00	-0.000
288.21	-0.000
288.42	-0.000
288.63	-0.000
288.85	-0.000
289.06	-0.000
289.27	-0.000
289.48	-0.000
289.69	-0.000
289.90	-0.000
290.11	-0.000
290.33	-0.000
290.54	-0.000
290.75	-0.000
290.96	-0.000
291.17	-0.000
291.38	-0.000
291.59	-0.000
291.81	-0.000
292.02	-0.000
292.23	-0.000
292.44	-0.000
292.65	-0.000
292.86	-0.000
293.07	-0.000
293.28	-0.000
293.50	-0.000
293.71	-0.000
293.92	-0.000
294.13	-0.000
294.34	-0.000
294.55	-0.000
294.76	-0.000
294.97	-0.000
295.19	-0.000
295.40	-0.000
295.61	-0.000
295.82	-0.000
296.03	-0.000
296.24	-0.000
296.45	-0.000
296.66	2.939
296.87	3.340
297.09	-0.000
297.30	-0.000
297.51	2.420
297.72	2.257
297.93	2.797
298.14	2.475
298.35	2.229
298.56	2.165
298.77	2.921
298.99	2.540
299.20	2.377
299.41	2.248
299.62	2.119
299.83	2.084
300.04	1.929
300.25	1.912
300.46	2.010
300.67	1.942
300.88	1.828
301.10	1.831
301.31	2.006
301.52	1.864
301.73	1.762
301.94	1.771
302.15	1.803
302.36	1.696
302.57	1.596
302.78	1.610
302.99	1.688
303.20	1.711
303.41	1.563
303.63	1.524
303.84	1.538
304.05	1.521
304.26	1.439
304.47	1.444
304.68	1.448
304.89	1.433
305.10	1.376
305.31	1.352
305.52	1.405
305.73	1.394
305.94	1.343
306.15	1.328
306.37	1.358
306.58	1.368
306.79	1.334
307.00	1.365
307.21	1.416
307.42	1.407
307.63	1.365
307.84	1.325
308.05	1.370
308.26	1.372
308.47	1.346
308.68	1.339
308.89	1.335
309.10	1.327
309.31	1.277
309.52	1.266
309.73	1.282
309.95	1.275
310.16	1.239
310.37	1.227
310.58	1.249
310.79	1.245
311.00	1.239
311.21	1.243
311.42	1.246
311.63	1.240
311.84	1.218
312.05	1.216
312.26	1.240
312.47	1.251
312.68	1.221
312.89	1.200
313.10	1.209
313.31	1.178
313.52	1.177
313.73	1.177
313.94	1.179
314.15	1.160
314.36	1.136
314.57	1.127
314.78	1.116
314.99	1.109
315.21	1.096
315.42	1.099
315.63	1.114
315.84	1.092
316.05	1.078
316.26	1.086
316.47	1.104
316.68	1.098
316.89	1.079
317.10	1.100
317.31	1.107
317.52	1.108
317.73	1.086
317.94	1.085
318.15	1.128
318.36	1.128
318.57	1.109
318.78	1.097
318.99	1.138
319.20	1.135
319.41	1.098
319.62	1.099
319.83	1.114
320.04	1.106
320.25	1.089
320.46	1.054
320.67	1.056
320.88	1.053
321.09	1.039
321.30	1.023
321.51	1.037
321.72	1.036
321.93	1.018
322.14	1.009
322.35	1.037
322.56	1.040
322.77	1.026
322.98	1.037
323.19	1.045
323.40	1.052
323.61	1.027
323.82	1.022
324.03	1.028
324.24	1.027
324.45	1.013
324.66	0.993
324.87	0.991
325.08	0.991
325.29	0.971
325.50	0.962
325.71	0.966
325.92	0.975
326.13	0.961
326.34	0.960
326.55	0.968
326.76	0.967
326.97	0.956
327.18	0.951
327.39	0.978
327.60	0.978
327.80	0.979
328.01	0.978
328.22	0.980
328.43	0.983
328.64	0.971
328.85	0.975
329.06	0.976
329.27	0.975
329.48	0.970
329.69	0.949
329.90	0.961
330.11	0.952
330.32	0.944
330.53	0.936
330.74	0.936
330.95	0.935
331.16	0.919
331.37	0.927
331.58	0.928
331.79	0.928
332.00	0.918
332.21	0.911
332.42	0.916
332.63	0.907
332.83	0.903
333.04	0.904
333.25	0.917
333.46	0.916
333.67	0.902
333.88	0.904
334.09	0.915
334.30	0.912
334.51	0.902
334.72	0.897
334.93	0.899
335.14	0.899
335.35	0.892
335.56	0.887
335.77	0.896
335.98	0.894
336.18	0.886
336.39	0.878
336.60	0.883
336.81	0.882
337.02	0.880
337.23	0.885
337.44	0.889
337.65	0.890
337.86	0.880
338.07	0.875
338.28	0.881
338.49	0.879
338.70	0.871
338.91	0.878
339.11	0.886
339.32	0.883
339.53	0.871
339.74	0.868
339.95	0.864
340.16	0.861
340.37	0.853
340.58	0.850
340.79	0.854
341.00	0.854
341.21	0.843
341.41	0.842
341.62	0.844
341.83	0.845
342.04	0.840
342.25	0.851
342.46	0.857
342.67	0.856
342.88	0.850
343.09	0.849
343.30	0.856
343.50	0.860
343.71	0.850
343.92	0.848
344.13	0.853
344.34	0.852
344.55	0.835
344.76	0.834
344.97	0.838
345.18	0.836
345.38	0.833
345.59	0.827
345.80	0.827
346.01	0.826
346.22	0.821
346.43	0.816
346.64	0.825
346.85	0.825
347.06	0.818
347.26	0.819
347.47	0.824
347.68	0.819
347.89	0.814
348.10	0.809
348.31	0.816
348.52	0.815
348.73	0.812
348.93	0.807
349.14	0.809
349.35	0.808
349.56	0.801
349.77	0.796
349.98	0.803
350.19	0.800
350.39	0.794
350.60	0.790
350.81	0.806
351.02	0.805
351.23	0.801
351.44	0.804
351.65	0.807
351.86	0.805
352.06	0.803
352.27	0.803
352.48	0.805
352.69	0.805
352.90	0.799
353.11	0.786
353.31	0.794
353.52	0.790
353.73	0.781
353.94	0.783
354.15	0.790
354.36	0.790
354.57	0.782
354.77	0.784
354.98	0.784
355.19	0.783
355.40	0.782
355.61	0.787
355.82	0.791
356.02	0.791
356.23	0.783
356.44	0.784
356.65	0.787
356.86	0.787
357.07	0.781
357.27	0.784
357.48	0.787
357.69	0.783
357.90	0.768
358.11	0.764
358.32	0.769
358.52	0.771
358.73	0.761
358.94	0.762
359.15	0.767
359.36	0.768
359.56	0.763
359.77	0.760
359.98	0.767
360.19	0.766
360.40	0.763
360.61	0.763
360.81	0.762
361.02	0.764
361.23	0.756
361.44	0.754
361.65	0.754
361.85	0.754
362.06	0.752
362.27	0.753
362.48	0.754
362.69	0.756
362.89	0.750
363.10	0.751
363.31	0.756
363.52	0.759
363.73	0.754
363.93	0.755
364.14	0.757
364.35	0.758
364.56	0.748
364.77	0.751
364.97	0.753
365.18	0.754
365.39	0.748
365.60	0.744
365.81	0.745
366.01	0.745
366.22	0.742
366.43	0.741
366.64	0.743
366.84	0.750
367.05	0.745
367.26	0.744
367.47	0.745
367.68	0.746
367.88	0.744
368.09	0.741
368.30	0.745
368.51	0.744
368.71	0.743
368.92	0.747
369.13	0.745
369.34	0.744
369.55	0.744
369.75	0.744
369.96	0.751
370.17	0.750
370.38	0.747
370.58	0.746
370.79	0.752
371.00	0.751
371.21	0.741
371.41	0.748
371.62	0.752
371.83	0.748
372.04	0.746
372.24	0.739
372.45	0.741
372.66	0.741
372.87	0.738
373.07	0.734
373.28	0.735
373.49	0.739
373.70	0.728
373.90	0.728
374.11	0.737
374.32	0.736
374.53	0.734
374.73	0.734
374.94	0.738
375.15	0.737
375.36	0.735
375.56	0.744
375.77	0.744
375.98	0.744
376.19	0.742
376.39	0.735
376.60	0.738
376.81	0.738
377.02	0.736
377.22	0.734
377.43	0.734
377.64	0.734
377.84	0.724
378.05	0.729
378.26	0.735
378.47	0.734
378.67	0.731
378.88	0.729
379.09	0.729
379.30	0.729
379.50	0.726
379.71	0.729
379.92	0.731
380.12	0.731
380.33	0.721
380.54	0.718
380.75	0.723
380.95	0.723
381.16	0.722
381.37	0.723
381.57	0.725
381.78	0.725
381.99	0.725
382.20	0.724
382.40	0.727
382.61	0.728
382.82	0.725
383.02	0.718
383.23	0.722
383.44	0.722
383.64	0.719
383.85	0.721
384.06	0.724
384.27	0.722
384.47	0.720
384.68	0.721
384.89	0.726
385.09	0.725
385.30	0.724
385.51	0.723
385.71	0.726
385.92	0.726
386.13	0.724
386.33	0.726
386.54	0.726
386.75	0.726
386.95	0.721
387.16	0.717
387.37	0.720
387.58	0.721
387.78	0.719
387.99	0.717
388.20	0.719
388.40	0.716
388.61	0.711
388.82	0.715
389.02	0.717
389.23	0.717
389.44	0.715
389.64	0.715
389.85	0.726
390.06	0.726
390.26	0.726
390.47	0.725
390.68	0.727
390.88	0.726
391.09	0.721
391.30	0.720
391.50	0.719
391.71	0.719
391.92	0.717
392.12	0.709
392.33	0.709
392.53	0.708
392.74	0.708
392.95	0.708
393.15	0.710
393.36	0.712
393.57	0.710
393.77	0.713
393.98	0.715
394.19	0.714
394.39	0.714
394.60	0.715
394.81	0.718
395.01	0.716
395.22	0.714
395.43	0.715
395.63	0.719
395.84	0.721
396.04	0.716
396.25	0.718
396.46	0.721
396.66	0.718
396.87	0.716
397.08	0.713
397.28	0.715
397.49	0.716
397.69	0.712
397.90	0.707
398.11	0.708
398.31	0.709
398.52	0.705
398.73	0.706
398.93	0.705
399.14	0.705
399.34	0.703
399.55	0.704
399.76	0.704
399.96	0.706
400.17	0.704
400.37	0.702
400.58	0.709
400.79	0.711
400.99	0.708
401.20	0.714
401.41	0.716
401.61	0.717
401.82	0.722
402.02	0.721
402.23	0.722
402.44	0.722
402.64	0.722
402.85	0.716
403.05	0.715
403.26	0.714
403.47	0.707
403.67	0.706
403.88	0.707
404.08	0.701
404.29	0.700
404.50	0.699
404.70	0.699
404.91	0.697
405.11	0.695
405.32	0.695
405.52	0.695
405.73	0.695
405.94	0.693
406.14	0.695
406.35	0.697
406.55	0.697
406.76	0.695
406.97	0.697
407.17	0.700
407.38	0.700
407.58	0.698
407.79	0.700
407.99	0.703
408.20	0.703
408.41	0.698
408.61	0.697
408.82	0.697
409.02	0.697
409.23	0.694
409.43	0.693
409.64	0.694
409.84	0.694
410.05	0.690
410.26	0.689
410.46	0.688
410.67	0.687
410.87	0.688
411.08	0.691
411.28	0.692
411.49	0.693
411.69	0.691
411.90	0.693
412.11	0.694
412.31	0.696
412.52	0.694
412.72	0.695
412.93	0.696
413.13	0.695
413.34	0.691
413.54	0.692
413.75	0.694
413.95	0.694
414.16	0.690
414.37	0.693
414.57	0.693
414.78	0.695
414.98	0.693
415.19	0.694
415.39	0.693
415.60	0.695
415.80	0.694
416.01	0.692
416.21	0.694
416.42	0.694
416.62	0.689
416.83	0.690
417.03	0.689
417.24	0.690
417.44	0.687
417.65	0.687
417.86	0.688
418.06	0.685
418.27	0.683
418.47	0.685
418.68	0.686
418.88	0.686
419.09	0.684
419.29	0.684
419.50	0.685
419.70	0.685
419.91	0.683
420.11	0.680
420.32	0.683
420.52	0.682
420.73	0.681
420.93	0.682
421.14	0.684
421.34	0.683
421.55	0.679
421.75	0.679
421.96	0.680
422.16	0.680
422.37	0.680
422.57	0.677
422.78	0.679
422.98	0.675
423.19	0.673
423.39	0.671
423.60	0.675
423.80	0.677
424.01	0.675
424.21	0.678
424.42	0.679
424.62	0.678
424.83	0.677
425.03	0.677
425.23	0.679
425.44	0.680
425.64	0.680
425.85	0.679
426.05	0.679
426.26	0.680
426.46	0.676
426.67	0.675
426.87	0.680
427.08	0.681
427.28	0.679
427.49	0.680
427.69	0.680
427.90	0.679
428.10	0.677
428.31	0.677
428.51	0.679
428.71	0.678
428.92	0.679
429.12	0.676
429.33	0.677
429.53	0.681
429.74	0.685
429.94	0.686
430.15	0.686
430.35	0.686
430.56	0.682
430.76	0.681
430.96	0.682
431.17	0.680
431.37	0.677
431.58	0.675
431.78	0.672
431.99	0.665
432.19	0.667
432.40	0.669
432.60	0.670
432.80	0.672
433.01	0.671
433.21	0.671
433.42	0.674
433.62	0.675
433.83	0.674
434.03	0.677
434.23	0.680
434.44	0.679
434.64	0.676
434.85	0.681
435.05	0.682
435.26	0.682
435.46	0.681
435.66	0.680
435.87	0.680
436.07	0.680
436.28	0.675
436.48	0.673
436.69	0.672
436.89	0.672
437.09	0.666
437.30	0.665
437.50	0.666
437.71	0.677
437.91	0.676
438.11	0.678
438.32	0.682
438.52	0.683
438.73	0.682
438.93	0.680
439.13	0.681
439.34	0.684
439.54	0.681
439.75	0.681
439.95	0.671
440.15	0.675
440.36	0.673
440.56	0.671
440.77	0.672
440.97	0.672
441.17	0.671
441.38	0.671
441.58	0.669
441.79	0.669
441.99	0.668
442.19	0.667
442.40	0.664
442.60	0.664
442.81	0.662
443.01	0.663
443.21	0.663
443.42	0.663
443.62	0.661
443.82	0.661
444.03	0.662
444.23	0.662
444.44	0.662
444.64	0.662
444.84	0.663
445.05	0.663
445.25	0.660
445.45	0.661
445.66	0.664
445.86	0.663
446.06	0.664
446.27	0.664
446.47	0.667
446.68	0.665
446.88	0.664
447.08	0.663
447.29	0.666
447.49	0.666
447.69	0.665
447.90	0.664
448.10	0.668
448.30	0.665
448.51	0.666
448.71	0.663
448.91	0.666
449.12	0.665
449.32	0.667
449.52	0.665
449.73	0.669
449.93	0.669
450.14	0.669
450.34	0.668
450.54	0.671
450.75	0.668
450.95	0.668
451.15	0.667
451.36	0.669
451.56	0.666
451.76	0.665
451.97	0.662
452.17	0.662
452.37	0.660
452.58	0.657
452.78	0.656
452.98	0.659
453.19	0.657
453.39	0.657
453.59	0.656
453.79	0.657
454.00	0.658
454.20	0.657
454.40	0.658
454.61	0.660
454.81	0.661
455.01	0.659
455.22	0.660
455.42	0.662
455.62	0.661
455.83	0.661
456.03	0.664
456.23	0.665
456.44	0.666
456.64	0.665
456.84	0.665
457.04	0.665
457.25	0.665
457.45	0.661
457.65	0.660
457.86	0.661
458.06	0.660
458.26	0.655
458.47	0.655
458.67	0.655
458.87	0.655
459.07	0.653
459.28	0.655
459.48	0.658
459.68	0.658
459.89	0.657
460.09	0.656
460.29	0.657
460.49	0.658
460.70	0.657
460.90	0.658
461.10	0.659
461.31	0.658
461.51	0.655
461.71	0.656
461.91	0.658
462.12	0.658
462.32	0.657
462.52	0.657
462.72	0.660
462.93	0.660
463.13	0.659
463.33	0.660
463.53	0.661
463.74	0.661
463.94	0.656
464.14	0.657
464.35	0.659
464.55	0.659
464.75	0.657
464.95	0.654
465.16	0.656
465.36	0.655
465.56	0.653
465.76	0.653
465.97	0.653
466.17	0.654
466.37	0.652
466.57	0.653
466.78	0.654
466.98	0.654
467.18	0.652
467.38	0.651
467.59	0.653
467.79	0.655
467.99	0.654
468.19	0.656
468.39	0.659
468.60	0.659
468.80	0.657
469.00	0.658
469.20	0.659
469.41	0.659
469.61	0.659
469.81	0.659
470.01	0.659
470.22	0.659
470.42	0.657
470.62	0.655
470.82	0.656
471.02	0.656
471.23	0.654
471.43	0.654
471.63	0.656
471.83	0.655
472.04	0.653
472.24	0.652
472.44	0.657
472.64	0.656
472.84	0.654
473.05	0.654
473.25	0.657
473.45	0.656
473.65	0.654
473.85	0.656
474.06	0.658
474.26	0.658
474.46	0.659
474.66	0.655
474.86	0.657
475.07	0.657
475.27	0.654
475.47	0.652
475.67	0.653
475.87	0.655
476.08	0.651
476.28	0.652
476.48	0.653
476.68	0.651
476.88	0.649
477.09	0.650
477.29	0.652
477.49	0.652
477.69	0.651
477.89	0.651
478.09	0.650
478.30	0.653
478.50	0.650
478.70	0.650
478.90	0.651
479.10	0.653
479.31	0.654
479.51	0.652
479.71	0.653
479.91	0.653
480.11	0.652
480.31	0.652
480.52	0.651
480.72	0.651
480.92	0.650
481.12	0.648
481.32	0.646
481.52	0.644
481.72	0.644
481.93	0.648
482.13	0.648
482.33	0.647
482.53	0.645
482.73	0.646
482.93	0.648
483.14	0.647
483.34	0.647
483.54	0.647
483.74	0.647
483.94	0.646
484.14	0.641
484.34	0.641
484.55	0.643
484.75	0.642
484.95	0.640
485.15	0.640
485.35	0.640
485.55	0.640
485.75	0.638
485.96	0.638
486.16	0.639
486.36	0.638
486.56	0.637
486.76	0.637
486.96	0.638
487.16	0.637
487.36	0.635
487.57	0.634
487.77	0.635
487.97	0.635
488.17	0.634
488.37	0.633
488.57	0.634
488.77	0.634
488.97	0.633
489.18	0.632
489.38	0.635
489.58	0.636
489.78	0.635
489.98	0.635
490.18	0.635
490.38	0.636
490.58	0.635
490.78	0.635
490.98	0.637
491.19	0.638
491.39	0.637
491.59	0.636
491.79	0.639
491.99	0.640
492.19	0.639
492.39	0.642
492.59	0.641
492.79	0.643
492.99	0.643
493.20	0.643
493.40	0.644
493.60	0.645
493.80	0.643
494.00	0.640
494.20	0.640
494.40	0.640
494.60	0.637
494.80	0.642
495.00	0.641
495.20	0.640
495.40	0.638
495.61	0.640
495.81	0.639
496.01	0.643
496.21	0.644
496.41	0.643
496.61	0.644
496.81	0.644
497.01	0.638
497.21	0.637
497.41	0.638
497.61	0.638
497.81	0.635
498.01	0.636
498.21	0.634
498.41	0.632
498.61	0.631
498.82	0.633
499.02	0.635
499.22	0.636
499.42	0.636
499.62	0.637
499.82	0.638
500.02	0.639
500.22	0.638
500.42	0.640
500.62	0.641
500.82	0.641
501.02	0.639
501.22	0.639
501.42	0.639
501.62	0.641
501.82	0.640
502.02	0.640
502.22	0.640
502.42	0.642
502.62	0.639
502.82	0.639
503.02	0.640
503.22	0.640
503.42	0.637
503.63	0.637
503.83	0.635
504.03	0.635
504.23	0.634
504.43	0.634
504.63	0.635
504.83	0.635
505.03	0.634
505.23	0.635
505.43	0.637
505.63	0.638
505.83	0.637
506.03	0.638
506.23	0.640
506.43	0.641
506.63	0.639
506.83	0.638
507.03	0.641
507.23	0.641
507.43	0.638
507.63	0.639
507.83	0.639
508.03	0.640
508.23	0.639
508.43	0.637
508.63	0.640
508.83	0.641
509.03	0.642
509.23	0.640
509.43	0.642
509.63	0.642
509.83	0.640
510.03	0.643
510.23	0.645
510.43	0.645
510.63	0.646
510.83	0.645
511.03	0.647
511.23	0.644
511.43	0.644
511.63	0.645
511.83	0.648
512.03	0.647
512.22	0.643
512.42	0.643
512.62	0.643
512.82	0.643
513.02	0.642
513.22	0.642
513.42	0.644
513.62	0.647
513.82	0.645
514.02	0.644
514.22	0.646
514.42	0.647
514.62	0.647
514.82	0.647
515.02	0.650
515.22	0.654
515.42	0.652
515.62	0.654
515.82	0.653
516.02	0.654
516.22	0.654
516.42	0.655
516.62	0.657
516.82	0.658
517.01	0.656
517.21	0.655
517.41	0.659
517.61	0.660
517.81	0.656
518.01	0.656
518.21	0.655
518.41	0.654
518.61	0.653
518.81	0.653
519.01	0.654
519.21	0.654
519.41	0.652
519.61	0.647
519.81	0.649
520.00	0.649
520.20	0.649
520.40	0.653
520.60	0.654
520.80	0.653
521.00	0.653
521.20	0.654
521.40	0.660
521.60	0.661
521.80	0.659
522.00	0.659
522.20	0.662
522.39	0.662
522.59	0.658
522.79	0.661
522.99	0.663
523.19	0.662
523.39	0.659
523.59	0.656
523.79	0.659
523.99	0.662
524.19	0.661
524.38	0.659
524.58	0.660
524.78	0.661
524.98	0.658
525.18	0.661
525.38	0.662
525.58	0.662
525.78	0.660
525.98	0.659
526.18	0.659
526.37	0.658
526.57	0.660
526.77	0.659
526.97	0.660
527.17	0.660
527.37	0.657
527.57	0.659
527.77	0.661
527.96	0.661
528.16	0.659
528.36	0.660
528.56	0.663
528.76	0.660
528.96	0.659
529.16	0.661
529.36	0.664
529.55	0.663
529.75	0.660
529.95	0.661
530.15	0.662
530.35	0.665
530.55	0.662
530.75	0.663
530.94	0.664
531.14	0.665
531.34	0.664
531.54	0.662
531.74	0.665
531.94	0.667
532.13	0.665
532.33	0.667
532.53	0.665
532.73	0.665
532.93	0.663
533.13	0.664
533.33	0.665
533.52	0.665
533.72	0.668
533.92	0.666
534.12	0.665
534.32	0.666
534.52	0.664
534.71	0.666
534.91	0.670
535.11	0.671
535.31	0.669
535.51	0.671
535.71	0.672
535.90	0.669
536.10	0.670
536.30	0.672
536.50	0.672
536.70	0.673
536.89	0.670
537.09	0.669
537.29	0.671
537.49	0.671
537.69	0.669
537.89	0.670
538.08	0.670
538.28	0.668
538.48	0.669
538.68	0.670
538.88	0.672
539.07	0.672
539.27	0.670
539.47	0.670
539.67	0.670
539.87	0.671
540.06	0.668
540.26	0.670
540.46	0.673
540.66	0.669
540.86	0.667
541.05	0.667
541.25	0.669
541.45	0.669
541.65	0.667
541.84	0.668
542.04	0.670
542.24	0.670
542.44	0.669
542.64	0.670
542.83	0.674
543.03	0.674
543.23	0.671
543.43	0.672
543.62	0.675
543.82	0.675
544.02	0.674
544.22	0.673
544.42	0.677
544.61	0.677
544.81	0.673
545.01	0.671
545.21	0.674
545.40	0.675
545.60	0.672
545.80	0.674
546.00	0.675
546.19	0.674
546.39	0.673
546.59	0.670
546.79	0.672
546.98	0.672
547.18	0.672
547.38	0.673
547.58	0.676
547.77	0.677
547.97	0.672
548.17	0.674
548.37	0.675
548.56	0.675
548.76	0.675
548.96	0.676
549.16	0.679
549.35	0.679
549.55	0.676
549.75	0.676
549.95	0.680
550.14	0.681
550.34	0.679
550.54	0.684
550.73	0.688
550.93	0.688
551.13	0.684
551.33	0.683
551.52	0.684
551.72	0.685
551.92	0.683
552.12	0.682
552.31	0.684
552.51	0.684
552.71	0.679
552.90	0.679
553.10	0.680
553.30	0.680
553.50	0.680
553.69	0.681
553.89	0.681
554.09	0.681
554.28	0.678
554.48	0.679
554.68	0.681
554.87	0.681
555.07	0.677
555.27	0.677
555.47	0.678
555.66	0.679
555.86	0.677
556.06	0.680
556.25	0.681
556.45	0.689
556.65	0.687
556.84	0.690
557.04	0.694
557.24	0.695
557.43	0.694
557.63	0.698
557.83	0.700
558.02	0.701
558.22	0.706
558.42	0.706
558.61	0.699
558.81	0.699
559.01	0.696
559.21	0.696
559.40	0.698
559.60	0.698
559.80	0.694
559.99	0.694
560.19	0.696
560.39	0.690
560.58	0.687
560.78	0.687
560.97	0.692
561.17	0.690
561.37	0.687
561.56	0.688
561.76	0.689
561.96	0.688
562.15	0.686
562.35	0.688
562.55	0.689
562.74	0.689
562.94	0.688
563.14	0.686
563.33	0.687
563.53	0.688
563.73	0.684
563.92	0.686
564.12	0.689
564.31	0.692
564.51	0.689
564.71	0.691
564.90	0.694
565.10	0.694
565.30	0.697
565.49	0.698
565.69	0.700
565.89	0.700
566.08	0.698
566.28	0.700
566.47	0.701
566.67	0.699
566.87	0.696
567.06	0.697
567.26	0.704
567.46	0.700
567.65	0.698
567.85	0.700
568.04	0.704
568.24	0.702
568.44	0.699
568.63	0.697
568.83	0.699
569.02	0.697
569.22	0.692
569.42	0.688
569.61	0.691
569.81	0.689
570.00	0.686
570.20	0.687
570.40	0.689
570.59	0.689
570.79	0.687
570.98	0.684
571.18	0.686
571.38	0.686
571.57	0.683
571.77	0.681
571.96	0.685
572.16	0.682
572.35	0.676
572.55	0.677
572.75	0.676
572.94	0.676
573.14	0.674
573.33	0.674
573.53	0.675
573.73	0.674
573.92	0.672
574.12	0.670
574.31	0.673
574.51	0.674
574.70	0.671
574.90	0.673
575.09	0.675
575.29	0.675
575.49	0.672
575.68	0.673
575.88	0.674
576.07	0.676
576.27	0.674
576.46	0.673
576.66	0.672
576.86	0.671
577.05	0.669
577.25	0.667
577.44	0.668
577.64	0.668
577.83	0.665
578.03	0.667
578.22	0.666
578.42	0.665
578.61	0.663
578.81	0.664
579.00	0.665
579.20	0.665
579.40	0.664
579.59	0.662
579.79	0.663
579.98	0.663
580.18	0.662
580.37	0.662
580.57	0.664
580.76	0.669
580.96	0.667
581.15	0.668
581.35	0.670
581.54	0.669
581.74	0.669
581.93	0.671
582.13	0.672
582.32	0.669
582.52	0.668
582.71	0.667
582.91	0.663
583.10	0.663
583.30	0.662
583.49	0.661
583.69	0.665
583.88	0.666
584.08	0.665
584.27	0.667
584.47	0.669
584.66	0.670
584.86	0.669
585.05	0.671
585.25	0.674
585.44	0.673
585.64	0.672
585.83	0.669
586.03	0.669
586.22	0.668
586.42	0.664
586.61	0.666
586.81	0.669
587.00	0.669
587.20	0.666
587.39	0.666
587.59	0.669
587.78	0.670
587.98	0.671
588.17	0.672
588.37	0.675
588.56	0.677
588.76	0.672
588.95	0.673
589.15	0.677
589.34	0.680
589.54	0.678
589.73	0.678
589.92	0.681
590.12	0.681
590.31	0.678
590.51	0.684
590.70	0.685
590.90	0.686
591.09	0.684
591.29	0.682
591.48	0.682
591.68	0.683
591.87	0.681
592.06	0.681
592.26	0.683
592.45	0.683
592.65	0.676
592.84	0.676
593.04	0.678
593.23	0.680
593.43	0.677
593.62	0.677
593.81	0.678
594.01	0.677
594.20	0.674
594.40	0.673
594.59	0.675
594.79	0.677
594.98	0.675
595.17	0.675
595.37	0.676
595.56	0.678
595.76	0.677
595.95	0.679
596.14	0.682
596.34	0.683
596.53	0.681
596.73	0.683
596.92	0.684
597.12	0.686
597.31	0.686
597.50	0.685
597.70	0.687
597.89	0.686
598.09	0.682
598.28	0.684
598.47	0.686
598.67	0.684
598.86	0.680
599.06	0.682
599.25	0.683
599.44	0.681
599.64	0.678
599.83	0.676
600.03	0.679
600.22	0.680
600.41	0.679
600.61	0.677
600.80	0.680
601.00	0.681
601.19	0.677
601.38	0.675
601.58	0.678
601.77	0.679
601.96	0.681
602.16	0.681
602.35	0.690
602.55	0.688
602.74	0.688
602.93	0.690
603.13	0.695
603.32	0.697
603.51	0.696
603.71	0.698
603.90	0.700
604.09	0.701
604.29	0.698
604.48	0.692
604.68	0.694
604.87	0.692
605.06	0.688
605.26	0.685
605.45	0.686
605.64	0.685
605.84	0.681
606.03	0.680
606.22	0.679
606.42	0.678
606.61	0.675
606.80	0.675
607.00	0.677
607.19	0.678
607.38	0.676
607.58	0.678
607.77	0.680
607.96	0.680
608.16	0.679
608.35	0.684
608.54	0.688
608.74	0.691
608.93	0.695
609.12	0.698
609.32	0.701
609.51	0.705
609.70	0.703
609.90	0.705
610.09	0.710
610.28	0.715
610.48	0.708
610.67	0.709
610.86	0.710
611.06	0.704
611.25	0.702
611.44	0.702
611.64	0.702
611.83	0.705
612.02	0.701
612.21	0.700
612.41	0.699
612.60	0.698
612.79	0.693
612.99	0.694
613.18	0.696
613.37	0.693
613.57	0.691
613.76	0.693
613.95	0.690
614.14	0.690
614.34	0.687
614.53	0.687
614.72	0.691
614.92	0.691
615.11	0.688
615.30	0.686
615.49	0.687
615.69	0.690
615.88	0.686
616.07	0.688
616.26	0.690
616.46	0.692
616.65	0.688
616.84	0.688
617.04	0.689
617.23	0.693
617.42	0.693
617.61	0.697
617.81	0.698
618.00	0.699
618.19	0.698
618.38	0.702
618.58	0.705
618.77	0.707
618.96	0.705
619.15	0.707
619.35	0.709
619.54	0.710
619.73	0.704
619.92	0.706
620.12	0.710
620.31	0.711
620.50	0.706
620.69	0.705
620.89	0.709
621.08	0.709
621.27	0.709
621.46	0.708
621.66	0.712
621.85	0.712
622.04	0.708
622.23	0.709
622.43	0.710
622.62	0.710
622.81	0.708
623.00	0.707
623.19	0.711
623.39	0.709
623.58	0.706
623.77	0.705
623.96	0.708
624.16	0.708
624.35	0.703
624.54	0.706
624.73	0.710
624.92	0.708
625.12	0.706
625.31	0.707
625.50	0.710
625.69	0.711
625.88	0.707
626.08	0.707
626.27	0.709
626.46	0.709
626.65	0.706
626.84	0.706
627.04	0.711
627.23	0.711
627.42	0.706
627.61	0.708
627.80	0.711
628.00	0.711
628.19	0.710
628.38	0.713
628.57	0.717
628.76	0.717
628.96	0.713
629.15	0.714
629.34	0.717
629.53	0.718
629.72	0.712
629.91	0.713
630.11	0.719
630.30	0.719
630.49	0.721
630.68	0.721
630.87	0.724
631.06	0.727
631.26	0.721
631.45	0.723
631.64	0.731
631.83	0.733
632.02	0.730
632.21	0.729
632.41	0.737
632.60	0.731
632.79	0.729
632.98	0.729
633.17	0.731
633.36	0.733
633.55	0.728
633.75	0.725
633.94	0.727
634.13	0.728
634.32	0.725
634.51	0.718
634.70	0.720
634.89	0.720
635.09	0.717
635.28	0.718
635.47	0.719
635.66	0.723
635.85	0.718
636.04	0.720
636.23	0.726
636.43	0.728
636.62	0.727
636.81	0.726
637.00	0.729
637.19	0.732
637.38	0.728
637.57	0.728
637.76	0.729
637.95	0.730
638.15	0.726
638.34	0.722
638.53	0.725
638.72	0.727
638.91	0.724
639.10	0.722
639.29	0.722
639.48	0.723
639.67	0.722
639.87	0.721
640.06	0.726
640.25	0.725
640.44	0.725
640.63	0.725
640.82	0.728
641.01	0.728
641.20	0.727
641.39	0.730
641.58	0.732
641.78	0.731
641.97	0.726
642.16	0.741
642.35	0.743
642.54	0.741
642.73	0.735
642.92	0.734
643.11	0.738
643.30	0.739
643.49	0.733
643.68	0.736
643.87	0.738
644.06	0.739
644.25	0.718
644.45	0.720
644.64	0.721
644.83	0.721
645.02	0.718
645.21	0.717
645.40	0.717
645.59	0.717
645.78	0.709
645.97	0.712
646.16	0.713
646.35	0.712
646.54	0.710
646.73	0.712
646.92	0.714
647.11	0.713
647.30	0.708
647.49	0.710
647.68	0.711
647.88	0.711
648.07	0.703
648.26	0.706
648.45	0.709
648.64	0.706
648.83	0.703
649.02	0.706
649.21	0.717
649.40	0.716
649.59	0.710
649.78	0.711
649.97	0.726
650.16	0.726
650.35	0.721
650.54	0.723
650.73	0.732
650.92	0.728
651.11	0.720
651.30	0.717
651.49	0.722
651.68	0.724
651.87	0.720
652.06	0.710
652.25	0.712
652.44	0.714
652.63	0.710
652.82	0.710
653.01	0.710
653.20	0.708
653.39	0.694
653.58	0.692
653.77	0.690
653.96	0.685
654.15	0.677
654.34	0.675
654.53	0.670
654.72	0.665
654.91	0.655
655.10	0.651
655.29	0.650
655.48	0.648
655.67	0.643
655.86	0.640
656.05	0.639
656.24	0.639
656.43	0.633
656.62	0.633
656.81	0.633
657.00	0.630
657.19	0.628
657.38	0.628
657.57	0.628
657.76	0.630
657.95	0.628
658.14	0.631
658.33	0.634
658.51	0.639
658.70	0.640
658.89	0.641
659.08	0.651
659.27	0.658
659.46	0.658
659.65	0.664
659.84	0.668
660.03	0.672
660.22	0.673
660.41	0.678
660.60	0.678
660.79	0.680
660.98	0.686
661.17	0.685
661.36	0.685
661.55	0.686
661.74	0.684
661.92	0.686
662.11	0.688
662.30	0.687
662.49	0.680
662.68	0.679
662.87	0.682
663.06	0.677
663.25	0.677
663.44	0.678
663.63	0.679
663.82	0.678
664.01	0.671
664.20	0.670
664.38	0.672
664.57	0.673
664.76	0.672
664.95	0.672
665.14	0.677
665.33	0.672
665.52	0.678
665.71	0.682
665.90	0.682
666.09	0.684
666.28	0.682
666.46	0.681
666.65	0.682
666.84	0.680
667.03	0.674
667.22	0.672
667.41	0.675
667.60	0.665
667.79	0.658
667.98	0.659
668.16	0.660
668.35	0.659
668.54	0.655
668.73	0.655
668.92	0.655
669.11	0.654
669.30	0.649
669.49	0.645
669.67	0.646
669.86	0.649
670.05	0.646
670.24	0.644
670.43	0.642
670.62	0.642
670.81	0.637
671.00	0.637
671.18	0.637
671.37	0.636
671.56	0.634
671.75	0.633
671.94	0.630
672.13	0.629
672.32	0.624
672.50	0.623
672.69	0.624
672.88	0.625
673.07	0.620
673.26	0.623
673.45	0.624
673.63	0.624
673.82	0.620
674.01	0.622
674.20	0.621
674.39	0.620
674.58	0.620
674.76	0.619
674.95	0.617
675.14	0.617
675.33	0.612
675.52	0.611
675.71	0.612
675.89	0.611
676.08	0.606
676.27	0.606
676.46	0.607
676.65	0.606
676.84	0.606
677.02	0.608
677.21	0.610
677.40	0.609
677.59	0.606
677.78	0.607
677.96	0.609
678.15	0.609
678.34	0.606
678.53	0.607
678.72	0.607
678.90	0.603
679.09	0.599
679.28	0.596
679.47	0.596
679.66	0.596
679.84	0.592
680.03	0.589
680.22	0.588
680.41	0.590
680.60	0.586
680.78	0.585
680.97	0.587
681.16	0.588
681.35	0.587
681.53	0.586
681.72	0.587
681.91	0.589
682.10	0.588
682.29	0.592
682.47	0.589
682.66	0.589
682.85	0.588
683.04	0.586
683.22	0.586
683.41	0.588
683.60	0.586
683.79	0.587
683.97	0.586
684.16	0.585
684.35	0.580
684.54	0.582
684.72	0.582
684.91	0.583
685.10	0.581
685.29	0.582
685.47	0.579
685.66	0.579
685.85	0.575
686.04	0.575
686.22	0.577
686.41	0.580
686.60	0.577
686.79	0.580
686.97	0.580
687.16	0.582
687.35	0.579
687.54	0.583
687.72	0.587
687.91	0.587
688.10	0.588
688.29	0.587
688.47	0.586
688.66	0.585
688.85	0.581
689.03	0.578
689.22	0.583
689.41	0.584
689.60	0.578
689.78	0.576
689.97	0.576
690.16	0.574
690.34	0.570
690.53	0.570
690.72	0.570
690.91	0.568
691.09	0.567
691.28	0.560
691.47	0.558
691.65	0.557
691.84	0.554
692.03	0.553
692.21	0.551
692.40	0.550
692.59	0.548
692.77	0.547
692.96	0.549
693.15	0.549
693.34	0.547
693.52	0.547
693.71	0.548
693.90	0.549
694.08	0.549
694.27	0.550
694.46	0.560
694.64	0.561
694.83	0.560
695.02	0.559
695.20	0.558
695.39	0.558
695.58	0.558
695.76	0.559
695.95	0.558
696.14	0.558
696.32	0.556
696.51	0.547
696.70	0.547
696.88	0.548
697.07	0.546
697.26	0.548
697.44	0.549
697.63	0.548
697.81	0.546
698.00	0.546
698.19	0.545
698.37	0.545
698.56	0.544
698.75	0.544
698.93	0.544
699.12	0.544
699.31	0.543
699.49	0.542
699.68	0.543
699.87	0.546
700.05	0.546
700.24	0.545
700.42	0.547
700.61	0.547
700.80	0.544
700.98	0.544
701.17	0.545
701.36	0.544
701.54	0.544
701.73	0.545
701.91	0.543
702.10	0.542
702.29	0.540
702.47	0.540
702.66	0.541
702.84	0.542
703.03	0.540
703.22	0.542
703.40	0.542
703.59	0.543
703.77	0.542
703.96	0.542
704.15	0.543
704.33	0.543
704.52	0.542
704.70	0.541
704.89	0.541
705.08	0.540
705.26	0.535
705.45	0.535
705.63	0.535
705.82	0.532
706.00	0.530
706.19	0.529
706.38	0.529
706.56	0.529
706.75	0.527
706.93	0.526
707.12	0.527
707.30	0.527
707.49	0.525
707.68	0.522
707.86	0.522
708.05	0.522
708.23	0.520
708.42	0.520
708.60	0.523
708.79	0.522
708.98	0.521
709.16	0.520
709.35	0.523
709.53	0.527
709.72	0.526
709.90	0.529
710.09	0.530
710.27	0.532
710.46	0.536
710.64	0.535
710.83	0.537
711.02	0.538
711.20	0.536
711.39	0.534
711.57	0.532
711.76	0.533
711.94	0.531
712.13	0.532
712.31	0.531
712.50	0.527
712.68	0.524
712.87	0.525
713.05	0.526
713.24	0.527
713.42	0.526
713.61	0.526
713.79	0.527
713.98	0.527
714.16	0.527
714.35	0.527
714.54	0.528
714.72	0.529
714.91	0.526
715.09	0.532
715.28	0.535
715.46	0.535
715.65	0.533
715.83	0.533
716.02	0.536
716.20	0.533
716.39	0.532
716.57	0.534
716.76	0.535
716.94	0.536
717.12	0.527
717.31	0.529
717.49	0.532
717.68	0.534
717.86	0.533
718.05	0.534
718.23	0.536
718.42	0.539
718.60	0.540
718.79	0.548
718.97	0.551
719.16	0.551
719.34	0.549
719.53	0.549
719.71	0.549
719.90	0.551
720.08	0.549
720.27	0.549
720.45	0.549
720.63	0.548
720.82	0.542
721.00	0.544
721.19	0.548
721.37	0.547
721.56	0.547
721.74	0.550
721.93	0.559
722.11	0.565
722.30	0.564
722.48	0.570
722.66	0.571
722.85	0.571
723.03	0.571
723.22	0.570
723.40	0.573
723.59	0.573
723.77	0.576
723.95	0.570
724.14	0.571
724.32	0.574
724.51	0.572
724.69	0.573
724.88	0.574
725.06	0.573
725.24	0.574
725.43	0.575
725.61	0.578
725.80	0.572
725.98	0.569
726.16	0.566
726.35	0.572
726.53	0.571
726.72	0.570
726.90	0.580
727.09	0.581
727.27	0.587
727.45	0.584
727.64	0.594
727.82	0.603
728.01	0.606
728.19	0.603
728.37	0.610
728.56	0.613
728.74	0.619
728.92	0.606
729.11	0.610
729.29	0.609
729.48	0.612
729.66	0.601
729.84	0.601
730.03	0.606
730.21	0.608
730.40	0.598
730.58	0.601
730.76	0.600
730.95	0.603
731.13	0.602
731.31	0.615
731.50	0.625
731.68	0.629
731.86	0.625
732.05	0.639
732.23	0.641
732.42	0.645
732.60	0.648
732.78	0.654
732.97	0.674
733.15	0.680
733.33	0.666
733.52	0.674
733.70	0.685
733.88	0.694
734.07	0.680
734.25	0.709
734.43	0.718
734.62	0.720
734.80	0.714
734.98	0.704
735.17	0.712
735.35	0.720
735.53	0.707
735.72	0.712
735.90	0.737
736.08	0.758
736.27	0.735
736.45	0.745
736.63	0.760
736.82	0.772
737.00	0.774
737.18	0.787
737.37	0.823
737.55	0.848
737.73	0.842
737.92	0.844
738.10	0.843
738.28	0.863
738.46	0.848
738.65	0.866
738.83	0.891
739.01	0.951
739.20	0.939
739.38	0.922
739.56	0.915
739.75	0.919
739.93	0.884
740.11	0.910
740.29	0.907
740.48	0.915
740.66	0.889
740.84	0.883
741.03	0.846
741.21	0.860
741.39	0.837
741.57	0.853
741.76	0.876
741.94	0.879
742.12	0.836
742.31	0.846
742.49	0.871
742.67	0.898
742.85	0.912
743.04	0.915
743.22	0.926
743.40	0.988
743.58	0.966
743.77	0.983
743.95	1.028
744.13	1.100
744.31	1.076
744.50	1.065
744.68	1.075
744.86	1.044
745.04	1.058
745.23	1.137
745.41	1.121
745.59	1.123
745.77	1.076
745.96	1.053
746.14	1.060
746.32	1.057
746.50	1.049
746.69	1.020
746.87	1.036
747.05	1.016
747.23	0.935
747.42	0.919
747.60	0.957
747.78	0.960
747.96	0.999
748.14	0.947
748.33	0.986
748.51	0.980
748.69	0.970
748.87	1.005
749.06	1.012
749.24	1.008
749.42	0.983
749.60	0.956
749.78	0.973
749.97	0.918
750.15	0.911
750.33	0.910
750.51	0.944
750.69	0.951
750.88	0.949
751.06	0.956
751.24	0.988
751.42	0.978
751.60	0.971
751.79	1.054
751.97	1.118
752.15	1.117
752.33	1.074
752.51	1.151
752.69	1.173
752.88	1.131
753.06	1.185
753.24	1.163
753.42	1.217
753.60	1.462
753.78	1.229
753.97	1.263
754.15	1.296
754.33	1.338
754.51	1.157
754.69	1.138
754.87	1.183
755.06	1.092
755.24	1.082
755.42	1.085
755.60	0.966
755.78	0.981
755.96	0.912
756.15	0.910
756.33	0.917
756.51	0.933
756.69	0.917
756.87	0.877
757.05	0.898
757.23	0.880
757.42	0.845
757.60	0.846
757.78	0.835
757.96	0.831
758.14	0.812
758.32	0.792
758.50	0.809
758.69	0.805
758.87	0.796
759.05	0.798
759.23	0.810
759.41	0.813
759.59	0.803
759.77	0.830
759.95	0.862
760.13	0.918
760.32	0.919
760.50	0.913
760.68	0.942
760.86	0.943
761.04	0.914
761.22	0.920
761.40	0.975
761.58	0.975
761.76	0.933
761.95	0.910
762.13	0.863
762.31	0.864
762.49	0.830
762.67	0.851
762.85	0.868
763.03	0.861
763.21	0.839
763.39	0.817
763.57	0.818
763.75	0.815
763.94	0.801
764.12	0.799
764.30	0.824
764.48	0.829
764.66	0.789
764.84	0.786
765.02	0.829
765.20	0.835
765.38	0.811
765.56	0.821
765.74	0.865
765.92	0.864
766.10	0.871
766.28	0.867
766.46	0.900
766.65	0.901
766.83	0.883
767.01	0.867
767.19	0.878
767.37	0.883
767.55	0.867
767.73	0.845
767.91	0.848
768.09	0.838
768.27	0.819
768.45	0.808
768.63	0.814
768.81	0.817
768.99	0.784
769.17	0.813
769.35	0.827
769.53	0.824
769.71	0.803
769.89	0.816
770.07	0.824
770.25	0.805
770.43	0.782
770.61	0.809
770.79	0.819
770.97	0.833
771.15	0.794
771.33	0.799
771.51	0.804
771.69	0.815
771.87	0.819
772.05	0.824
772.24	0.836
772.42	0.843
772.60	0.814
772.78	0.879
772.96	0.909
773.14	0.908
773.32	0.877
773.49	0.884
773.67	0.884
773.85	0.865
774.03	0.848
774.21	0.883
774.39	0.895
774.57	0.927
774.75	0.846
774.93	0.841
775.11	0.866
775.29	0.875
775.47	0.874
775.65	0.882
775.83	0.901
776.01	0.929
776.19	0.876
776.37	0.879
776.55	0.875
776.73	0.870
776.91	0.863
777.09	0.844
777.27	0.843
777.45	0.831
777.63	0.804
777.81	0.800
777.99	0.786
778.17	0.782
778.35	0.759
778.53	0.747
778.71	0.755
778.89	0.743
779.07	0.731
779.24	0.738
779.42	0.740
779.60	0.762
779.78	0.756
779.96	0.763
780.14	0.773
780.32	0.797
780.50	0.781
780.68	0.778
780.86	0.769
781.04	0.785
781.22	0.788
781.40	0.802
781.58	0.793
781.75	0.785
781.93	0.765
782.11	0.765
782.29	0.747
782.47	0.746
782.65	0.734
782.83	0.766
783.01	0.760
783.19	0.753
783.37	0.736
783.55	0.740
783.72	0.763
783.90	0.774
784.08	0.762
784.26	0.777
784.44	0.798
784.62	0.799
784.80	0.760
784.98	0.765
785.16	0.771
785.33	0.782
785.51	0.765
785.69	0.749
785.87	0.750
786.05	0.766
786.23	0.760
786.41	0.759
786.59	0.767
786.77	0.767
786.94	0.755
787.12	0.759
787.30	0.764
787.48	0.758
787.66	0.745
787.84	0.743
788.02	0.732
788.19	0.730
788.37	0.712
788.55	0.713
788.73	0.716
788.91	0.709
789.09	0.690
789.27	0.679
789.44	0.693
789.62	0.699
789.80	0.709
789.98	0.737
790.16	0.723
790.34	0.720
790.51	0.707
790.69	0.728
790.87	0.737
791.05	0.736
791.23	0.728
791.41	0.728
791.58	0.737
791.76	0.713
791.94	0.680
792.12	0.690
792.30	0.692
792.48	0.688
792.65	0.680
792.83	0.685
793.01	0.692
793.19	0.690
793.37	0.674
793.54	0.670
793.72	0.684
793.90	0.682
794.08	0.668
794.26	0.670
794.43	0.681
794.61	0.663
794.79	0.650
794.97	0.649
795.15	0.656
795.32	0.662
795.50	0.649
795.68	0.644
795.86	0.648
796.04	0.651
796.21	0.642
796.39	0.639
796.57	0.657
796.75	0.666
796.92	0.665
797.10	0.672
797.28	0.672
797.46	0.676
797.64	0.677
797.81	0.685
797.99	0.691
798.17	0.696
798.35	0.691
798.52	0.693
798.70	0.691
798.88	0.700
799.06	0.696
799.23	0.700
799.41	0.710
799.59	0.702
799.77	0.690
799.94	0.699
800.12	0.710
800.30	0.728
800.48	0.725
800.65	0.723
800.83	0.712
801.01	0.704
801.19	0.705
801.36	0.700
801.54	0.704
801.72	0.716
801.90	0.702
802.07	0.697
802.25	0.683
802.43	0.667
802.60	0.663
802.78	0.671
802.96	0.679
803.14	0.668
803.31	0.665
803.49	0.665
803.67	0.661
803.84	0.664
804.02	0.655
804.20	0.659
804.38	0.666
804.55	0.664
804.73	0.647
804.91	0.646
805.08	0.662
805.26	0.659
805.44	0.729
805.61	0.731
805.79	0.731
805.97	0.729
806.15	0.721
806.32	0.715
806.50	0.724
806.68	0.727
806.85	0.717
807.03	0.705
807.21	0.723
807.38	0.649
807.56	0.639
807.74	0.648
807.91	0.655
808.09	0.656
808.27	0.675
808.44	0.704
808.62	0.713
808.80	0.715
808.97	0.709
809.15	0.704
809.33	0.723
809.50	0.730
809.68	0.714
809.86	0.724
810.03	0.759
810.21	0.736
810.39	0.714
810.56	0.718
810.74	0.745
810.91	0.824
811.09	0.811
811.27	0.834
811.44	0.843
811.62	0.847
811.80	0.827
811.97	0.795
812.15	0.795
812.33	0.791
812.50	0.778
812.68	0.765
812.85	0.705
813.03	0.708
813.21	0.672
813.38	0.665
813.56	0.669
813.74	0.678
813.91	0.683
814.09	0.717
814.26	0.708
814.44	0.712
814.62	0.701
814.79	0.704
814.97	0.710
815.14	0.716
815.32	0.720
815.50	0.738
815.67	0.742
815.85	0.736
816.02	0.721
816.20	0.730
816.38	0.746
816.55	0.751
816.73	0.753
816.90	0.763
817.08	0.798
817.26	0.807
817.43	0.782
817.61	0.810
817.78	0.834
817.96	0.812
818.13	0.802
818.31	0.804
818.49	0.819
818.66	0.806
818.84	0.791
819.01	0.767
819.19	0.772
819.36	0.776
819.54	0.744
819.71	0.788
819.89	0.805
820.07	0.819
820.24	0.811
820.42	0.811
820.59	0.834
820.77	0.860
820.94	0.851
821.12	0.875
821.29	0.892
821.47	0.896
821.64	0.821
821.82	0.837
822.00	0.836
822.17	0.838
822.35	0.831
822.52	0.837
822.70	0.825
822.87	0.836
823.05	0.810
823.22	0.828
823.40	0.859
823.57	0.886
823.75	0.864
823.92	0.895
824.10	0.915
824.27	0.967
824.45	0.949
824.62	1.032
824.80	1.056
824.97	1.081
825.15	1.058
825.32	1.079
825.50	1.084
825.67	1.094
825.85	1.066
826.02	1.096
826.20	1.129
826.37	1.335
826.55	1.194
826.72	1.548
826.90	1.740
827.07	2.004
827.25	1.745
827.42	-0.000
827.60	-0.000
827.77	-0.000
827.95	-0.000
828.12	-0.000
828.30	-0.000
828.47	-0.000
828.65	1.847
828.82	2.179
829.00	-0.000
829.17	-0.000
829.34	-0.000
829.52	-0.000
829.69	-0.000
829.87	-0.000
830.04	-0.000
830.22	-0.000
830.39	-0.000
830.57	-0.000
830.74	-0.000
830.92	-0.000
831.09	-0.000
831.26	-0.000
831.44	-0.000
831.61	-0.000
831.79	-0.000
831.96	-0.000
832.14	-0.000
832.31	-0.000
832.49	-0.000
832.66	-0.000
832.83	-0.000
833.01	-0.000
833.18	-0.000
833.36	-0.000
833.53	-0.000
833.70	-0.000
833.88	-0.000
834.05	-0.000
834.23	-0.000
834.40	-0.000
834.58	-0.000
834.75	-0.000
834.92	-0.000
835.10	-0.000
835.27	-0.000
835.45	-0.000
835.62	-0.000
835.79	-0.000
835.97	-0.000
836.14	-0.000
836.32	-0.000
836.49	-0.000
836.66	-0.000
836.84	-0.000
837.01	-0.000
837.18	-0.000
837.36	-0.000
837.53	-0.000
837.71	-0.000
837.88	-0.000
838.05	-0.000
838.23	-0.000
838.40	-0.000
838.58	-0.000
838.75	-0.000
838.92	-0.000
839.10	-0.000
839.27	-0.000
839.44	-0.000
839.62	-0.000
839.79	-0.000
839.96	-0.000
840.14	-0.000
840.31	-0.000
840.48	-0.000
840.66	-0.000
840.83	-0.000
841.01	-0.000
841.18	-0.000
841.35	-0.000
841.53	-0.000
841.70	-0.000
841.87	-0.000
842.05	-0.000
842.22	-0.000
842.39	-0.000
842.57	-0.000
842.74	-0.000
842.91	-0.000
843.09	-0.000
843.26	-0.000
843.43	-0.000
843.60	-0.000
843.78	-0.000
843.95	-0.000
844.12	-0.000
844.30	-0.000
844.47	-0.000
844.64	-0.000
844.82	-0.000
844.99	-0.000
845.16	-0.000
845.34	-0.000
845.51	-0.000
845.68	-0.000
845.85	-0.000
846.03	-0.000
846.20	-0.000
846.37	-0.000
846.55	-0.000
846.72	-0.000
846.89	-0.000
847.06	-0.000
847.24	-0.000
847.41	-0.000
847.58	-0.000
847.76	-0.000
847.93	-0.000
848.10	-0.000
848.27	-0.000
848.45	-0.000
848.62	-0.000
848.79	-0.000
848.97	-0.000
849.14	-0.000
849.31	-0.000
849.48	-0.000
849.66	-0.000
849.83	-0.000
850.00	-0.000
850.17	-0.000
850.35	-0.000
850.52	-0.000
850.69	-0.000
850.86	-0.000
851.04	-0.000
851.21	-0.000
851.38	-0.000
851.55	-0.000
851.72	-0.000
851.90	-0.000
852.07	-0.000
852.24	-0.000
852.41	-0.000
852.59	-0.000
852.76	-0.000
852.93	-0.000
853.10	-0.000
853.28	-0.000
853.45	-0.000
853.62	-0.000
853.79	-0.000
853.96	-0.000
854.14	-0.000
854.31	-0.000
854.48	-0.000
854.65	-0.000
854.82	-0.000
855.00	-0.000
855.17	-0.000
855.34	-0.000
855.51	-0.000
855.68	-0.000
855.86	-0.000
856.03	-0.000
856.20	-0.000
856.37	-0.000
856.54	-0.000
856.72	-0.000
856.89	-0.000
857.06	-0.000
857.23	-0.000
857.40	-0.000
857.57	-0.000
857.75	-0.000
857.92	-0.000
858.09	-0.000
858.26	-0.000
858.43	-0.000
858.60	-0.000
858.78	-0.000
858.95	-0.000
859.12	-0.000
859.29	-0.000
859.46	-0.000
859.63	-0.000
859.81	-0.000
859.98	-0.000
860.15	-0.000
860.32	-0.000
860.49	-0.000
860.66	-0.000
860.83	-0.000
861.01	-0.000
861.18	-0.000
861.35	-0.000
861.52	-0.000
861.69	-0.000
861.86	-0.000
862.03	-0.000
862.21	-0.000
862.38	-0.000
862.55	-0.000
862.72	-0.000
862.89	-0.000
863.06	-0.000
863.23	-0.000
863.40	-0.000
863.58	-0.000
863.75	-0.000
863.92	-0.000
864.09	-0.000
864.26	-0.000
864.43	-0.000
864.60	-0.000
864.77	-0.000
864.94	-0.000
865.11	-0.000
865.29	-0.000
865.46	-0.000
865.63	-0.000
865.80	-0.000
865.97	-0.000
866.14	-0.000
866.31	-0.000
866.48	-0.000
866.65	-0.000
866.82	-0.000
866.99	-0.000
867.16	-0.000
867.34	-0.000
867.51	-0.000
867.68	-0.000
867.85	-0.000
868.02	-0.000
868.19	-0.000
868.36	-0.000
868.53	-0.000
868.70	-0.000
868.87	-0.000
869.04	-0.000
869.21	-0.000
869.38	-0.000
869.55	-0.000
869.72	-0.000
869.89	-0.000
870.06	-0.000
870.24	-0.000
870.41	-0.000
870.58	-0.000
870.75	-0.000
870.92	-0.000
871.09	-0.000
871.26	-0.000
871.43	-0.000
871.60	-0.000
871.77	-0.000
871.94	-0.000
872.11	-0.000
872.28	-0.000
872.45	-0.000
872.62	-0.000
872.79	-0.000
872.96	-0.000
873.13	-0.000
873.30	-0.000
873.47	-0.000
873.64	-0.000
873.81	-0.000
873.98	-0.000
874.15	-0.000
874.32	-0.000
874.49	-0.000
874.66	-0.000
874.83	-0.000
875.00	-0.000
875.17	-0.000
875.34	-0.000
875.51	-0.000
875.68	-0.000
875.85	-0.000
876.02	-0.000
876.19	-0.000
876.36	-0.000
876.53	-0.000
876.70	-0.000
876.87	-0.000
877.04	-0.000
877.21	-0.000
877.38	-0.000
877.55	-0.000
877.72	-0.000
877.89	-0.000
878.06	-0.000
878.23	-0.000
878.39	-0.000
878.56	-0.000
878.73	-0.000
878.90	-0.000
879.07	-0.000
879.24	-0.000
879.41	-0.000
879.58	-0.000
879.75	-0.000
879.92	-0.000
880.09	-0.000
880.26	-0.000
880.43	-0.000
880.60	-0.000
880.77	-0.000
880.94	-0.000
881.11	-0.000
881.27	-0.000
881.44	-0.000
881.61	-0.000
881.78	-0.000
881.95	-0.000
882.12	-0.000
882.29	-0.000
882.46	-0.000
882.63	-0.000
882.80	-0.000
882.97	-0.000
883.14	-0.000
883.30	-0.000
883.47	-0.000
883.64	-0.000
883.81	-0.000
883.98	-0.000
884.15	-0.000
884.32	-0.000
884.49	-0.000
884.66	-0.000
884.82	-0.000
884.99	-0.000
885.16	-0.000
885.33	-0.000
885.50	-0.000
885.67	-0.000
885.84	-0.000
886.01	-0.000
886.17	-0.000
886.34	-0.000
886.51	-0.000
886.68	-0.000
886.85	-0.000
887.02	-0.000
887.19	-0.000
887.36	-0.000
887.52	-0.000
887.69	-0.000
887.86	-0.000
888.03	-0.000
888.20	-0.000
888.37	-0.000
888.54	-0.000
888.70	-0.000
888.87	-0.000
889.04	-0.000
889.21	-0.000
889.38	-0.000
889.55	-0.000
889.71	-0.000
889.88	-0.000
890.05	-0.000
890.22	-0.000
890.39	-0.000
>>>>>End Processed Spectral Data<<<<<
