SpectraSuite Data File
++++++++++++++++++++++++++++++++++++
Date: Fri Jun 19 15:13:11 CEST 2015
User: introlabs
Dark Spectrum Present: Yes
Reference Spectrum Present: Yes
Number of Sampled Component Spectra: 1
Spectrometers: USB4H08886
Integration Time (usec): 745692 (USB4H08886)
Spectra Averaged: 5 (USB4H08886)
Boxcar Smoothing: 5 (USB4H08886)
Correct for Electrical Dark: Yes (USB4H08886)
Strobe/Lamp Enabled: No (USB4H08886)
Correct for Detector Non-linearity: Yes (USB4H08886)
Correct for Stray Light: Yes (USB4H08886)
Number of Pixels in Processed Spectrum: 3648
>>>>>Begin Processed Spectral Data<<<<<
178.14	-0.000
178.36	-0.000
178.57	-0.000
178.79	-0.000
179.01	-0.000
179.22	-0.000
179.44	-0.000
179.65	-0.000
179.87	-0.000
180.08	-0.000
180.30	-0.000
180.52	-0.000
180.73	-0.000
180.95	-0.000
181.16	-0.000
181.38	-0.000
181.59	-0.000
181.81	-0.000
182.03	-0.000
182.24	-0.000
182.46	-0.000
182.67	-0.000
182.89	-0.000
183.10	-0.000
183.32	-0.000
183.54	-0.000
183.75	-0.000
183.97	-0.000
184.18	-0.000
184.40	-0.000
184.61	-0.000
184.83	-0.000
185.04	-0.000
185.26	-0.000
185.48	-0.000
185.69	-0.000
185.91	-0.000
186.12	-0.000
186.34	-0.000
186.55	-0.000
186.77	-0.000
186.98	-0.000
187.20	-0.000
187.42	-0.000
187.63	-0.000
187.85	-0.000
188.06	-0.000
188.28	-0.000
188.49	-0.000
188.71	-0.000
188.92	-0.000
189.14	-0.000
189.36	-0.000
189.57	-0.000
189.79	-0.000
190.00	-0.000
190.22	-0.000
190.43	-0.000
190.65	-0.000
190.86	-0.000
191.08	-0.000
191.29	-0.000
191.51	-0.000
191.72	-0.000
191.94	-0.000
192.16	-0.000
192.37	-0.000
192.59	-0.000
192.80	-0.000
193.02	-0.000
193.23	-0.000
193.45	-0.000
193.66	-0.000
193.88	-0.000
194.09	-0.000
194.31	-0.000
194.52	-0.000
194.74	-0.000
194.95	-0.000
195.17	-0.000
195.38	-0.000
195.60	-0.000
195.81	-0.000
196.03	-0.000
196.25	-0.000
196.46	-0.000
196.68	-0.000
196.89	-0.000
197.11	-0.000
197.32	-0.000
197.54	-0.000
197.75	-0.000
197.97	-0.000
198.18	-0.000
198.40	-0.000
198.61	-0.000
198.83	-0.000
199.04	-0.000
199.26	-0.000
199.47	-0.000
199.69	-0.000
199.90	-0.000
200.12	-0.000
200.33	-0.000
200.55	-0.000
200.76	-0.000
200.98	-0.000
201.19	-0.000
201.41	-0.000
201.62	-0.000
201.84	-0.000
202.05	-0.000
202.27	-0.000
202.48	-0.000
202.70	-0.000
202.91	-0.000
203.13	-0.000
203.34	-0.000
203.56	-0.000
203.77	-0.000
203.99	-0.000
204.20	-0.000
204.42	-0.000
204.63	-0.000
204.85	-0.000
205.06	-0.000
205.28	-0.000
205.49	-0.000
205.71	-0.000
205.92	-0.000
206.14	-0.000
206.35	-0.000
206.56	-0.000
206.78	-0.000
206.99	-0.000
207.21	-0.000
207.42	-0.000
207.64	-0.000
207.85	-0.000
208.07	-0.000
208.28	-0.000
208.50	-0.000
208.71	-0.000
208.93	-0.000
209.14	-0.000
209.36	-0.000
209.57	-0.000
209.79	-0.000
210.00	-0.000
210.22	-0.000
210.43	-0.000
210.64	-0.000
210.86	-0.000
211.07	-0.000
211.29	-0.000
211.50	-0.000
211.72	-0.000
211.93	-0.000
212.15	-0.000
212.36	-0.000
212.58	-0.000
212.79	-0.000
213.01	-0.000
213.22	-0.000
213.43	-0.000
213.65	-0.000
213.86	-0.000
214.08	-0.000
214.29	-0.000
214.51	-0.000
214.72	-0.000
214.94	-0.000
215.15	-0.000
215.36	-0.000
215.58	-0.000
215.79	-0.000
216.01	-0.000
216.22	-0.000
216.44	-0.000
216.65	-0.000
216.87	-0.000
217.08	-0.000
217.29	-0.000
217.51	-0.000
217.72	-0.000
217.94	-0.000
218.15	-0.000
218.37	-0.000
218.58	-0.000
218.80	-0.000
219.01	-0.000
219.22	-0.000
219.44	-0.000
219.65	-0.000
219.87	-0.000
220.08	-0.000
220.30	-0.000
220.51	-0.000
220.72	-0.000
220.94	-0.000
221.15	-0.000
221.37	-0.000
221.58	-0.000
221.79	-0.000
222.01	-0.000
222.22	-0.000
222.44	-0.000
222.65	-0.000
222.87	-0.000
223.08	-0.000
223.29	-0.000
223.51	-0.000
223.72	-0.000
223.94	-0.000
224.15	-0.000
224.36	-0.000
224.58	-0.000
224.79	-0.000
225.01	-0.000
225.22	-0.000
225.44	-0.000
225.65	-0.000
225.86	-0.000
226.08	-0.000
226.29	-0.000
226.51	-0.000
226.72	-0.000
226.93	-0.000
227.15	-0.000
227.36	-0.000
227.58	-0.000
227.79	-0.000
228.00	-0.000
228.22	-0.000
228.43	-0.000
228.65	-0.000
228.86	-0.000
229.07	-0.000
229.29	-0.000
229.50	-0.000
229.72	-0.000
229.93	-0.000
230.14	-0.000
230.36	-0.000
230.57	-0.000
230.78	-0.000
231.00	-0.000
231.21	-0.000
231.43	-0.000
231.64	-0.000
231.85	-0.000
232.07	-0.000
232.28	-0.000
232.50	-0.000
232.71	-0.000
232.92	-0.000
233.14	-0.000
233.35	-0.000
233.56	-0.000
233.78	-0.000
233.99	-0.000
234.21	-0.000
234.42	-0.000
234.63	-0.000
234.85	-0.000
235.06	-0.000
235.27	-0.000
235.49	-0.000
235.70	-0.000
235.91	-0.000
236.13	-0.000
236.34	-0.000
236.56	-0.000
236.77	-0.000
236.98	-0.000
237.20	-0.000
237.41	-0.000
237.62	-0.000
237.84	-0.000
238.05	-0.000
238.26	-0.000
238.48	-0.000
238.69	-0.000
238.91	-0.000
239.12	-0.000
239.33	-0.000
239.55	-0.000
239.76	-0.000
239.97	-0.000
240.19	-0.000
240.40	-0.000
240.61	-0.000
240.83	-0.000
241.04	-0.000
241.25	-0.000
241.47	-0.000
241.68	-0.000
241.89	-0.000
242.11	-0.000
242.32	-0.000
242.53	-0.000
242.75	-0.000
242.96	-0.000
243.17	-0.000
243.39	-0.000
243.60	-0.000
243.81	-0.000
244.03	-0.000
244.24	-0.000
244.45	-0.000
244.67	-0.000
244.88	-0.000
245.09	-0.000
245.31	-0.000
245.52	-0.000
245.73	-0.000
245.95	-0.000
246.16	-0.000
246.37	-0.000
246.59	-0.000
246.80	-0.000
247.01	-0.000
247.23	-0.000
247.44	-0.000
247.65	-0.000
247.87	-0.000
248.08	-0.000
248.29	-0.000
248.51	-0.000
248.72	-0.000
248.93	-0.000
249.15	-0.000
249.36	-0.000
249.57	-0.000
249.78	-0.000
250.00	-0.000
250.21	-0.000
250.42	-0.000
250.64	-0.000
250.85	-0.000
251.06	-0.000
251.28	-0.000
251.49	-0.000
251.70	-0.000
251.92	-0.000
252.13	-0.000
252.34	-0.000
252.55	-0.000
252.77	-0.000
252.98	-0.000
253.19	-0.000
253.41	-0.000
253.62	-0.000
253.83	-0.000
254.05	-0.000
254.26	-0.000
254.47	-0.000
254.68	-0.000
254.90	-0.000
255.11	-0.000
255.32	-0.000
255.54	-0.000
255.75	-0.000
255.96	-0.000
256.17	-0.000
256.39	-0.000
256.60	-0.000
256.81	-0.000
257.03	-0.000
257.24	-0.000
257.45	-0.000
257.66	-0.000
257.88	-0.000
258.09	-0.000
258.30	-0.000
258.51	-0.000
258.73	-0.000
258.94	-0.000
259.15	-0.000
259.37	-0.000
259.58	-0.000
259.79	-0.000
260.00	-0.000
260.22	-0.000
260.43	-0.000
260.64	-0.000
260.85	-0.000
261.07	-0.000
261.28	-0.000
261.49	-0.000
261.71	-0.000
261.92	-0.000
262.13	-0.000
262.34	-0.000
262.56	-0.000
262.77	-0.000
262.98	-0.000
263.19	-0.000
263.41	-0.000
263.62	-0.000
263.83	-0.000
264.04	-0.000
264.26	-0.000
264.47	-0.000
264.68	-0.000
264.89	-0.000
265.11	-0.000
265.32	-0.000
265.53	-0.000
265.74	-0.000
265.96	-0.000
266.17	-0.000
266.38	-0.000
266.59	-0.000
266.81	-0.000
267.02	-0.000
267.23	-0.000
267.44	-0.000
267.65	-0.000
267.87	-0.000
268.08	-0.000
268.29	-0.000
268.50	-0.000
268.72	-0.000
268.93	-0.000
269.14	-0.000
269.35	-0.000
269.57	-0.000
269.78	-0.000
269.99	-0.000
270.20	-0.000
270.41	-0.000
270.63	-0.000
270.84	-0.000
271.05	-0.000
271.26	-0.000
271.48	-0.000
271.69	-0.000
271.90	-0.000
272.11	-0.000
272.32	-0.000
272.54	-0.000
272.75	-0.000
272.96	-0.000
273.17	-0.000
273.39	-0.000
273.60	-0.000
273.81	-0.000
274.02	-0.000
274.23	-0.000
274.45	-0.000
274.66	-0.000
274.87	-0.000
275.08	-0.000
275.29	-0.000
275.51	-0.000
275.72	-0.000
275.93	-0.000
276.14	-0.000
276.35	-0.000
276.57	-0.000
276.78	-0.000
276.99	-0.000
277.20	-0.000
277.41	-0.000
277.63	-0.000
277.84	-0.000
278.05	-0.000
278.26	-0.000
278.47	-0.000
278.69	-0.000
278.90	-0.000
279.11	-0.000
279.32	-0.000
279.53	-0.000
279.74	-0.000
279.96	-0.000
280.17	-0.000
280.38	-0.000
280.59	-0.000
280.80	-0.000
281.02	-0.000
281.23	-0.000
281.44	-0.000
281.65	-0.000
281.86	-0.000
282.07	-0.000
282.29	-0.000
282.50	-0.000
282.71	-0.000
282.92	-0.000
283.13	-0.000
283.35	-0.000
283.56	-0.000
283.77	-0.000
283.98	-0.000
284.19	-0.000
284.40	-0.000
284.62	-0.000
284.83	-0.000
285.04	-0.000
285.25	-0.000
285.46	-0.000
285.67	-0.000
285.88	-0.000
286.10	-0.000
286.31	-0.000
286.52	-0.000
286.73	-0.000
286.94	-0.000
287.15	-0.000
287.37	-0.000
287.58	-0.000
287.79	-0.000
288.00	-0.000
288.21	-0.000
288.42	-0.000
288.63	-0.000
288.85	-0.000
289.06	-0.000
289.27	-0.000
289.48	-0.000
289.69	-0.000
289.90	-0.000
290.11	-0.000
290.33	-0.000
290.54	-0.000
290.75	-0.000
290.96	-0.000
291.17	-0.000
291.38	-0.000
291.59	-0.000
291.81	-0.000
292.02	-0.000
292.23	-0.000
292.44	-0.000
292.65	-0.000
292.86	-0.000
293.07	-0.000
293.28	-0.000
293.50	-0.000
293.71	-0.000
293.92	-0.000
294.13	-0.000
294.34	-0.000
294.55	-0.000
294.76	-0.000
294.97	-0.000
295.19	-0.000
295.40	-0.000
295.61	-0.000
295.82	-0.000
296.03	-0.000
296.24	-0.000
296.45	2.084
296.66	1.769
296.87	1.786
297.09	1.857
297.30	2.061
297.51	1.717
297.72	1.698
297.93	1.784
298.14	1.744
298.35	1.702
298.56	1.689
298.77	1.810
298.99	1.782
299.20	1.759
299.41	1.719
299.62	1.670
299.83	1.665
300.04	1.604
300.25	1.593
300.46	1.634
300.67	1.597
300.88	1.544
301.10	1.545
301.31	1.608
301.52	1.550
301.73	1.507
301.94	1.507
302.15	1.514
302.36	1.472
302.57	1.415
302.78	1.422
302.99	1.467
303.20	1.487
303.41	1.404
303.63	1.389
303.84	1.395
304.05	1.392
304.26	1.338
304.47	1.345
304.68	1.344
304.89	1.331
305.10	1.293
305.31	1.277
305.52	1.321
305.73	1.312
305.94	1.275
306.15	1.264
306.37	1.283
306.58	1.291
306.79	1.263
307.00	1.286
307.21	1.325
307.42	1.320
307.63	1.288
307.84	1.255
308.05	1.290
308.26	1.290
308.47	1.271
308.68	1.264
308.89	1.261
309.10	1.260
309.31	1.222
309.52	1.215
309.73	1.227
309.95	1.222
310.16	1.192
310.37	1.181
310.58	1.195
310.79	1.195
311.00	1.194
311.21	1.198
311.42	1.199
311.63	1.192
311.84	1.175
312.05	1.173
312.26	1.195
312.47	1.208
312.68	1.187
312.89	1.170
313.10	1.175
313.31	1.150
313.52	1.148
313.73	1.145
313.94	1.147
314.15	1.130
314.36	1.110
314.57	1.102
314.78	1.088
314.99	1.082
315.21	1.073
315.42	1.075
315.63	1.087
315.84	1.068
316.05	1.058
316.26	1.064
316.47	1.083
316.68	1.079
316.89	1.063
317.10	1.083
317.31	1.088
317.52	1.089
317.73	1.071
317.94	1.070
318.15	1.113
318.36	1.112
318.57	1.096
318.78	1.081
318.99	1.115
319.20	1.109
319.41	1.077
319.62	1.078
319.83	1.090
320.04	1.083
320.25	1.071
320.46	1.037
320.67	1.037
320.88	1.035
321.09	1.023
321.30	1.010
321.51	1.026
321.72	1.024
321.93	1.009
322.14	1.002
322.35	1.029
322.56	1.031
322.77	1.020
322.98	1.031
323.19	1.037
323.40	1.044
323.61	1.023
323.82	1.017
324.03	1.021
324.24	1.020
324.45	1.007
324.66	0.988
324.87	0.983
325.08	0.982
325.29	0.965
325.50	0.957
325.71	0.961
325.92	0.969
326.13	0.955
326.34	0.956
326.55	0.963
326.76	0.962
326.97	0.953
327.18	0.948
327.39	0.972
327.60	0.974
327.80	0.976
328.01	0.974
328.22	0.973
328.43	0.976
328.64	0.966
328.85	0.970
329.06	0.971
329.27	0.970
329.48	0.967
329.69	0.946
329.90	0.955
330.11	0.948
330.32	0.942
330.53	0.936
330.74	0.935
330.95	0.932
331.16	0.918
331.37	0.926
331.58	0.926
331.79	0.925
332.00	0.920
332.21	0.912
332.42	0.917
332.63	0.910
332.83	0.906
333.04	0.908
333.25	0.920
333.46	0.917
333.67	0.904
333.88	0.906
334.09	0.916
334.30	0.913
334.51	0.905
334.72	0.899
334.93	0.900
335.14	0.899
335.35	0.893
335.56	0.889
335.77	0.897
335.98	0.895
336.18	0.890
336.39	0.882
336.60	0.886
336.81	0.884
337.02	0.884
337.23	0.888
337.44	0.891
337.65	0.891
337.86	0.882
338.07	0.877
338.28	0.881
338.49	0.878
338.70	0.871
338.91	0.876
339.11	0.883
339.32	0.880
339.53	0.871
339.74	0.869
339.95	0.864
340.16	0.862
340.37	0.856
340.58	0.854
340.79	0.857
341.00	0.857
341.21	0.849
341.41	0.849
341.62	0.850
341.83	0.850
342.04	0.844
342.25	0.855
342.46	0.859
342.67	0.858
342.88	0.852
343.09	0.851
343.30	0.857
343.50	0.859
343.71	0.850
343.92	0.848
344.13	0.852
344.34	0.850
344.55	0.834
344.76	0.834
344.97	0.838
345.18	0.836
345.38	0.835
345.59	0.828
345.80	0.828
346.01	0.827
346.22	0.824
346.43	0.818
346.64	0.826
346.85	0.826
347.06	0.819
347.26	0.819
347.47	0.822
347.68	0.817
347.89	0.814
348.10	0.809
348.31	0.815
348.52	0.814
348.73	0.813
348.93	0.811
349.14	0.812
349.35	0.812
349.56	0.806
349.77	0.802
349.98	0.807
350.19	0.805
350.39	0.801
350.60	0.797
350.81	0.812
351.02	0.810
351.23	0.806
351.44	0.809
351.65	0.811
351.86	0.810
352.06	0.808
352.27	0.808
352.48	0.809
352.69	0.809
352.90	0.804
353.11	0.790
353.31	0.797
353.52	0.793
353.73	0.785
353.94	0.786
354.15	0.791
354.36	0.790
354.57	0.782
354.77	0.784
354.98	0.783
355.19	0.783
355.40	0.782
355.61	0.787
355.82	0.791
356.02	0.790
356.23	0.783
356.44	0.784
356.65	0.788
356.86	0.789
357.07	0.783
357.27	0.786
357.48	0.788
357.69	0.784
357.90	0.769
358.11	0.766
358.32	0.770
358.52	0.772
358.73	0.764
358.94	0.766
359.15	0.770
359.36	0.769
359.56	0.765
359.77	0.763
359.98	0.770
360.19	0.770
360.40	0.767
360.61	0.768
360.81	0.767
361.02	0.768
361.23	0.759
361.44	0.758
361.65	0.758
361.85	0.757
362.06	0.755
362.27	0.757
362.48	0.757
362.69	0.759
362.89	0.753
363.10	0.754
363.31	0.757
363.52	0.760
363.73	0.755
363.93	0.756
364.14	0.757
364.35	0.758
364.56	0.748
364.77	0.749
364.97	0.750
365.18	0.751
365.39	0.746
365.60	0.743
365.81	0.745
366.01	0.745
366.22	0.741
366.43	0.741
366.64	0.743
366.84	0.748
367.05	0.746
367.26	0.745
367.47	0.747
367.68	0.748
367.88	0.745
368.09	0.743
368.30	0.745
368.51	0.744
368.71	0.744
368.92	0.748
369.13	0.745
369.34	0.744
369.55	0.744
369.75	0.743
369.96	0.749
370.17	0.748
370.38	0.745
370.58	0.744
370.79	0.750
371.00	0.748
371.21	0.740
371.41	0.745
371.62	0.749
371.83	0.744
372.04	0.742
372.24	0.736
372.45	0.736
372.66	0.737
372.87	0.734
373.07	0.731
373.28	0.732
373.49	0.735
373.70	0.727
373.90	0.726
374.11	0.736
374.32	0.735
374.53	0.734
374.73	0.735
374.94	0.738
375.15	0.736
375.36	0.734
375.56	0.744
375.77	0.744
375.98	0.745
376.19	0.743
376.39	0.736
376.60	0.739
376.81	0.740
377.02	0.738
377.22	0.736
377.43	0.738
377.64	0.737
377.84	0.728
378.05	0.732
378.26	0.737
378.47	0.736
378.67	0.733
378.88	0.730
379.09	0.731
379.30	0.731
379.50	0.729
379.71	0.730
379.92	0.733
380.12	0.733
380.33	0.725
380.54	0.721
380.75	0.728
380.95	0.728
381.16	0.727
381.37	0.727
381.57	0.728
381.78	0.729
381.99	0.729
382.20	0.729
382.40	0.731
382.61	0.731
382.82	0.728
383.02	0.721
383.23	0.724
383.44	0.724
383.64	0.723
383.85	0.725
384.06	0.727
384.27	0.725
384.47	0.723
384.68	0.724
384.89	0.729
385.09	0.729
385.30	0.730
385.51	0.729
385.71	0.731
385.92	0.731
386.13	0.730
386.33	0.733
386.54	0.734
386.75	0.732
386.95	0.729
387.16	0.724
387.37	0.726
387.58	0.726
387.78	0.724
387.99	0.722
388.20	0.725
388.40	0.722
388.61	0.717
388.82	0.721
389.02	0.724
389.23	0.724
389.44	0.723
389.64	0.723
389.85	0.734
390.06	0.734
390.26	0.734
390.47	0.733
390.68	0.736
390.88	0.735
391.09	0.730
391.30	0.729
391.50	0.729
391.71	0.730
391.92	0.727
392.12	0.719
392.33	0.720
392.53	0.720
392.74	0.721
392.95	0.720
393.15	0.722
393.36	0.724
393.57	0.722
393.77	0.725
393.98	0.727
394.19	0.727
394.39	0.727
394.60	0.728
394.81	0.729
395.01	0.727
395.22	0.726
395.43	0.726
395.63	0.730
395.84	0.732
396.04	0.729
396.25	0.730
396.46	0.732
396.66	0.730
396.87	0.728
397.08	0.726
397.28	0.728
397.49	0.729
397.69	0.726
397.90	0.722
398.11	0.723
398.31	0.723
398.52	0.719
398.73	0.721
398.93	0.719
399.14	0.719
399.34	0.718
399.55	0.719
399.76	0.719
399.96	0.719
400.17	0.717
400.37	0.716
400.58	0.722
400.79	0.724
400.99	0.722
401.20	0.728
401.41	0.730
401.61	0.731
401.82	0.736
402.02	0.736
402.23	0.737
402.44	0.737
402.64	0.738
402.85	0.732
403.05	0.731
403.26	0.730
403.47	0.724
403.67	0.723
403.88	0.723
404.08	0.717
404.29	0.716
404.50	0.715
404.70	0.716
404.91	0.715
405.11	0.712
405.32	0.713
405.52	0.713
405.73	0.713
405.94	0.712
406.14	0.715
406.35	0.717
406.55	0.716
406.76	0.714
406.97	0.714
407.17	0.717
407.38	0.717
407.58	0.715
407.79	0.717
407.99	0.720
408.20	0.720
408.41	0.716
408.61	0.714
408.82	0.716
409.02	0.715
409.23	0.714
409.43	0.712
409.64	0.713
409.84	0.713
410.05	0.710
410.26	0.708
410.46	0.708
410.67	0.708
410.87	0.710
411.08	0.711
411.28	0.713
411.49	0.714
411.69	0.712
411.90	0.713
412.11	0.714
412.31	0.716
412.52	0.715
412.72	0.716
412.93	0.716
413.13	0.714
413.34	0.711
413.54	0.712
413.75	0.714
413.95	0.714
414.16	0.711
414.37	0.714
414.57	0.714
414.78	0.716
414.98	0.714
415.19	0.715
415.39	0.713
415.60	0.715
415.80	0.714
416.01	0.712
416.21	0.714
416.42	0.714
416.62	0.709
416.83	0.709
417.03	0.708
417.24	0.708
417.44	0.706
417.65	0.706
417.86	0.706
418.06	0.704
418.27	0.702
418.47	0.704
418.68	0.704
418.88	0.705
419.09	0.703
419.29	0.704
419.50	0.704
419.70	0.704
419.91	0.703
420.11	0.700
420.32	0.703
420.52	0.702
420.73	0.701
420.93	0.702
421.14	0.703
421.34	0.702
421.55	0.700
421.75	0.700
421.96	0.701
422.16	0.702
422.37	0.701
422.57	0.698
422.78	0.700
422.98	0.697
423.19	0.695
423.39	0.693
423.60	0.696
423.80	0.697
424.01	0.696
424.21	0.698
424.42	0.698
424.62	0.698
424.83	0.697
425.03	0.697
425.23	0.699
425.44	0.699
425.64	0.699
425.85	0.698
426.05	0.698
426.26	0.698
426.46	0.695
426.67	0.694
426.87	0.698
427.08	0.699
427.28	0.697
427.49	0.698
427.69	0.698
427.90	0.697
428.10	0.695
428.31	0.695
428.51	0.697
428.71	0.696
428.92	0.697
429.12	0.695
429.33	0.695
429.53	0.698
429.74	0.703
429.94	0.703
430.15	0.703
430.35	0.703
430.56	0.700
430.76	0.699
430.96	0.700
431.17	0.697
431.37	0.694
431.58	0.692
431.78	0.688
431.99	0.681
432.19	0.683
432.40	0.684
432.60	0.684
432.80	0.686
433.01	0.684
433.21	0.684
433.42	0.686
433.62	0.686
433.83	0.686
434.03	0.689
434.23	0.692
434.44	0.691
434.64	0.689
434.85	0.694
435.05	0.695
435.26	0.696
435.46	0.694
435.66	0.694
435.87	0.694
436.07	0.694
436.28	0.690
436.48	0.686
436.69	0.685
436.89	0.685
437.09	0.679
437.30	0.678
437.50	0.678
437.71	0.689
437.91	0.689
438.11	0.690
438.32	0.694
438.52	0.695
438.73	0.694
438.93	0.693
439.13	0.693
439.34	0.697
439.54	0.694
439.75	0.695
439.95	0.685
440.15	0.689
440.36	0.688
440.56	0.685
440.77	0.686
440.97	0.685
441.17	0.684
441.38	0.685
441.58	0.682
441.79	0.682
441.99	0.681
442.19	0.680
442.40	0.677
442.60	0.677
442.81	0.675
443.01	0.675
443.21	0.676
443.42	0.676
443.62	0.674
443.82	0.673
444.03	0.674
444.23	0.673
444.44	0.674
444.64	0.673
444.84	0.674
445.05	0.673
445.25	0.671
445.45	0.671
445.66	0.673
445.86	0.672
446.06	0.673
446.27	0.673
446.47	0.676
446.68	0.674
446.88	0.674
447.08	0.673
447.29	0.675
447.49	0.675
447.69	0.674
447.90	0.673
448.10	0.676
448.30	0.674
448.51	0.675
448.71	0.672
448.91	0.675
449.12	0.673
449.32	0.674
449.52	0.673
449.73	0.677
449.93	0.676
450.14	0.676
450.34	0.675
450.54	0.677
450.75	0.674
450.95	0.674
451.15	0.673
451.36	0.675
451.56	0.672
451.76	0.671
451.97	0.668
452.17	0.669
452.37	0.668
452.58	0.664
452.78	0.664
452.98	0.666
453.19	0.665
453.39	0.666
453.59	0.665
453.79	0.666
454.00	0.666
454.20	0.665
454.40	0.665
454.61	0.667
454.81	0.667
455.01	0.666
455.22	0.667
455.42	0.668
455.62	0.666
455.83	0.666
456.03	0.669
456.23	0.670
456.44	0.670
456.64	0.669
456.84	0.669
457.04	0.670
457.25	0.669
457.45	0.666
457.65	0.665
457.86	0.666
458.06	0.665
458.26	0.661
458.47	0.659
458.67	0.661
458.87	0.661
459.07	0.659
459.28	0.661
459.48	0.662
459.68	0.662
459.89	0.662
460.09	0.660
460.29	0.662
460.49	0.663
460.70	0.663
460.90	0.662
461.10	0.663
461.31	0.662
461.51	0.659
461.71	0.661
461.91	0.662
462.12	0.662
462.32	0.660
462.52	0.661
462.72	0.664
462.93	0.664
463.13	0.663
463.33	0.663
463.53	0.665
463.74	0.665
463.94	0.661
464.14	0.662
464.35	0.663
464.55	0.663
464.75	0.661
464.95	0.659
465.16	0.660
465.36	0.659
465.56	0.659
465.76	0.658
465.97	0.658
466.17	0.659
466.37	0.656
466.57	0.657
466.78	0.657
466.98	0.657
467.18	0.656
467.38	0.654
467.59	0.655
467.79	0.657
467.99	0.656
468.19	0.657
468.39	0.659
468.60	0.659
468.80	0.658
469.00	0.659
469.20	0.661
469.41	0.661
469.61	0.661
469.81	0.661
470.01	0.660
470.22	0.661
470.42	0.660
470.62	0.658
470.82	0.659
471.02	0.659
471.23	0.657
471.43	0.657
471.63	0.659
471.83	0.658
472.04	0.657
472.24	0.656
472.44	0.661
472.64	0.661
472.84	0.659
473.05	0.659
473.25	0.661
473.45	0.661
473.65	0.659
473.85	0.659
474.06	0.660
474.26	0.660
474.46	0.661
474.66	0.657
474.86	0.658
475.07	0.658
475.27	0.656
475.47	0.654
475.67	0.654
475.87	0.657
476.08	0.654
476.28	0.655
476.48	0.656
476.68	0.654
476.88	0.652
477.09	0.653
477.29	0.655
477.49	0.655
477.69	0.655
477.89	0.655
478.09	0.654
478.30	0.656
478.50	0.654
478.70	0.653
478.90	0.654
479.10	0.656
479.31	0.657
479.51	0.656
479.71	0.656
479.91	0.656
480.11	0.654
480.31	0.655
480.52	0.653
480.72	0.653
480.92	0.652
481.12	0.651
481.32	0.649
481.52	0.647
481.72	0.647
481.93	0.651
482.13	0.651
482.33	0.651
482.53	0.649
482.73	0.650
482.93	0.651
483.14	0.650
483.34	0.650
483.54	0.650
483.74	0.649
483.94	0.649
484.14	0.645
484.34	0.645
484.55	0.645
484.75	0.645
484.95	0.643
485.15	0.642
485.35	0.642
485.55	0.642
485.75	0.640
485.96	0.640
486.16	0.642
486.36	0.641
486.56	0.639
486.76	0.639
486.96	0.639
487.16	0.639
487.36	0.637
487.57	0.637
487.77	0.637
487.97	0.638
488.17	0.636
488.37	0.634
488.57	0.635
488.77	0.635
488.97	0.633
489.18	0.633
489.38	0.635
489.58	0.636
489.78	0.636
489.98	0.635
490.18	0.635
490.38	0.636
490.58	0.635
490.78	0.636
490.98	0.638
491.19	0.639
491.39	0.638
491.59	0.637
491.79	0.640
491.99	0.640
492.19	0.640
492.39	0.643
492.59	0.642
492.79	0.644
492.99	0.644
493.20	0.644
493.40	0.644
493.60	0.646
493.80	0.644
494.00	0.642
494.20	0.643
494.40	0.642
494.60	0.640
494.80	0.644
495.00	0.643
495.20	0.641
495.40	0.640
495.61	0.641
495.81	0.641
496.01	0.644
496.21	0.646
496.41	0.645
496.61	0.646
496.81	0.644
497.01	0.640
497.21	0.639
497.41	0.640
497.61	0.639
497.81	0.637
498.01	0.637
498.21	0.635
498.41	0.632
498.61	0.632
498.82	0.633
499.02	0.636
499.22	0.636
499.42	0.636
499.62	0.637
499.82	0.638
500.02	0.639
500.22	0.637
500.42	0.640
500.62	0.641
500.82	0.641
501.02	0.639
501.22	0.639
501.42	0.639
501.62	0.641
501.82	0.640
502.02	0.640
502.22	0.639
502.42	0.641
502.62	0.638
502.82	0.639
503.02	0.639
503.22	0.639
503.42	0.637
503.63	0.638
503.83	0.636
504.03	0.635
504.23	0.633
504.43	0.634
504.63	0.635
504.83	0.635
505.03	0.634
505.23	0.636
505.43	0.637
505.63	0.638
505.83	0.637
506.03	0.638
506.23	0.641
506.43	0.641
506.63	0.640
506.83	0.639
507.03	0.640
507.23	0.640
507.43	0.638
507.63	0.638
507.83	0.638
508.03	0.639
508.23	0.638
508.43	0.636
508.63	0.638
508.83	0.638
509.03	0.639
509.23	0.638
509.43	0.640
509.63	0.640
509.83	0.639
510.03	0.642
510.23	0.643
510.43	0.644
510.63	0.645
510.83	0.645
511.03	0.646
511.23	0.643
511.43	0.643
511.63	0.644
511.83	0.646
512.03	0.645
512.22	0.642
512.42	0.642
512.62	0.642
512.82	0.641
513.02	0.641
513.22	0.640
513.42	0.643
513.62	0.645
513.82	0.644
514.02	0.643
514.22	0.645
514.42	0.645
514.62	0.644
514.82	0.644
515.02	0.647
515.22	0.650
515.42	0.649
515.62	0.651
515.82	0.650
516.02	0.651
516.22	0.651
516.42	0.652
516.62	0.654
516.82	0.655
517.01	0.653
517.21	0.653
517.41	0.656
517.61	0.657
517.81	0.653
518.01	0.653
518.21	0.653
518.41	0.651
518.61	0.651
518.81	0.651
519.01	0.652
519.21	0.652
519.41	0.651
519.61	0.646
519.81	0.649
520.00	0.649
520.20	0.650
520.40	0.653
520.60	0.654
520.80	0.652
521.00	0.653
521.20	0.654
521.40	0.659
521.60	0.659
521.80	0.658
522.00	0.658
522.20	0.660
522.39	0.659
522.59	0.656
522.79	0.657
522.99	0.660
523.19	0.658
523.39	0.656
523.59	0.654
523.79	0.656
523.99	0.658
524.19	0.658
524.38	0.656
524.58	0.657
524.78	0.657
524.98	0.656
525.18	0.658
525.38	0.659
525.58	0.659
525.78	0.657
525.98	0.656
526.18	0.656
526.37	0.655
526.57	0.657
526.77	0.657
526.97	0.658
527.17	0.658
527.37	0.654
527.57	0.656
527.77	0.658
527.96	0.658
528.16	0.656
528.36	0.657
528.56	0.659
528.76	0.657
528.96	0.655
529.16	0.657
529.36	0.660
529.55	0.660
529.75	0.657
529.95	0.657
530.15	0.658
530.35	0.661
530.55	0.658
530.75	0.659
530.94	0.660
531.14	0.661
531.34	0.660
531.54	0.659
531.74	0.662
531.94	0.665
532.13	0.663
532.33	0.665
532.53	0.663
532.73	0.663
532.93	0.662
533.13	0.663
533.33	0.662
533.52	0.663
533.72	0.666
533.92	0.664
534.12	0.662
534.32	0.662
534.52	0.661
534.71	0.663
534.91	0.665
535.11	0.667
535.31	0.665
535.51	0.667
535.71	0.668
535.90	0.665
536.10	0.666
536.30	0.668
536.50	0.668
536.70	0.668
536.89	0.666
537.09	0.666
537.29	0.667
537.49	0.668
537.69	0.667
537.89	0.667
538.08	0.667
538.28	0.666
538.48	0.666
538.68	0.667
538.88	0.669
539.07	0.669
539.27	0.668
539.47	0.666
539.67	0.666
539.87	0.667
540.06	0.665
540.26	0.666
540.46	0.667
540.66	0.665
540.86	0.663
541.05	0.663
541.25	0.665
541.45	0.665
541.65	0.665
541.84	0.666
542.04	0.667
542.24	0.668
542.44	0.667
542.64	0.668
542.83	0.671
543.03	0.671
543.23	0.669
543.43	0.670
543.62	0.670
543.82	0.670
544.02	0.669
544.22	0.669
544.42	0.672
544.61	0.671
544.81	0.669
545.01	0.668
545.21	0.670
545.40	0.671
545.60	0.669
545.80	0.673
546.00	0.673
546.19	0.673
546.39	0.672
546.59	0.669
546.79	0.670
546.98	0.670
547.18	0.670
547.38	0.670
547.58	0.672
547.77	0.672
547.97	0.668
548.17	0.670
548.37	0.671
548.56	0.671
548.76	0.671
548.96	0.673
549.16	0.675
549.35	0.674
549.55	0.672
549.75	0.673
549.95	0.676
550.14	0.676
550.34	0.674
550.54	0.678
550.73	0.682
550.93	0.682
551.13	0.679
551.33	0.678
551.52	0.679
551.72	0.679
551.92	0.677
552.12	0.678
552.31	0.679
552.51	0.679
552.71	0.675
552.90	0.675
553.10	0.676
553.30	0.676
553.50	0.676
553.69	0.677
553.89	0.677
554.09	0.677
554.28	0.674
554.48	0.675
554.68	0.676
554.87	0.676
555.07	0.673
555.27	0.673
555.47	0.674
555.66	0.675
555.86	0.673
556.06	0.675
556.25	0.676
556.45	0.684
556.65	0.682
556.84	0.686
557.04	0.689
557.24	0.690
557.43	0.690
557.63	0.694
557.83	0.695
558.02	0.696
558.22	0.700
558.42	0.701
558.61	0.694
558.81	0.695
559.01	0.691
559.21	0.691
559.40	0.691
559.60	0.691
559.80	0.688
559.99	0.688
560.19	0.690
560.39	0.684
560.58	0.682
560.78	0.683
560.97	0.686
561.17	0.686
561.37	0.684
561.56	0.685
561.76	0.686
561.96	0.686
562.15	0.684
562.35	0.686
562.55	0.687
562.74	0.687
562.94	0.685
563.14	0.683
563.33	0.683
563.53	0.683
563.73	0.681
563.92	0.683
564.12	0.685
564.31	0.687
564.51	0.686
564.71	0.687
564.90	0.689
565.10	0.690
565.30	0.693
565.49	0.695
565.69	0.696
565.89	0.697
566.08	0.694
566.28	0.696
566.47	0.698
566.67	0.696
566.87	0.694
567.06	0.696
567.26	0.702
567.46	0.697
567.65	0.696
567.85	0.698
568.04	0.701
568.24	0.700
568.44	0.697
568.63	0.696
568.83	0.697
569.02	0.695
569.22	0.691
569.42	0.687
569.61	0.689
569.81	0.688
570.00	0.686
570.20	0.687
570.40	0.688
570.59	0.688
570.79	0.685
570.98	0.684
571.18	0.685
571.38	0.685
571.57	0.683
571.77	0.681
571.96	0.684
572.16	0.681
572.35	0.676
572.55	0.677
572.75	0.675
572.94	0.675
573.14	0.673
573.33	0.673
573.53	0.674
573.73	0.673
573.92	0.671
574.12	0.669
574.31	0.672
574.51	0.673
574.70	0.671
574.90	0.672
575.09	0.674
575.29	0.674
575.49	0.672
575.68	0.672
575.88	0.674
576.07	0.675
576.27	0.673
576.46	0.672
576.66	0.671
576.86	0.670
577.05	0.668
577.25	0.666
577.44	0.667
577.64	0.667
577.83	0.665
578.03	0.666
578.22	0.665
578.42	0.664
578.61	0.663
578.81	0.664
579.00	0.664
579.20	0.664
579.40	0.664
579.59	0.662
579.79	0.662
579.98	0.662
580.18	0.661
580.37	0.662
580.57	0.664
580.76	0.668
580.96	0.666
581.15	0.667
581.35	0.669
581.54	0.668
581.74	0.668
581.93	0.670
582.13	0.670
582.32	0.668
582.52	0.666
582.71	0.665
582.91	0.661
583.10	0.660
583.30	0.659
583.49	0.658
583.69	0.662
583.88	0.663
584.08	0.662
584.27	0.665
584.47	0.668
584.66	0.668
584.86	0.667
585.05	0.670
585.25	0.672
585.44	0.672
585.64	0.670
585.83	0.667
586.03	0.668
586.22	0.666
586.42	0.662
586.61	0.663
586.81	0.665
587.00	0.665
587.20	0.662
587.39	0.663
587.59	0.664
587.78	0.665
587.98	0.666
588.17	0.667
588.37	0.670
588.56	0.672
588.76	0.668
588.95	0.668
589.15	0.672
589.34	0.675
589.54	0.674
589.73	0.675
589.92	0.678
590.12	0.678
590.31	0.677
590.51	0.681
590.70	0.683
590.90	0.684
591.09	0.682
591.29	0.680
591.48	0.680
591.68	0.681
591.87	0.679
592.06	0.679
592.26	0.681
592.45	0.680
592.65	0.673
592.84	0.673
593.04	0.675
593.23	0.677
593.43	0.674
593.62	0.673
593.81	0.673
594.01	0.672
594.20	0.670
594.40	0.668
594.59	0.671
594.79	0.672
594.98	0.671
595.17	0.671
595.37	0.672
595.56	0.674
595.76	0.674
595.95	0.676
596.14	0.679
596.34	0.680
596.53	0.678
596.73	0.680
596.92	0.681
597.12	0.684
597.31	0.684
597.50	0.683
597.70	0.685
597.89	0.684
598.09	0.681
598.28	0.682
598.47	0.684
598.67	0.684
598.86	0.680
599.06	0.681
599.25	0.681
599.44	0.679
599.64	0.676
599.83	0.673
600.03	0.675
600.22	0.676
600.41	0.675
600.61	0.673
600.80	0.675
601.00	0.675
601.19	0.672
601.38	0.670
601.58	0.672
601.77	0.674
601.96	0.676
602.16	0.677
602.35	0.685
602.55	0.683
602.74	0.684
602.93	0.686
603.13	0.692
603.32	0.693
603.51	0.693
603.71	0.697
603.90	0.699
604.09	0.699
604.29	0.697
604.48	0.691
604.68	0.693
604.87	0.691
605.06	0.688
605.26	0.684
605.45	0.685
605.64	0.684
605.84	0.679
606.03	0.678
606.22	0.676
606.42	0.675
606.61	0.672
606.80	0.672
607.00	0.673
607.19	0.672
607.38	0.671
607.58	0.672
607.77	0.674
607.96	0.674
608.16	0.672
608.35	0.676
608.54	0.679
608.74	0.681
608.93	0.686
609.12	0.689
609.32	0.692
609.51	0.695
609.70	0.694
609.90	0.696
610.09	0.701
610.28	0.706
610.48	0.701
610.67	0.703
610.86	0.704
611.06	0.698
611.25	0.696
611.44	0.697
611.64	0.697
611.83	0.700
612.02	0.697
612.21	0.696
612.41	0.694
612.60	0.693
612.79	0.690
612.99	0.690
613.18	0.692
613.37	0.689
613.57	0.686
613.76	0.687
613.95	0.685
614.14	0.684
614.34	0.681
614.53	0.682
614.72	0.684
614.92	0.684
615.11	0.681
615.30	0.678
615.49	0.680
615.69	0.683
615.88	0.679
616.07	0.680
616.26	0.682
616.46	0.682
616.65	0.680
616.84	0.679
617.04	0.680
617.23	0.683
617.42	0.685
617.61	0.688
617.81	0.688
618.00	0.690
618.19	0.689
618.38	0.692
618.58	0.696
618.77	0.697
618.96	0.697
619.15	0.699
619.35	0.700
619.54	0.701
619.73	0.697
619.92	0.699
620.12	0.704
620.31	0.705
620.50	0.700
620.69	0.700
620.89	0.702
621.08	0.703
621.27	0.703
621.46	0.702
621.66	0.705
621.85	0.705
622.04	0.702
622.23	0.703
622.43	0.703
622.62	0.703
622.81	0.703
623.00	0.703
623.19	0.705
623.39	0.704
623.58	0.701
623.77	0.700
623.96	0.703
624.16	0.702
624.35	0.698
624.54	0.700
624.73	0.703
624.92	0.701
625.12	0.699
625.31	0.700
625.50	0.702
625.69	0.703
625.88	0.699
626.08	0.698
626.27	0.698
626.46	0.699
626.65	0.696
626.84	0.696
627.04	0.701
627.23	0.701
627.42	0.697
627.61	0.700
627.80	0.703
628.00	0.704
628.19	0.701
628.38	0.704
628.57	0.706
628.76	0.705
628.96	0.702
629.15	0.702
629.34	0.706
629.53	0.706
629.72	0.700
629.91	0.700
630.11	0.705
630.30	0.706
630.49	0.708
630.68	0.709
630.87	0.713
631.06	0.715
631.26	0.710
631.45	0.711
631.64	0.718
631.83	0.721
632.02	0.718
632.21	0.716
632.41	0.722
632.60	0.718
632.79	0.716
632.98	0.716
633.17	0.716
633.36	0.718
633.55	0.715
633.75	0.711
633.94	0.713
634.13	0.713
634.32	0.711
634.51	0.705
634.70	0.707
634.89	0.707
635.09	0.704
635.28	0.705
635.47	0.705
635.66	0.708
635.85	0.704
636.04	0.706
636.23	0.711
636.43	0.712
636.62	0.711
636.81	0.710
637.00	0.711
637.19	0.714
637.38	0.712
637.57	0.711
637.76	0.713
637.95	0.714
638.15	0.710
638.34	0.707
638.53	0.710
638.72	0.712
638.91	0.709
639.10	0.708
639.29	0.708
639.48	0.708
639.67	0.708
639.87	0.707
640.06	0.712
640.25	0.711
640.44	0.713
640.63	0.714
640.82	0.715
641.01	0.714
641.20	0.714
641.39	0.718
641.58	0.721
641.78	0.719
641.97	0.715
642.16	0.729
642.35	0.730
642.54	0.728
642.73	0.723
642.92	0.723
643.11	0.727
643.30	0.726
643.49	0.721
643.68	0.723
643.87	0.725
644.06	0.723
644.25	0.705
644.45	0.706
644.64	0.708
644.83	0.708
645.02	0.705
645.21	0.705
645.40	0.706
645.59	0.705
645.78	0.700
645.97	0.703
646.16	0.704
646.35	0.703
646.54	0.701
646.73	0.702
646.92	0.703
647.11	0.702
647.30	0.698
647.49	0.700
647.68	0.700
647.88	0.698
648.07	0.691
648.26	0.695
648.45	0.697
648.64	0.694
648.83	0.691
649.02	0.694
649.21	0.704
649.40	0.703
649.59	0.697
649.78	0.698
649.97	0.712
650.16	0.712
650.35	0.706
650.54	0.708
650.73	0.715
650.92	0.712
651.11	0.705
651.30	0.704
651.49	0.708
651.68	0.709
651.87	0.706
652.06	0.696
652.25	0.699
652.44	0.703
652.63	0.703
652.82	0.704
653.01	0.705
653.20	0.703
653.39	0.692
653.58	0.690
653.77	0.689
653.96	0.685
654.15	0.677
654.34	0.674
654.53	0.669
654.72	0.662
654.91	0.652
655.10	0.648
655.29	0.646
655.48	0.644
655.67	0.639
655.86	0.636
656.05	0.634
656.24	0.633
656.43	0.628
656.62	0.627
656.81	0.626
657.00	0.623
657.19	0.619
657.38	0.618
657.57	0.616
657.76	0.618
657.95	0.616
658.14	0.619
658.33	0.621
658.51	0.625
658.70	0.624
658.89	0.626
659.08	0.637
659.27	0.645
659.46	0.646
659.65	0.654
659.84	0.657
660.03	0.661
660.22	0.662
660.41	0.666
660.60	0.666
660.79	0.668
660.98	0.674
661.17	0.673
661.36	0.673
661.55	0.674
661.74	0.671
661.92	0.673
662.11	0.676
662.30	0.674
662.49	0.668
662.68	0.667
662.87	0.670
663.06	0.664
663.25	0.666
663.44	0.666
663.63	0.666
663.82	0.666
664.01	0.661
664.20	0.659
664.38	0.661
664.57	0.662
664.76	0.662
664.95	0.662
665.14	0.667
665.33	0.661
665.52	0.669
665.71	0.672
665.90	0.671
666.09	0.673
666.28	0.671
666.46	0.670
666.65	0.671
666.84	0.669
667.03	0.663
667.22	0.661
667.41	0.664
667.60	0.653
667.79	0.646
667.98	0.648
668.16	0.648
668.35	0.648
668.54	0.644
668.73	0.644
668.92	0.645
669.11	0.645
669.30	0.640
669.49	0.637
669.67	0.639
669.86	0.641
670.05	0.638
670.24	0.637
670.43	0.634
670.62	0.633
670.81	0.629
671.00	0.630
671.18	0.630
671.37	0.629
671.56	0.627
671.75	0.625
671.94	0.622
672.13	0.621
672.32	0.616
672.50	0.616
672.69	0.615
672.88	0.616
673.07	0.611
673.26	0.612
673.45	0.613
673.63	0.613
673.82	0.609
674.01	0.610
674.20	0.609
674.39	0.609
674.58	0.608
674.76	0.609
674.95	0.608
675.14	0.609
675.33	0.605
675.52	0.603
675.71	0.603
675.89	0.603
676.08	0.600
676.27	0.600
676.46	0.600
676.65	0.600
676.84	0.599
677.02	0.601
677.21	0.602
677.40	0.601
677.59	0.600
677.78	0.600
677.96	0.602
678.15	0.602
678.34	0.599
678.53	0.600
678.72	0.599
678.90	0.596
679.09	0.591
679.28	0.588
679.47	0.588
679.66	0.588
679.84	0.584
680.03	0.581
680.22	0.580
680.41	0.581
680.60	0.578
680.78	0.578
680.97	0.580
681.16	0.581
681.35	0.580
681.53	0.579
681.72	0.580
681.91	0.582
682.10	0.581
682.29	0.584
682.47	0.581
682.66	0.580
682.85	0.578
683.04	0.576
683.22	0.575
683.41	0.577
683.60	0.576
683.79	0.577
683.97	0.577
684.16	0.575
684.35	0.570
684.54	0.572
684.72	0.572
684.91	0.573
685.10	0.572
685.29	0.573
685.47	0.570
685.66	0.569
685.85	0.565
686.04	0.564
686.22	0.566
686.41	0.569
686.60	0.566
686.79	0.569
686.97	0.570
687.16	0.572
687.35	0.569
687.54	0.573
687.72	0.577
687.91	0.577
688.10	0.579
688.29	0.579
688.47	0.576
688.66	0.577
688.85	0.573
689.03	0.570
689.22	0.575
689.41	0.575
689.60	0.570
689.78	0.568
689.97	0.568
690.16	0.566
690.34	0.562
690.53	0.562
690.72	0.562
690.91	0.560
691.09	0.558
691.28	0.552
691.47	0.550
691.65	0.549
691.84	0.546
692.03	0.545
692.21	0.542
692.40	0.542
692.59	0.540
692.77	0.538
692.96	0.539
693.15	0.540
693.34	0.537
693.52	0.538
693.71	0.538
693.90	0.539
694.08	0.540
694.27	0.541
694.46	0.550
694.64	0.552
694.83	0.551
695.02	0.550
695.20	0.550
695.39	0.551
695.58	0.550
695.76	0.552
695.95	0.550
696.14	0.549
696.32	0.547
696.51	0.538
696.70	0.538
696.88	0.539
697.07	0.538
697.26	0.539
697.44	0.539
697.63	0.538
697.81	0.536
698.00	0.536
698.19	0.535
698.37	0.536
698.56	0.535
698.75	0.535
698.93	0.534
699.12	0.534
699.31	0.533
699.49	0.533
699.68	0.533
699.87	0.536
700.05	0.536
700.24	0.535
700.42	0.537
700.61	0.536
700.80	0.534
700.98	0.535
701.17	0.536
701.36	0.535
701.54	0.534
701.73	0.535
701.91	0.533
702.10	0.532
702.29	0.530
702.47	0.529
702.66	0.530
702.84	0.532
703.03	0.530
703.22	0.531
703.40	0.531
703.59	0.533
703.77	0.532
703.96	0.532
704.15	0.532
704.33	0.532
704.52	0.533
704.70	0.532
704.89	0.531
705.08	0.530
705.26	0.525
705.45	0.525
705.63	0.524
705.82	0.521
706.00	0.520
706.19	0.520
706.38	0.520
706.56	0.519
706.75	0.517
706.93	0.516
707.12	0.517
707.30	0.518
707.49	0.516
707.68	0.514
707.86	0.513
708.05	0.514
708.23	0.511
708.42	0.511
708.60	0.513
708.79	0.513
708.98	0.512
709.16	0.511
709.35	0.513
709.53	0.516
709.72	0.516
709.90	0.517
710.09	0.519
710.27	0.521
710.46	0.525
710.64	0.523
710.83	0.525
711.02	0.527
711.20	0.525
711.39	0.524
711.57	0.522
711.76	0.522
711.94	0.521
712.13	0.522
712.31	0.521
712.50	0.516
712.68	0.515
712.87	0.515
713.05	0.515
713.24	0.516
713.42	0.515
713.61	0.516
713.79	0.516
713.98	0.517
714.16	0.517
714.35	0.517
714.54	0.519
714.72	0.518
714.91	0.516
715.09	0.522
715.28	0.524
715.46	0.524
715.65	0.522
715.83	0.522
716.02	0.524
716.20	0.520
716.39	0.520
716.57	0.521
716.76	0.523
716.94	0.523
717.12	0.516
717.31	0.518
717.49	0.520
717.68	0.522
717.86	0.522
718.05	0.524
718.23	0.527
718.42	0.529
718.60	0.530
718.79	0.537
718.97	0.540
719.16	0.540
719.34	0.537
719.53	0.537
719.71	0.537
719.90	0.538
720.08	0.536
720.27	0.536
720.45	0.535
720.63	0.534
720.82	0.529
721.00	0.531
721.19	0.534
721.37	0.533
721.56	0.534
721.74	0.536
721.93	0.544
722.11	0.549
722.30	0.548
722.48	0.553
722.66	0.554
722.85	0.554
723.03	0.554
723.22	0.553
723.40	0.556
723.59	0.556
723.77	0.560
723.95	0.553
724.14	0.555
724.32	0.558
724.51	0.557
724.69	0.559
724.88	0.559
725.06	0.558
725.24	0.559
725.43	0.560
725.61	0.562
725.80	0.556
725.98	0.555
726.16	0.553
726.35	0.559
726.53	0.558
726.72	0.557
726.90	0.567
727.09	0.566
727.27	0.571
727.45	0.568
727.64	0.577
727.82	0.584
728.01	0.588
728.19	0.584
728.37	0.588
728.56	0.593
728.74	0.598
728.92	0.587
729.11	0.590
729.29	0.588
729.48	0.592
729.66	0.581
729.84	0.583
730.03	0.586
730.21	0.588
730.40	0.579
730.58	0.579
730.76	0.578
730.95	0.581
731.13	0.581
731.31	0.596
731.50	0.604
731.68	0.608
731.86	0.606
732.05	0.619
732.23	0.623
732.42	0.627
732.60	0.631
732.78	0.638
732.97	0.656
733.15	0.663
733.33	0.652
733.52	0.658
733.70	0.668
733.88	0.675
734.07	0.662
734.25	0.687
734.43	0.694
734.62	0.695
734.80	0.690
734.98	0.679
735.17	0.686
735.35	0.693
735.53	0.683
735.72	0.685
735.90	0.705
736.08	0.722
736.27	0.702
736.45	0.711
736.63	0.722
736.82	0.729
737.00	0.731
737.18	0.740
737.37	0.768
737.55	0.790
737.73	0.786
737.92	0.788
738.10	0.785
738.28	0.800
738.46	0.789
738.65	0.799
738.83	0.822
739.01	0.876
739.20	0.867
739.38	0.848
739.56	0.835
739.75	0.838
739.93	0.804
740.11	0.826
740.29	0.828
740.48	0.834
740.66	0.818
740.84	0.808
741.03	0.768
741.21	0.776
741.39	0.761
741.57	0.774
741.76	0.790
741.94	0.800
742.12	0.770
742.31	0.773
742.49	0.792
742.67	0.813
742.85	0.832
743.04	0.841
743.22	0.848
743.40	0.899
743.58	0.881
743.77	0.895
743.95	0.920
744.13	0.966
744.31	0.951
744.50	0.941
744.68	0.934
744.86	0.908
745.04	0.920
745.23	0.983
745.41	0.961
745.59	0.967
745.77	0.935
745.96	0.930
746.14	0.933
746.32	0.930
746.50	0.923
746.69	0.911
746.87	0.915
747.05	0.901
747.23	0.834
747.42	0.821
747.60	0.840
747.78	0.843
747.96	0.869
748.14	0.836
748.33	0.858
748.51	0.855
748.69	0.847
748.87	0.874
749.06	0.866
749.24	0.866
749.42	0.856
749.60	0.845
749.78	0.852
749.97	0.811
750.15	0.804
750.33	0.810
750.51	0.824
750.69	0.833
750.88	0.839
751.06	0.852
751.24	0.871
751.42	0.865
751.60	0.856
751.79	0.921
751.97	0.957
752.15	0.953
752.33	0.920
752.51	0.988
752.69	0.999
752.88	0.970
753.06	1.010
753.24	0.991
753.42	1.021
753.60	1.171
753.78	1.050
753.97	1.065
754.15	1.087
754.33	1.118
754.51	1.003
754.69	0.986
754.87	1.013
755.06	0.953
755.24	0.960
755.42	0.969
755.60	0.877
755.78	0.883
755.96	0.835
756.15	0.835
756.33	0.839
756.51	0.855
756.69	0.845
756.87	0.811
757.05	0.824
757.23	0.808
757.42	0.777
757.60	0.774
757.78	0.762
757.96	0.760
758.14	0.745
758.32	0.731
758.50	0.741
758.69	0.740
758.87	0.732
759.05	0.737
759.23	0.743
759.41	0.742
759.59	0.737
759.77	0.758
759.95	0.783
760.13	0.826
760.32	0.824
760.50	0.818
760.68	0.837
760.86	0.840
761.04	0.816
761.22	0.821
761.40	0.866
761.58	0.870
761.76	0.847
761.95	0.829
762.13	0.788
762.31	0.792
762.49	0.766
762.67	0.781
762.85	0.790
763.03	0.786
763.21	0.770
763.39	0.750
763.57	0.748
763.75	0.742
763.94	0.730
764.12	0.732
764.30	0.752
764.48	0.755
764.66	0.727
764.84	0.725
765.02	0.757
765.20	0.765
765.38	0.749
765.56	0.755
765.74	0.790
765.92	0.793
766.10	0.800
766.28	0.791
766.46	0.813
766.65	0.810
766.83	0.801
767.01	0.790
767.19	0.795
767.37	0.794
767.55	0.781
767.73	0.762
767.91	0.762
768.09	0.752
768.27	0.743
768.45	0.734
768.63	0.738
768.81	0.742
768.99	0.717
769.17	0.736
769.35	0.750
769.53	0.750
769.71	0.734
769.89	0.738
770.07	0.741
770.25	0.727
770.43	0.711
770.61	0.732
770.79	0.734
770.97	0.743
771.15	0.716
771.33	0.718
771.51	0.721
771.69	0.730
771.87	0.740
772.05	0.744
772.24	0.750
772.42	0.759
772.60	0.740
772.78	0.795
772.96	0.819
773.14	0.815
773.32	0.795
773.49	0.800
773.67	0.796
773.85	0.780
774.03	0.773
774.21	0.805
774.39	0.815
774.57	0.834
774.75	0.768
774.93	0.764
775.11	0.784
775.29	0.792
775.47	0.793
775.65	0.803
775.83	0.817
776.01	0.834
776.19	0.792
776.37	0.790
776.55	0.791
776.73	0.788
776.91	0.784
777.09	0.766
777.27	0.760
777.45	0.752
777.63	0.731
777.81	0.726
777.99	0.715
778.17	0.712
778.35	0.694
778.53	0.681
778.71	0.686
778.89	0.674
779.07	0.666
779.24	0.672
779.42	0.672
779.60	0.690
779.78	0.689
779.96	0.693
780.14	0.699
780.32	0.717
780.50	0.706
780.68	0.703
780.86	0.694
781.04	0.712
781.22	0.716
781.40	0.725
781.58	0.716
781.75	0.709
781.93	0.695
782.11	0.695
782.29	0.681
782.47	0.679
782.65	0.670
782.83	0.696
783.01	0.687
783.19	0.682
783.37	0.670
783.55	0.672
783.72	0.687
783.90	0.698
784.08	0.692
784.26	0.704
784.44	0.724
784.62	0.727
784.80	0.699
784.98	0.707
785.16	0.711
785.33	0.725
785.51	0.711
785.69	0.699
785.87	0.697
786.05	0.709
786.23	0.707
786.41	0.704
786.59	0.708
786.77	0.708
786.94	0.695
787.12	0.698
787.30	0.699
787.48	0.700
787.66	0.687
787.84	0.686
788.02	0.676
788.19	0.674
788.37	0.661
788.55	0.662
788.73	0.660
788.91	0.656
789.09	0.641
789.27	0.629
789.44	0.639
789.62	0.645
789.80	0.655
789.98	0.678
790.16	0.665
790.34	0.661
790.51	0.652
790.69	0.670
790.87	0.673
791.05	0.671
791.23	0.668
791.41	0.668
791.58	0.676
791.76	0.656
791.94	0.628
792.12	0.637
792.30	0.636
792.48	0.636
792.65	0.632
792.83	0.640
793.01	0.644
793.19	0.642
793.37	0.627
793.54	0.623
793.72	0.633
793.90	0.632
794.08	0.621
794.26	0.623
794.43	0.629
794.61	0.612
794.79	0.602
794.97	0.603
795.15	0.607
795.32	0.612
795.50	0.604
795.68	0.598
795.86	0.601
796.04	0.603
796.21	0.599
796.39	0.597
796.57	0.610
796.75	0.616
796.92	0.617
797.10	0.621
797.28	0.621
797.46	0.623
797.64	0.626
797.81	0.632
797.99	0.634
798.17	0.637
798.35	0.632
798.52	0.636
798.70	0.631
798.88	0.637
799.06	0.639
799.23	0.643
799.41	0.650
799.59	0.645
799.77	0.635
799.94	0.643
800.12	0.652
800.30	0.670
800.48	0.669
800.65	0.668
800.83	0.659
801.01	0.651
801.19	0.650
801.36	0.647
801.54	0.647
801.72	0.656
801.90	0.645
802.07	0.640
802.25	0.624
802.43	0.610
802.60	0.609
802.78	0.615
802.96	0.619
803.14	0.613
803.31	0.613
803.49	0.614
803.67	0.610
803.84	0.616
804.02	0.608
804.20	0.612
804.38	0.616
804.55	0.615
804.73	0.603
804.91	0.603
805.08	0.614
805.26	0.610
805.44	0.674
805.61	0.676
805.79	0.673
805.97	0.674
806.15	0.666
806.32	0.661
806.50	0.664
806.68	0.664
806.85	0.657
807.03	0.648
807.21	0.664
807.38	0.599
807.56	0.589
807.74	0.599
807.91	0.604
808.09	0.607
808.27	0.626
808.44	0.650
808.62	0.659
808.80	0.661
808.97	0.657
809.15	0.652
809.33	0.667
809.50	0.675
809.68	0.663
809.86	0.669
810.03	0.699
810.21	0.679
810.39	0.663
810.56	0.666
810.74	0.687
810.91	0.753
811.09	0.742
811.27	0.759
811.44	0.762
811.62	0.765
811.80	0.750
811.97	0.722
812.15	0.722
812.33	0.719
812.50	0.708
812.68	0.698
812.85	0.644
813.03	0.648
813.21	0.620
813.38	0.615
813.56	0.618
813.74	0.628
813.91	0.635
814.09	0.661
814.26	0.654
814.44	0.658
814.62	0.651
814.79	0.656
814.97	0.659
815.14	0.664
815.32	0.670
815.50	0.684
815.67	0.683
815.85	0.675
816.02	0.666
816.20	0.673
816.38	0.682
816.55	0.687
816.73	0.688
816.90	0.695
817.08	0.721
817.26	0.725
817.43	0.707
817.61	0.732
817.78	0.748
817.96	0.731
818.13	0.723
818.31	0.724
818.49	0.734
818.66	0.723
818.84	0.712
819.01	0.690
819.19	0.693
819.36	0.695
819.54	0.668
819.71	0.706
819.89	0.714
820.07	0.726
820.24	0.724
820.42	0.724
820.59	0.741
820.77	0.764
820.94	0.760
821.12	0.777
821.29	0.791
821.47	0.794
821.64	0.738
821.82	0.752
822.00	0.748
822.17	0.743
822.35	0.739
822.52	0.742
822.70	0.728
822.87	0.735
823.05	0.717
823.22	0.728
823.40	0.750
823.57	0.770
823.75	0.756
823.92	0.778
824.10	0.795
824.27	0.830
824.45	0.823
824.62	0.883
824.80	0.895
824.97	0.910
825.15	0.899
825.32	0.911
825.50	0.908
825.67	0.916
825.85	0.895
826.02	0.911
826.20	0.928
826.37	1.037
826.55	0.966
826.72	1.131
826.90	1.180
827.07	1.228
827.25	1.185
827.42	1.328
827.60	1.432
827.77	1.558
827.95	1.557
828.12	1.654
828.30	1.350
828.47	1.457
828.65	1.149
828.82	1.194
829.00	1.237
829.17	1.284
829.34	1.269
829.52	1.307
829.69	-0.000
829.87	-0.000
830.04	-0.000
830.22	-0.000
830.39	-0.000
830.57	-0.000
830.74	-0.000
830.92	-0.000
831.09	-0.000
831.26	-0.000
831.44	-0.000
831.61	-0.000
831.79	-0.000
831.96	-0.000
832.14	-0.000
832.31	-0.000
832.49	-0.000
832.66	-0.000
832.83	-0.000
833.01	-0.000
833.18	-0.000
833.36	-0.000
833.53	-0.000
833.70	-0.000
833.88	-0.000
834.05	-0.000
834.23	-0.000
834.40	-0.000
834.58	-0.000
834.75	-0.000
834.92	-0.000
835.10	-0.000
835.27	-0.000
835.45	-0.000
835.62	-0.000
835.79	-0.000
835.97	-0.000
836.14	-0.000
836.32	-0.000
836.49	-0.000
836.66	-0.000
836.84	-0.000
837.01	-0.000
837.18	-0.000
837.36	-0.000
837.53	-0.000
837.71	-0.000
837.88	-0.000
838.05	-0.000
838.23	-0.000
838.40	-0.000
838.58	-0.000
838.75	-0.000
838.92	-0.000
839.10	-0.000
839.27	-0.000
839.44	-0.000
839.62	-0.000
839.79	-0.000
839.96	-0.000
840.14	-0.000
840.31	-0.000
840.48	-0.000
840.66	-0.000
840.83	-0.000
841.01	-0.000
841.18	-0.000
841.35	-0.000
841.53	-0.000
841.70	-0.000
841.87	-0.000
842.05	-0.000
842.22	-0.000
842.39	-0.000
842.57	-0.000
842.74	-0.000
842.91	-0.000
843.09	-0.000
843.26	-0.000
843.43	-0.000
843.60	-0.000
843.78	-0.000
843.95	-0.000
844.12	-0.000
844.30	-0.000
844.47	-0.000
844.64	-0.000
844.82	-0.000
844.99	-0.000
845.16	-0.000
845.34	-0.000
845.51	-0.000
845.68	-0.000
845.85	-0.000
846.03	-0.000
846.20	-0.000
846.37	-0.000
846.55	-0.000
846.72	-0.000
846.89	-0.000
847.06	-0.000
847.24	-0.000
847.41	-0.000
847.58	-0.000
847.76	-0.000
847.93	-0.000
848.10	-0.000
848.27	-0.000
848.45	-0.000
848.62	-0.000
848.79	-0.000
848.97	-0.000
849.14	-0.000
849.31	-0.000
849.48	-0.000
849.66	-0.000
849.83	-0.000
850.00	-0.000
850.17	-0.000
850.35	-0.000
850.52	-0.000
850.69	-0.000
850.86	-0.000
851.04	-0.000
851.21	-0.000
851.38	-0.000
851.55	-0.000
851.72	-0.000
851.90	-0.000
852.07	-0.000
852.24	-0.000
852.41	-0.000
852.59	-0.000
852.76	-0.000
852.93	-0.000
853.10	-0.000
853.28	-0.000
853.45	-0.000
853.62	-0.000
853.79	-0.000
853.96	-0.000
854.14	-0.000
854.31	-0.000
854.48	-0.000
854.65	-0.000
854.82	-0.000
855.00	-0.000
855.17	-0.000
855.34	-0.000
855.51	-0.000
855.68	-0.000
855.86	-0.000
856.03	-0.000
856.20	-0.000
856.37	-0.000
856.54	-0.000
856.72	-0.000
856.89	-0.000
857.06	-0.000
857.23	-0.000
857.40	-0.000
857.57	-0.000
857.75	-0.000
857.92	-0.000
858.09	-0.000
858.26	-0.000
858.43	-0.000
858.60	-0.000
858.78	-0.000
858.95	-0.000
859.12	-0.000
859.29	-0.000
859.46	-0.000
859.63	-0.000
859.81	-0.000
859.98	-0.000
860.15	-0.000
860.32	-0.000
860.49	-0.000
860.66	-0.000
860.83	-0.000
861.01	-0.000
861.18	-0.000
861.35	-0.000
861.52	-0.000
861.69	-0.000
861.86	-0.000
862.03	-0.000
862.21	-0.000
862.38	-0.000
862.55	-0.000
862.72	-0.000
862.89	-0.000
863.06	-0.000
863.23	-0.000
863.40	-0.000
863.58	-0.000
863.75	-0.000
863.92	-0.000
864.09	-0.000
864.26	-0.000
864.43	-0.000
864.60	-0.000
864.77	-0.000
864.94	-0.000
865.11	-0.000
865.29	-0.000
865.46	-0.000
865.63	-0.000
865.80	-0.000
865.97	-0.000
866.14	-0.000
866.31	-0.000
866.48	-0.000
866.65	-0.000
866.82	-0.000
866.99	-0.000
867.16	-0.000
867.34	-0.000
867.51	-0.000
867.68	-0.000
867.85	-0.000
868.02	-0.000
868.19	-0.000
868.36	-0.000
868.53	-0.000
868.70	-0.000
868.87	-0.000
869.04	-0.000
869.21	-0.000
869.38	-0.000
869.55	-0.000
869.72	-0.000
869.89	-0.000
870.06	-0.000
870.24	-0.000
870.41	-0.000
870.58	-0.000
870.75	-0.000
870.92	-0.000
871.09	-0.000
871.26	-0.000
871.43	-0.000
871.60	-0.000
871.77	-0.000
871.94	-0.000
872.11	-0.000
872.28	-0.000
872.45	-0.000
872.62	-0.000
872.79	-0.000
872.96	-0.000
873.13	-0.000
873.30	-0.000
873.47	-0.000
873.64	-0.000
873.81	-0.000
873.98	-0.000
874.15	-0.000
874.32	-0.000
874.49	-0.000
874.66	-0.000
874.83	-0.000
875.00	-0.000
875.17	-0.000
875.34	-0.000
875.51	-0.000
875.68	-0.000
875.85	-0.000
876.02	-0.000
876.19	-0.000
876.36	-0.000
876.53	-0.000
876.70	-0.000
876.87	-0.000
877.04	-0.000
877.21	-0.000
877.38	-0.000
877.55	-0.000
877.72	-0.000
877.89	-0.000
878.06	-0.000
878.23	-0.000
878.39	-0.000
878.56	-0.000
878.73	-0.000
878.90	-0.000
879.07	-0.000
879.24	-0.000
879.41	-0.000
879.58	-0.000
879.75	-0.000
879.92	-0.000
880.09	-0.000
880.26	-0.000
880.43	-0.000
880.60	-0.000
880.77	-0.000
880.94	-0.000
881.11	-0.000
881.27	-0.000
881.44	-0.000
881.61	-0.000
881.78	-0.000
881.95	-0.000
882.12	-0.000
882.29	-0.000
882.46	-0.000
882.63	-0.000
882.80	-0.000
882.97	-0.000
883.14	-0.000
883.30	-0.000
883.47	-0.000
883.64	-0.000
883.81	-0.000
883.98	-0.000
884.15	-0.000
884.32	-0.000
884.49	-0.000
884.66	-0.000
884.82	-0.000
884.99	-0.000
885.16	-0.000
885.33	-0.000
885.50	-0.000
885.67	-0.000
885.84	-0.000
886.01	-0.000
886.17	-0.000
886.34	-0.000
886.51	-0.000
886.68	-0.000
886.85	-0.000
887.02	-0.000
887.19	-0.000
887.36	-0.000
887.52	-0.000
887.69	-0.000
887.86	-0.000
888.03	-0.000
888.20	-0.000
888.37	-0.000
888.54	-0.000
888.70	-0.000
888.87	-0.000
889.04	-0.000
889.21	-0.000
889.38	-0.000
889.55	-0.000
889.71	-0.000
889.88	-0.000
890.05	-0.000
890.22	-0.000
890.39	-0.000
>>>>>End Processed Spectral Data<<<<<
