SpectraSuite Data File
++++++++++++++++++++++++++++++++++++
Date: Fri Jun 19 14:27:17 CEST 2015
User: introlabs
Dark Spectrum Present: Yes
Reference Spectrum Present: Yes
Number of Sampled Component Spectra: 1
Spectrometers: USB4H08886
Integration Time (usec): 745692 (USB4H08886)
Spectra Averaged: 5 (USB4H08886)
Boxcar Smoothing: 5 (USB4H08886)
Correct for Electrical Dark: Yes (USB4H08886)
Strobe/Lamp Enabled: No (USB4H08886)
Correct for Detector Non-linearity: Yes (USB4H08886)
Correct for Stray Light: Yes (USB4H08886)
Number of Pixels in Processed Spectrum: 3648
>>>>>Begin Processed Spectral Data<<<<<
178.14	-0.000
178.36	-0.000
178.57	-0.000
178.79	-0.000
179.01	-0.000
179.22	-0.000
179.44	-0.000
179.65	-0.000
179.87	-0.000
180.08	-0.000
180.30	-0.000
180.52	-0.000
180.73	-0.000
180.95	-0.000
181.16	-0.000
181.38	-0.000
181.59	-0.000
181.81	-0.000
182.03	-0.000
182.24	-0.000
182.46	-0.000
182.67	-0.000
182.89	-0.000
183.10	-0.000
183.32	-0.000
183.54	-0.000
183.75	-0.000
183.97	-0.000
184.18	-0.000
184.40	-0.000
184.61	-0.000
184.83	-0.000
185.04	-0.000
185.26	-0.000
185.48	-0.000
185.69	-0.000
185.91	-0.000
186.12	-0.000
186.34	-0.000
186.55	-0.000
186.77	-0.000
186.98	-0.000
187.20	-0.000
187.42	-0.000
187.63	-0.000
187.85	-0.000
188.06	-0.000
188.28	-0.000
188.49	-0.000
188.71	-0.000
188.92	-0.000
189.14	-0.000
189.36	-0.000
189.57	-0.000
189.79	-0.000
190.00	-0.000
190.22	-0.000
190.43	-0.000
190.65	-0.000
190.86	-0.000
191.08	-0.000
191.29	-0.000
191.51	-0.000
191.72	-0.000
191.94	-0.000
192.16	-0.000
192.37	-0.000
192.59	-0.000
192.80	-0.000
193.02	-0.000
193.23	-0.000
193.45	-0.000
193.66	-0.000
193.88	-0.000
194.09	-0.000
194.31	-0.000
194.52	-0.000
194.74	-0.000
194.95	-0.000
195.17	-0.000
195.38	-0.000
195.60	-0.000
195.81	-0.000
196.03	-0.000
196.25	-0.000
196.46	-0.000
196.68	-0.000
196.89	-0.000
197.11	-0.000
197.32	-0.000
197.54	-0.000
197.75	-0.000
197.97	-0.000
198.18	-0.000
198.40	-0.000
198.61	-0.000
198.83	-0.000
199.04	-0.000
199.26	-0.000
199.47	-0.000
199.69	-0.000
199.90	-0.000
200.12	-0.000
200.33	-0.000
200.55	-0.000
200.76	-0.000
200.98	-0.000
201.19	-0.000
201.41	-0.000
201.62	-0.000
201.84	-0.000
202.05	-0.000
202.27	-0.000
202.48	-0.000
202.70	-0.000
202.91	-0.000
203.13	-0.000
203.34	-0.000
203.56	-0.000
203.77	-0.000
203.99	-0.000
204.20	-0.000
204.42	-0.000
204.63	-0.000
204.85	-0.000
205.06	-0.000
205.28	-0.000
205.49	-0.000
205.71	-0.000
205.92	-0.000
206.14	-0.000
206.35	-0.000
206.56	-0.000
206.78	-0.000
206.99	-0.000
207.21	-0.000
207.42	-0.000
207.64	-0.000
207.85	-0.000
208.07	-0.000
208.28	-0.000
208.50	-0.000
208.71	-0.000
208.93	-0.000
209.14	-0.000
209.36	-0.000
209.57	-0.000
209.79	-0.000
210.00	-0.000
210.22	-0.000
210.43	-0.000
210.64	-0.000
210.86	-0.000
211.07	-0.000
211.29	-0.000
211.50	-0.000
211.72	-0.000
211.93	-0.000
212.15	-0.000
212.36	-0.000
212.58	-0.000
212.79	-0.000
213.01	-0.000
213.22	-0.000
213.43	-0.000
213.65	-0.000
213.86	-0.000
214.08	-0.000
214.29	-0.000
214.51	-0.000
214.72	-0.000
214.94	-0.000
215.15	-0.000
215.36	-0.000
215.58	-0.000
215.79	-0.000
216.01	-0.000
216.22	-0.000
216.44	-0.000
216.65	-0.000
216.87	-0.000
217.08	-0.000
217.29	-0.000
217.51	-0.000
217.72	-0.000
217.94	-0.000
218.15	-0.000
218.37	-0.000
218.58	-0.000
218.80	-0.000
219.01	-0.000
219.22	-0.000
219.44	-0.000
219.65	-0.000
219.87	-0.000
220.08	-0.000
220.30	-0.000
220.51	-0.000
220.72	-0.000
220.94	-0.000
221.15	-0.000
221.37	-0.000
221.58	-0.000
221.79	-0.000
222.01	-0.000
222.22	-0.000
222.44	-0.000
222.65	-0.000
222.87	-0.000
223.08	-0.000
223.29	-0.000
223.51	-0.000
223.72	-0.000
223.94	-0.000
224.15	-0.000
224.36	-0.000
224.58	-0.000
224.79	-0.000
225.01	-0.000
225.22	-0.000
225.44	-0.000
225.65	-0.000
225.86	-0.000
226.08	-0.000
226.29	-0.000
226.51	-0.000
226.72	-0.000
226.93	-0.000
227.15	-0.000
227.36	-0.000
227.58	-0.000
227.79	-0.000
228.00	-0.000
228.22	-0.000
228.43	-0.000
228.65	-0.000
228.86	-0.000
229.07	-0.000
229.29	-0.000
229.50	-0.000
229.72	-0.000
229.93	-0.000
230.14	-0.000
230.36	-0.000
230.57	-0.000
230.78	-0.000
231.00	-0.000
231.21	-0.000
231.43	-0.000
231.64	-0.000
231.85	-0.000
232.07	-0.000
232.28	-0.000
232.50	-0.000
232.71	-0.000
232.92	-0.000
233.14	-0.000
233.35	-0.000
233.56	-0.000
233.78	-0.000
233.99	-0.000
234.21	-0.000
234.42	-0.000
234.63	-0.000
234.85	-0.000
235.06	-0.000
235.27	-0.000
235.49	-0.000
235.70	-0.000
235.91	-0.000
236.13	-0.000
236.34	-0.000
236.56	-0.000
236.77	-0.000
236.98	-0.000
237.20	-0.000
237.41	-0.000
237.62	-0.000
237.84	-0.000
238.05	-0.000
238.26	-0.000
238.48	-0.000
238.69	-0.000
238.91	-0.000
239.12	-0.000
239.33	-0.000
239.55	-0.000
239.76	-0.000
239.97	-0.000
240.19	-0.000
240.40	-0.000
240.61	-0.000
240.83	-0.000
241.04	-0.000
241.25	-0.000
241.47	-0.000
241.68	-0.000
241.89	-0.000
242.11	-0.000
242.32	-0.000
242.53	-0.000
242.75	-0.000
242.96	-0.000
243.17	-0.000
243.39	-0.000
243.60	-0.000
243.81	-0.000
244.03	-0.000
244.24	-0.000
244.45	-0.000
244.67	-0.000
244.88	-0.000
245.09	-0.000
245.31	-0.000
245.52	-0.000
245.73	-0.000
245.95	-0.000
246.16	-0.000
246.37	-0.000
246.59	-0.000
246.80	-0.000
247.01	-0.000
247.23	-0.000
247.44	-0.000
247.65	-0.000
247.87	-0.000
248.08	-0.000
248.29	-0.000
248.51	-0.000
248.72	-0.000
248.93	-0.000
249.15	-0.000
249.36	-0.000
249.57	-0.000
249.78	-0.000
250.00	-0.000
250.21	-0.000
250.42	-0.000
250.64	-0.000
250.85	-0.000
251.06	-0.000
251.28	-0.000
251.49	-0.000
251.70	-0.000
251.92	-0.000
252.13	-0.000
252.34	-0.000
252.55	-0.000
252.77	-0.000
252.98	-0.000
253.19	-0.000
253.41	-0.000
253.62	-0.000
253.83	-0.000
254.05	-0.000
254.26	-0.000
254.47	-0.000
254.68	-0.000
254.90	-0.000
255.11	-0.000
255.32	-0.000
255.54	-0.000
255.75	-0.000
255.96	-0.000
256.17	-0.000
256.39	-0.000
256.60	-0.000
256.81	-0.000
257.03	-0.000
257.24	-0.000
257.45	-0.000
257.66	-0.000
257.88	-0.000
258.09	-0.000
258.30	-0.000
258.51	-0.000
258.73	-0.000
258.94	-0.000
259.15	-0.000
259.37	-0.000
259.58	-0.000
259.79	-0.000
260.00	-0.000
260.22	-0.000
260.43	-0.000
260.64	-0.000
260.85	-0.000
261.07	-0.000
261.28	-0.000
261.49	-0.000
261.71	-0.000
261.92	-0.000
262.13	-0.000
262.34	-0.000
262.56	-0.000
262.77	-0.000
262.98	-0.000
263.19	-0.000
263.41	-0.000
263.62	-0.000
263.83	-0.000
264.04	-0.000
264.26	-0.000
264.47	-0.000
264.68	-0.000
264.89	-0.000
265.11	-0.000
265.32	-0.000
265.53	-0.000
265.74	-0.000
265.96	-0.000
266.17	-0.000
266.38	-0.000
266.59	-0.000
266.81	-0.000
267.02	-0.000
267.23	-0.000
267.44	-0.000
267.65	-0.000
267.87	-0.000
268.08	-0.000
268.29	-0.000
268.50	-0.000
268.72	-0.000
268.93	-0.000
269.14	-0.000
269.35	-0.000
269.57	-0.000
269.78	-0.000
269.99	-0.000
270.20	-0.000
270.41	-0.000
270.63	-0.000
270.84	-0.000
271.05	-0.000
271.26	-0.000
271.48	-0.000
271.69	-0.000
271.90	-0.000
272.11	-0.000
272.32	-0.000
272.54	-0.000
272.75	-0.000
272.96	-0.000
273.17	-0.000
273.39	-0.000
273.60	-0.000
273.81	-0.000
274.02	-0.000
274.23	-0.000
274.45	-0.000
274.66	-0.000
274.87	-0.000
275.08	-0.000
275.29	-0.000
275.51	-0.000
275.72	-0.000
275.93	-0.000
276.14	-0.000
276.35	-0.000
276.57	-0.000
276.78	-0.000
276.99	-0.000
277.20	-0.000
277.41	-0.000
277.63	-0.000
277.84	-0.000
278.05	-0.000
278.26	-0.000
278.47	-0.000
278.69	-0.000
278.90	-0.000
279.11	-0.000
279.32	-0.000
279.53	-0.000
279.74	-0.000
279.96	-0.000
280.17	-0.000
280.38	-0.000
280.59	-0.000
280.80	-0.000
281.02	-0.000
281.23	-0.000
281.44	-0.000
281.65	-0.000
281.86	-0.000
282.07	-0.000
282.29	-0.000
282.50	-0.000
282.71	-0.000
282.92	-0.000
283.13	-0.000
283.35	-0.000
283.56	-0.000
283.77	-0.000
283.98	-0.000
284.19	-0.000
284.40	-0.000
284.62	-0.000
284.83	-0.000
285.04	-0.000
285.25	-0.000
285.46	-0.000
285.67	-0.000
285.88	-0.000
286.10	-0.000
286.31	-0.000
286.52	-0.000
286.73	-0.000
286.94	-0.000
287.15	-0.000
287.37	-0.000
287.58	-0.000
287.79	-0.000
288.00	-0.000
288.21	-0.000
288.42	-0.000
288.63	-0.000
288.85	-0.000
289.06	-0.000
289.27	-0.000
289.48	-0.000
289.69	-0.000
289.90	-0.000
290.11	-0.000
290.33	-0.000
290.54	-0.000
290.75	-0.000
290.96	-0.000
291.17	-0.000
291.38	-0.000
291.59	-0.000
291.81	-0.000
292.02	-0.000
292.23	-0.000
292.44	-0.000
292.65	-0.000
292.86	-0.000
293.07	-0.000
293.28	-0.000
293.50	-0.000
293.71	-0.000
293.92	-0.000
294.13	-0.000
294.34	-0.000
294.55	-0.000
294.76	-0.000
294.97	-0.000
295.19	-0.000
295.40	-0.000
295.61	-0.000
295.82	-0.000
296.03	-0.000
296.24	-0.000
296.45	2.323
296.66	1.834
296.87	1.842
297.09	1.945
297.30	2.214
297.51	1.754
297.72	1.717
297.93	1.820
298.14	1.788
298.35	1.741
298.56	1.701
298.77	1.859
298.99	1.836
299.20	1.807
299.41	1.768
299.62	1.723
299.83	1.711
300.04	1.635
300.25	1.634
300.46	1.688
300.67	1.661
300.88	1.600
301.10	1.596
301.31	1.684
301.52	1.615
301.73	1.556
301.94	1.555
302.15	1.574
302.36	1.522
302.57	1.447
302.78	1.453
302.99	1.497
303.20	1.519
303.41	1.424
303.63	1.402
303.84	1.414
304.05	1.408
304.26	1.345
304.47	1.355
304.68	1.354
304.89	1.343
305.10	1.300
305.31	1.289
305.52	1.338
305.73	1.330
305.94	1.289
306.15	1.281
306.37	1.305
306.58	1.316
306.79	1.279
307.00	1.307
307.21	1.351
307.42	1.340
307.63	1.302
307.84	1.265
308.05	1.304
308.26	1.303
308.47	1.276
308.68	1.267
308.89	1.268
309.10	1.262
309.31	1.222
309.52	1.217
309.73	1.235
309.95	1.227
310.16	1.195
310.37	1.185
310.58	1.203
310.79	1.201
311.00	1.197
311.21	1.198
311.42	1.202
311.63	1.195
311.84	1.172
312.05	1.170
312.26	1.194
312.47	1.210
312.68	1.184
312.89	1.167
313.10	1.175
313.31	1.150
313.52	1.150
313.73	1.151
313.94	1.152
314.15	1.136
314.36	1.114
314.57	1.106
314.78	1.092
314.99	1.088
315.21	1.074
315.42	1.079
315.63	1.093
315.84	1.072
316.05	1.057
316.26	1.068
316.47	1.086
316.68	1.081
316.89	1.062
317.10	1.082
317.31	1.088
317.52	1.089
317.73	1.066
317.94	1.064
318.15	1.109
318.36	1.109
318.57	1.089
318.78	1.077
318.99	1.116
319.20	1.110
319.41	1.076
319.62	1.077
319.83	1.092
320.04	1.088
320.25	1.073
320.46	1.039
320.67	1.042
320.88	1.040
321.09	1.026
321.30	1.009
321.51	1.026
321.72	1.022
321.93	1.006
322.14	0.997
322.35	1.023
322.56	1.025
322.77	1.014
322.98	1.025
323.19	1.032
323.40	1.039
323.61	1.019
323.82	1.013
324.03	1.020
324.24	1.018
324.45	1.006
324.66	0.987
324.87	0.984
325.08	0.982
325.29	0.961
325.50	0.955
325.71	0.961
325.92	0.968
326.13	0.954
326.34	0.954
326.55	0.962
326.76	0.961
326.97	0.951
327.18	0.946
327.39	0.971
327.60	0.971
327.80	0.972
328.01	0.968
328.22	0.967
328.43	0.971
328.64	0.960
328.85	0.965
329.06	0.967
329.27	0.966
329.48	0.960
329.69	0.942
329.90	0.954
330.11	0.946
330.32	0.939
330.53	0.933
330.74	0.934
330.95	0.932
331.16	0.916
331.37	0.924
331.58	0.923
331.79	0.923
332.00	0.914
332.21	0.907
332.42	0.912
332.63	0.904
332.83	0.900
333.04	0.902
333.25	0.915
333.46	0.915
333.67	0.901
333.88	0.903
334.09	0.913
334.30	0.909
334.51	0.900
334.72	0.896
334.93	0.898
335.14	0.896
335.35	0.888
335.56	0.882
335.77	0.890
335.98	0.889
336.18	0.884
336.39	0.877
336.60	0.882
336.81	0.880
337.02	0.878
337.23	0.884
337.44	0.888
337.65	0.889
337.86	0.878
338.07	0.874
338.28	0.879
338.49	0.876
338.70	0.868
338.91	0.875
339.11	0.883
339.32	0.879
339.53	0.866
339.74	0.863
339.95	0.861
340.16	0.858
340.37	0.851
340.58	0.849
340.79	0.853
341.00	0.854
341.21	0.842
341.41	0.842
341.62	0.844
341.83	0.844
342.04	0.839
342.25	0.850
342.46	0.855
342.67	0.853
342.88	0.846
343.09	0.844
343.30	0.851
343.50	0.854
343.71	0.844
343.92	0.842
344.13	0.848
344.34	0.848
344.55	0.830
344.76	0.829
344.97	0.834
345.18	0.833
345.38	0.831
345.59	0.826
345.80	0.827
346.01	0.825
346.22	0.820
346.43	0.814
346.64	0.821
346.85	0.822
347.06	0.815
347.26	0.815
347.47	0.819
347.68	0.814
347.89	0.810
348.10	0.804
348.31	0.812
348.52	0.811
348.73	0.808
348.93	0.806
349.14	0.808
349.35	0.808
349.56	0.801
349.77	0.796
349.98	0.802
350.19	0.799
350.39	0.794
350.60	0.789
350.81	0.805
351.02	0.803
351.23	0.798
351.44	0.801
351.65	0.804
351.86	0.801
352.06	0.800
352.27	0.800
352.48	0.802
352.69	0.802
352.90	0.797
353.11	0.783
353.31	0.791
353.52	0.787
353.73	0.778
353.94	0.780
354.15	0.785
354.36	0.785
354.57	0.776
354.77	0.778
354.98	0.777
355.19	0.776
355.40	0.776
355.61	0.783
355.82	0.787
356.02	0.787
356.23	0.780
356.44	0.782
356.65	0.786
356.86	0.786
357.07	0.779
357.27	0.782
357.48	0.784
357.69	0.779
357.90	0.764
358.11	0.761
358.32	0.765
358.52	0.768
358.73	0.757
358.94	0.760
359.15	0.765
359.36	0.766
359.56	0.761
359.77	0.759
359.98	0.766
360.19	0.765
360.40	0.762
360.61	0.762
360.81	0.761
361.02	0.761
361.23	0.752
361.44	0.750
361.65	0.751
361.85	0.751
362.06	0.750
362.27	0.752
362.48	0.752
362.69	0.753
362.89	0.746
363.10	0.749
363.31	0.754
363.52	0.757
363.73	0.752
363.93	0.751
364.14	0.753
364.35	0.754
364.56	0.744
364.77	0.746
364.97	0.748
365.18	0.749
365.39	0.744
365.60	0.740
365.81	0.741
366.01	0.741
366.22	0.738
366.43	0.737
366.64	0.739
366.84	0.745
367.05	0.741
367.26	0.741
367.47	0.743
367.68	0.743
367.88	0.740
368.09	0.738
368.30	0.741
368.51	0.742
368.71	0.740
368.92	0.745
369.13	0.743
369.34	0.742
369.55	0.741
369.75	0.740
369.96	0.746
370.17	0.746
370.38	0.743
370.58	0.742
370.79	0.747
371.00	0.746
371.21	0.737
371.41	0.742
371.62	0.746
371.83	0.742
372.04	0.739
372.24	0.733
372.45	0.734
372.66	0.734
372.87	0.731
373.07	0.728
373.28	0.729
373.49	0.732
373.70	0.723
373.90	0.723
374.11	0.732
374.32	0.732
374.53	0.731
374.73	0.732
374.94	0.734
375.15	0.733
375.36	0.731
375.56	0.740
375.77	0.741
375.98	0.741
376.19	0.738
376.39	0.732
376.60	0.736
376.81	0.737
377.02	0.734
377.22	0.733
377.43	0.732
377.64	0.732
377.84	0.723
378.05	0.726
378.26	0.731
378.47	0.730
378.67	0.727
378.88	0.724
379.09	0.724
379.30	0.725
379.50	0.722
379.71	0.726
379.92	0.728
380.12	0.727
380.33	0.719
380.54	0.716
380.75	0.723
380.95	0.723
381.16	0.721
381.37	0.721
381.57	0.723
381.78	0.724
381.99	0.723
382.20	0.722
382.40	0.726
382.61	0.726
382.82	0.723
383.02	0.716
383.23	0.720
383.44	0.720
383.64	0.718
383.85	0.720
384.06	0.722
384.27	0.720
384.47	0.719
384.68	0.719
384.89	0.725
385.09	0.724
385.30	0.724
385.51	0.723
385.71	0.727
385.92	0.727
386.13	0.726
386.33	0.728
386.54	0.729
386.75	0.727
386.95	0.722
387.16	0.717
387.37	0.720
387.58	0.720
387.78	0.718
387.99	0.715
388.20	0.717
388.40	0.714
388.61	0.710
388.82	0.713
389.02	0.715
389.23	0.716
389.44	0.715
389.64	0.715
389.85	0.726
390.06	0.726
390.26	0.727
390.47	0.726
390.68	0.728
390.88	0.726
391.09	0.722
391.30	0.721
391.50	0.721
391.71	0.720
391.92	0.717
392.12	0.710
392.33	0.710
392.53	0.710
392.74	0.711
392.95	0.710
393.15	0.713
393.36	0.715
393.57	0.713
393.77	0.716
393.98	0.718
394.19	0.718
394.39	0.717
394.60	0.718
394.81	0.720
395.01	0.719
395.22	0.717
395.43	0.718
395.63	0.723
395.84	0.725
396.04	0.721
396.25	0.723
396.46	0.725
396.66	0.723
396.87	0.721
397.08	0.717
397.28	0.720
397.49	0.721
397.69	0.718
397.90	0.712
398.11	0.713
398.31	0.713
398.52	0.709
398.73	0.711
398.93	0.710
399.14	0.709
399.34	0.709
399.55	0.710
399.76	0.710
399.96	0.711
400.17	0.710
400.37	0.708
400.58	0.715
400.79	0.717
400.99	0.715
401.20	0.721
401.41	0.723
401.61	0.723
401.82	0.727
402.02	0.728
402.23	0.729
402.44	0.728
402.64	0.727
402.85	0.722
403.05	0.721
403.26	0.719
403.47	0.713
403.67	0.713
403.88	0.713
404.08	0.708
404.29	0.706
404.50	0.706
404.70	0.706
404.91	0.706
405.11	0.702
405.32	0.703
405.52	0.704
405.73	0.703
405.94	0.701
406.14	0.704
406.35	0.706
406.55	0.705
406.76	0.703
406.97	0.704
407.17	0.706
407.38	0.705
407.58	0.703
407.79	0.706
407.99	0.709
408.20	0.709
408.41	0.704
408.61	0.703
408.82	0.704
409.02	0.703
409.23	0.701
409.43	0.700
409.64	0.702
409.84	0.702
410.05	0.699
410.26	0.698
410.46	0.698
410.67	0.698
410.87	0.699
411.08	0.701
411.28	0.702
411.49	0.704
411.69	0.702
411.90	0.702
412.11	0.704
412.31	0.705
412.52	0.702
412.72	0.703
412.93	0.705
413.13	0.703
413.34	0.699
413.54	0.700
413.75	0.702
413.95	0.701
414.16	0.698
414.37	0.701
414.57	0.701
414.78	0.704
414.98	0.702
415.19	0.703
415.39	0.700
415.60	0.702
415.80	0.702
416.01	0.700
416.21	0.702
416.42	0.703
416.62	0.697
416.83	0.697
417.03	0.697
417.24	0.697
417.44	0.694
417.65	0.693
417.86	0.694
418.06	0.692
418.27	0.690
418.47	0.692
418.68	0.693
418.88	0.693
419.09	0.691
419.29	0.692
419.50	0.692
419.70	0.692
419.91	0.691
420.11	0.688
420.32	0.691
420.52	0.690
420.73	0.688
420.93	0.688
421.14	0.690
421.34	0.689
421.55	0.686
421.75	0.686
421.96	0.687
422.16	0.688
422.37	0.687
422.57	0.684
422.78	0.686
422.98	0.683
423.19	0.682
423.39	0.681
423.60	0.685
423.80	0.686
424.01	0.685
424.21	0.687
424.42	0.688
424.62	0.688
424.83	0.686
425.03	0.687
425.23	0.689
425.44	0.688
425.64	0.688
425.85	0.687
426.05	0.688
426.26	0.688
426.46	0.684
426.67	0.683
426.87	0.688
427.08	0.689
427.28	0.686
427.49	0.687
427.69	0.688
427.90	0.687
428.10	0.683
428.31	0.683
428.51	0.685
428.71	0.685
428.92	0.686
429.12	0.684
429.33	0.684
429.53	0.689
429.74	0.693
429.94	0.693
430.15	0.693
430.35	0.693
430.56	0.690
430.76	0.689
430.96	0.690
431.17	0.686
431.37	0.684
431.58	0.682
431.78	0.678
431.99	0.671
432.19	0.673
432.40	0.674
432.60	0.675
432.80	0.677
433.01	0.675
433.21	0.676
433.42	0.678
433.62	0.679
433.83	0.679
434.03	0.681
434.23	0.684
434.44	0.684
434.64	0.682
434.85	0.687
435.05	0.688
435.26	0.688
435.46	0.686
435.66	0.686
435.87	0.686
436.07	0.685
436.28	0.680
436.48	0.677
436.69	0.676
436.89	0.676
437.09	0.670
437.30	0.668
437.50	0.668
437.71	0.680
437.91	0.679
438.11	0.681
438.32	0.685
438.52	0.686
438.73	0.685
438.93	0.684
439.13	0.683
439.34	0.687
439.54	0.685
439.75	0.685
439.95	0.675
440.15	0.679
440.36	0.678
440.56	0.676
440.77	0.677
440.97	0.676
441.17	0.675
441.38	0.676
441.58	0.674
441.79	0.674
441.99	0.672
442.19	0.671
442.40	0.669
442.60	0.668
442.81	0.666
443.01	0.666
443.21	0.667
443.42	0.666
443.62	0.664
443.82	0.664
444.03	0.666
444.23	0.665
444.44	0.665
444.64	0.664
444.84	0.666
445.05	0.665
445.25	0.663
445.45	0.663
445.66	0.666
445.86	0.665
446.06	0.666
446.27	0.666
446.47	0.669
446.68	0.667
446.88	0.665
447.08	0.664
447.29	0.666
447.49	0.666
447.69	0.665
447.90	0.664
448.10	0.668
448.30	0.664
448.51	0.665
448.71	0.663
448.91	0.666
449.12	0.665
449.32	0.667
449.52	0.666
449.73	0.670
449.93	0.669
450.14	0.669
450.34	0.668
450.54	0.671
450.75	0.668
450.95	0.667
451.15	0.667
451.36	0.670
451.56	0.667
451.76	0.665
451.97	0.662
452.17	0.663
452.37	0.661
452.58	0.658
452.78	0.657
452.98	0.660
453.19	0.659
453.39	0.659
453.59	0.658
453.79	0.659
454.00	0.659
454.20	0.658
454.40	0.659
454.61	0.661
454.81	0.662
455.01	0.661
455.22	0.661
455.42	0.663
455.62	0.661
455.83	0.661
456.03	0.664
456.23	0.665
456.44	0.666
456.64	0.664
456.84	0.665
457.04	0.665
457.25	0.664
457.45	0.661
457.65	0.660
457.86	0.660
458.06	0.659
458.26	0.655
458.47	0.654
458.67	0.655
458.87	0.655
459.07	0.652
459.28	0.655
459.48	0.657
459.68	0.657
459.89	0.656
460.09	0.655
460.29	0.656
460.49	0.657
460.70	0.656
460.90	0.656
461.10	0.657
461.31	0.656
461.51	0.653
461.71	0.654
461.91	0.655
462.12	0.656
462.32	0.655
462.52	0.655
462.72	0.658
462.93	0.659
463.13	0.658
463.33	0.659
463.53	0.661
463.74	0.660
463.94	0.655
464.14	0.656
464.35	0.657
464.55	0.657
464.75	0.655
464.95	0.652
465.16	0.654
465.36	0.653
465.56	0.652
465.76	0.651
465.97	0.651
466.17	0.652
466.37	0.651
466.57	0.651
466.78	0.652
466.98	0.652
467.18	0.651
467.38	0.650
467.59	0.651
467.79	0.653
467.99	0.652
468.19	0.653
468.39	0.657
468.60	0.656
468.80	0.655
469.00	0.656
469.20	0.658
469.41	0.658
469.61	0.657
469.81	0.657
470.01	0.657
470.22	0.657
470.42	0.656
470.62	0.653
470.82	0.655
471.02	0.655
471.23	0.652
471.43	0.653
471.63	0.655
471.83	0.654
472.04	0.652
472.24	0.650
472.44	0.656
472.64	0.656
472.84	0.654
473.05	0.654
473.25	0.657
473.45	0.655
473.65	0.653
473.85	0.654
474.06	0.655
474.26	0.655
474.46	0.657
474.66	0.653
474.86	0.654
475.07	0.654
475.27	0.652
475.47	0.649
475.67	0.651
475.87	0.653
476.08	0.649
476.28	0.651
476.48	0.652
476.68	0.650
476.88	0.647
477.09	0.648
477.29	0.650
477.49	0.651
477.69	0.650
477.89	0.649
478.09	0.649
478.30	0.651
478.50	0.648
478.70	0.647
478.90	0.647
479.10	0.651
479.31	0.652
479.51	0.650
479.71	0.651
479.91	0.651
480.11	0.650
480.31	0.650
480.52	0.649
480.72	0.649
480.92	0.648
481.12	0.647
481.32	0.645
481.52	0.643
481.72	0.643
481.93	0.647
482.13	0.647
482.33	0.647
482.53	0.645
482.73	0.645
482.93	0.646
483.14	0.645
483.34	0.644
483.54	0.645
483.74	0.645
483.94	0.643
484.14	0.639
484.34	0.639
484.55	0.640
484.75	0.640
484.95	0.638
485.15	0.638
485.35	0.638
485.55	0.638
485.75	0.636
485.96	0.636
486.16	0.638
486.36	0.637
486.56	0.635
486.76	0.635
486.96	0.636
487.16	0.635
487.36	0.633
487.57	0.633
487.77	0.633
487.97	0.634
488.17	0.632
488.37	0.631
488.57	0.632
488.77	0.632
488.97	0.631
489.18	0.630
489.38	0.633
489.58	0.634
489.78	0.633
489.98	0.632
490.18	0.632
490.38	0.633
490.58	0.632
490.78	0.633
490.98	0.634
491.19	0.635
491.39	0.634
491.59	0.633
491.79	0.635
491.99	0.636
492.19	0.636
492.39	0.638
492.59	0.638
492.79	0.640
492.99	0.640
493.20	0.640
493.40	0.640
493.60	0.642
493.80	0.640
494.00	0.638
494.20	0.638
494.40	0.638
494.60	0.636
494.80	0.640
495.00	0.639
495.20	0.637
495.40	0.636
495.61	0.638
495.81	0.638
496.01	0.642
496.21	0.643
496.41	0.642
496.61	0.642
496.81	0.641
497.01	0.636
497.21	0.635
497.41	0.635
497.61	0.635
497.81	0.632
498.01	0.633
498.21	0.631
498.41	0.629
498.61	0.629
498.82	0.630
499.02	0.633
499.22	0.634
499.42	0.633
499.62	0.635
499.82	0.635
500.02	0.637
500.22	0.635
500.42	0.637
500.62	0.638
500.82	0.638
501.02	0.636
501.22	0.635
501.42	0.635
501.62	0.638
501.82	0.637
502.02	0.637
502.22	0.637
502.42	0.638
502.62	0.636
502.82	0.636
503.02	0.636
503.22	0.636
503.42	0.634
503.63	0.634
503.83	0.632
504.03	0.631
504.23	0.629
504.43	0.630
504.63	0.631
504.83	0.631
505.03	0.630
505.23	0.632
505.43	0.634
505.63	0.634
505.83	0.634
506.03	0.636
506.23	0.638
506.43	0.638
506.63	0.637
506.83	0.636
507.03	0.638
507.23	0.639
507.43	0.636
507.63	0.637
507.83	0.637
508.03	0.637
508.23	0.636
508.43	0.635
508.63	0.637
508.83	0.637
509.03	0.638
509.23	0.636
509.43	0.638
509.63	0.638
509.83	0.636
510.03	0.638
510.23	0.640
510.43	0.641
510.63	0.641
510.83	0.642
511.03	0.644
511.23	0.641
511.43	0.641
511.63	0.642
511.83	0.645
512.03	0.645
512.22	0.642
512.42	0.641
512.62	0.641
512.82	0.641
513.02	0.639
513.22	0.639
513.42	0.641
513.62	0.644
513.82	0.642
514.02	0.641
514.22	0.642
514.42	0.643
514.62	0.643
514.82	0.643
515.02	0.646
515.22	0.649
515.42	0.648
515.62	0.650
515.82	0.649
516.02	0.650
516.22	0.650
516.42	0.651
516.62	0.653
516.82	0.654
517.01	0.652
517.21	0.652
517.41	0.655
517.61	0.656
517.81	0.651
518.01	0.651
518.21	0.651
518.41	0.649
518.61	0.648
518.81	0.648
519.01	0.649
519.21	0.650
519.41	0.649
519.61	0.643
519.81	0.645
520.00	0.646
520.20	0.646
520.40	0.649
520.60	0.650
520.80	0.649
521.00	0.649
521.20	0.650
521.40	0.655
521.60	0.655
521.80	0.655
522.00	0.655
522.20	0.657
522.39	0.656
522.59	0.653
522.79	0.655
522.99	0.657
523.19	0.655
523.39	0.653
523.59	0.650
523.79	0.654
523.99	0.656
524.19	0.655
524.38	0.653
524.58	0.656
524.78	0.656
524.98	0.655
525.18	0.657
525.38	0.659
525.58	0.660
525.78	0.657
525.98	0.655
526.18	0.655
526.37	0.654
526.57	0.656
526.77	0.655
526.97	0.656
527.17	0.656
527.37	0.652
527.57	0.654
527.77	0.655
527.96	0.656
528.16	0.655
528.36	0.656
528.56	0.658
528.76	0.656
528.96	0.655
529.16	0.656
529.36	0.658
529.55	0.658
529.75	0.655
529.95	0.655
530.15	0.656
530.35	0.659
530.55	0.657
530.75	0.657
530.94	0.659
531.14	0.660
531.34	0.658
531.54	0.656
531.74	0.659
531.94	0.663
532.13	0.661
532.33	0.663
532.53	0.662
532.73	0.662
532.93	0.659
533.13	0.660
533.33	0.660
533.52	0.660
533.72	0.663
533.92	0.661
534.12	0.659
534.32	0.659
534.52	0.658
534.71	0.660
534.91	0.662
535.11	0.664
535.31	0.662
535.51	0.665
535.71	0.667
535.90	0.663
536.10	0.664
536.30	0.666
536.50	0.667
536.70	0.667
536.89	0.664
537.09	0.664
537.29	0.666
537.49	0.667
537.69	0.664
537.89	0.664
538.08	0.664
538.28	0.663
538.48	0.663
538.68	0.664
538.88	0.666
539.07	0.666
539.27	0.665
539.47	0.663
539.67	0.663
539.87	0.665
540.06	0.663
540.26	0.665
540.46	0.666
540.66	0.664
540.86	0.661
541.05	0.661
541.25	0.663
541.45	0.663
541.65	0.662
541.84	0.664
542.04	0.664
542.24	0.664
542.44	0.663
542.64	0.664
542.83	0.667
543.03	0.668
543.23	0.665
543.43	0.666
543.62	0.667
543.82	0.668
544.02	0.666
544.22	0.666
544.42	0.670
544.61	0.670
544.81	0.666
545.01	0.665
545.21	0.667
545.40	0.668
545.60	0.667
545.80	0.670
546.00	0.670
546.19	0.670
546.39	0.668
546.59	0.666
546.79	0.668
546.98	0.668
547.18	0.668
547.38	0.669
547.58	0.671
547.77	0.672
547.97	0.668
548.17	0.670
548.37	0.670
548.56	0.671
548.76	0.670
548.96	0.671
549.16	0.674
549.35	0.674
549.55	0.672
549.75	0.672
549.95	0.676
550.14	0.676
550.34	0.674
550.54	0.678
550.73	0.682
550.93	0.683
551.13	0.680
551.33	0.678
551.52	0.679
551.72	0.679
551.92	0.677
552.12	0.677
552.31	0.678
552.51	0.678
552.71	0.673
552.90	0.672
553.10	0.673
553.30	0.673
553.50	0.673
553.69	0.674
553.89	0.675
554.09	0.675
554.28	0.672
554.48	0.674
554.68	0.676
554.87	0.676
555.07	0.673
555.27	0.673
555.47	0.675
555.66	0.675
555.86	0.673
556.06	0.675
556.25	0.676
556.45	0.684
556.65	0.681
556.84	0.685
557.04	0.688
557.24	0.689
557.43	0.688
557.63	0.691
557.83	0.694
558.02	0.694
558.22	0.698
558.42	0.698
558.61	0.691
558.81	0.692
559.01	0.688
559.21	0.688
559.40	0.689
559.60	0.689
559.80	0.686
559.99	0.686
560.19	0.689
560.39	0.683
560.58	0.681
560.78	0.681
560.97	0.684
561.17	0.683
561.37	0.681
561.56	0.682
561.76	0.683
561.96	0.682
562.15	0.680
562.35	0.682
562.55	0.684
562.74	0.684
562.94	0.683
563.14	0.681
563.33	0.682
563.53	0.682
563.73	0.679
563.92	0.681
564.12	0.684
564.31	0.687
564.51	0.684
564.71	0.687
564.90	0.689
565.10	0.690
565.30	0.692
565.49	0.693
565.69	0.695
565.89	0.695
566.08	0.692
566.28	0.693
566.47	0.695
566.67	0.693
566.87	0.689
567.06	0.691
567.26	0.697
567.46	0.693
567.65	0.692
567.85	0.694
568.04	0.697
568.24	0.697
568.44	0.694
568.63	0.692
568.83	0.693
569.02	0.693
569.22	0.688
569.42	0.685
569.61	0.687
569.81	0.686
570.00	0.684
570.20	0.685
570.40	0.686
570.59	0.686
570.79	0.684
570.98	0.682
571.18	0.684
571.38	0.683
571.57	0.680
571.77	0.678
571.96	0.681
572.16	0.679
572.35	0.673
572.55	0.674
572.75	0.672
572.94	0.672
573.14	0.671
573.33	0.670
573.53	0.671
573.73	0.671
573.92	0.668
574.12	0.667
574.31	0.670
574.51	0.671
574.70	0.668
574.90	0.670
575.09	0.673
575.29	0.673
575.49	0.670
575.68	0.671
575.88	0.672
576.07	0.674
576.27	0.672
576.46	0.670
576.66	0.669
576.86	0.669
577.05	0.666
577.25	0.664
577.44	0.666
577.64	0.666
577.83	0.664
578.03	0.665
578.22	0.665
578.42	0.663
578.61	0.662
578.81	0.663
579.00	0.663
579.20	0.663
579.40	0.662
579.59	0.660
579.79	0.660
579.98	0.660
580.18	0.660
580.37	0.660
580.57	0.662
580.76	0.666
580.96	0.664
581.15	0.665
581.35	0.667
581.54	0.667
581.74	0.667
581.93	0.668
582.13	0.669
582.32	0.667
582.52	0.665
582.71	0.665
582.91	0.661
583.10	0.661
583.30	0.659
583.49	0.658
583.69	0.662
583.88	0.663
584.08	0.662
584.27	0.663
584.47	0.666
584.66	0.667
584.86	0.666
585.05	0.668
585.25	0.670
585.44	0.670
585.64	0.668
585.83	0.665
586.03	0.666
586.22	0.664
586.42	0.661
586.61	0.662
586.81	0.665
587.00	0.665
587.20	0.662
587.39	0.663
587.59	0.665
587.78	0.667
587.98	0.667
588.17	0.668
588.37	0.671
588.56	0.673
588.76	0.669
588.95	0.668
589.15	0.672
589.34	0.675
589.54	0.673
589.73	0.673
589.92	0.676
590.12	0.676
590.31	0.674
590.51	0.679
590.70	0.680
590.90	0.681
591.09	0.678
591.29	0.677
591.48	0.677
591.68	0.678
591.87	0.677
592.06	0.676
592.26	0.679
592.45	0.678
592.65	0.671
592.84	0.671
593.04	0.674
593.23	0.676
593.43	0.673
593.62	0.673
593.81	0.673
594.01	0.673
594.20	0.670
594.40	0.669
594.59	0.672
594.79	0.673
594.98	0.672
595.17	0.671
595.37	0.672
595.56	0.674
595.76	0.674
595.95	0.675
596.14	0.678
596.34	0.680
596.53	0.678
596.73	0.679
596.92	0.681
597.12	0.683
597.31	0.682
597.50	0.681
597.70	0.683
597.89	0.682
598.09	0.679
598.28	0.680
598.47	0.682
598.67	0.680
598.86	0.677
599.06	0.678
599.25	0.678
599.44	0.677
599.64	0.674
599.83	0.671
600.03	0.674
600.22	0.675
600.41	0.675
600.61	0.672
600.80	0.675
601.00	0.675
601.19	0.671
601.38	0.670
601.58	0.673
601.77	0.674
601.96	0.677
602.16	0.677
602.35	0.686
602.55	0.683
602.74	0.684
602.93	0.686
603.13	0.691
603.32	0.693
603.51	0.692
603.71	0.694
603.90	0.696
604.09	0.696
604.29	0.693
604.48	0.688
604.68	0.689
604.87	0.688
605.06	0.683
605.26	0.680
605.45	0.681
605.64	0.681
605.84	0.675
606.03	0.675
606.22	0.673
606.42	0.673
606.61	0.669
606.80	0.669
607.00	0.672
607.19	0.672
607.38	0.670
607.58	0.672
607.77	0.675
607.96	0.675
608.16	0.674
608.35	0.679
608.54	0.682
608.74	0.686
608.93	0.690
609.12	0.692
609.32	0.696
609.51	0.699
609.70	0.697
609.90	0.699
610.09	0.703
610.28	0.709
610.48	0.702
610.67	0.702
610.86	0.703
611.06	0.698
611.25	0.695
611.44	0.695
611.64	0.695
611.83	0.698
612.02	0.694
612.21	0.693
612.41	0.691
612.60	0.691
612.79	0.687
612.99	0.687
613.18	0.689
613.37	0.687
613.57	0.684
613.76	0.686
613.95	0.683
614.14	0.683
614.34	0.680
614.53	0.681
614.72	0.684
614.92	0.685
615.11	0.682
615.30	0.679
615.49	0.681
615.69	0.684
615.88	0.680
616.07	0.682
616.26	0.685
616.46	0.686
616.65	0.682
616.84	0.681
617.04	0.682
617.23	0.685
617.42	0.686
617.61	0.690
617.81	0.690
618.00	0.692
618.19	0.690
618.38	0.693
618.58	0.697
618.77	0.699
618.96	0.697
619.15	0.700
619.35	0.702
619.54	0.702
619.73	0.697
619.92	0.699
620.12	0.704
620.31	0.704
620.50	0.698
620.69	0.699
620.89	0.702
621.08	0.702
621.27	0.701
621.46	0.700
621.66	0.704
621.85	0.704
622.04	0.699
622.23	0.700
622.43	0.701
622.62	0.700
622.81	0.699
623.00	0.698
623.19	0.701
623.39	0.700
623.58	0.697
623.77	0.696
623.96	0.699
624.16	0.699
624.35	0.694
624.54	0.697
624.73	0.701
624.92	0.698
625.12	0.696
625.31	0.697
625.50	0.700
625.69	0.700
625.88	0.696
626.08	0.696
626.27	0.697
626.46	0.698
626.65	0.694
626.84	0.695
627.04	0.701
627.23	0.701
627.42	0.697
627.61	0.699
627.80	0.703
628.00	0.703
628.19	0.702
628.38	0.706
628.57	0.708
628.76	0.708
628.96	0.704
629.15	0.704
629.34	0.708
629.53	0.707
629.72	0.701
629.91	0.701
630.11	0.707
630.30	0.707
630.49	0.709
630.68	0.708
630.87	0.713
631.06	0.715
631.26	0.710
631.45	0.712
631.64	0.720
631.83	0.722
632.02	0.720
632.21	0.718
632.41	0.725
632.60	0.719
632.79	0.717
632.98	0.718
633.17	0.719
633.36	0.721
633.55	0.717
633.75	0.713
633.94	0.715
634.13	0.715
634.32	0.713
634.51	0.708
634.70	0.710
634.89	0.709
635.09	0.704
635.28	0.705
635.47	0.707
635.66	0.710
635.85	0.706
636.04	0.708
636.23	0.713
636.43	0.714
636.62	0.713
636.81	0.713
637.00	0.717
637.19	0.720
637.38	0.717
637.57	0.716
637.76	0.718
637.95	0.719
638.15	0.715
638.34	0.712
638.53	0.715
638.72	0.715
638.91	0.713
639.10	0.710
639.29	0.710
639.48	0.711
639.67	0.711
639.87	0.710
640.06	0.714
640.25	0.713
640.44	0.714
640.63	0.714
640.82	0.717
641.01	0.718
641.20	0.717
641.39	0.718
641.58	0.720
641.78	0.719
641.97	0.714
642.16	0.729
642.35	0.730
642.54	0.729
642.73	0.723
642.92	0.721
643.11	0.724
643.30	0.724
643.49	0.719
643.68	0.722
643.87	0.723
644.06	0.723
644.25	0.703
644.45	0.706
644.64	0.707
644.83	0.708
645.02	0.704
645.21	0.704
645.40	0.706
645.59	0.706
645.78	0.700
645.97	0.702
646.16	0.704
646.35	0.703
646.54	0.701
646.73	0.703
646.92	0.706
647.11	0.705
647.30	0.701
647.49	0.703
647.68	0.704
647.88	0.703
648.07	0.697
648.26	0.700
648.45	0.701
648.64	0.698
648.83	0.695
649.02	0.697
649.21	0.708
649.40	0.706
649.59	0.701
649.78	0.700
649.97	0.715
650.16	0.714
650.35	0.707
650.54	0.710
650.73	0.719
650.92	0.715
651.11	0.708
651.30	0.705
651.49	0.710
651.68	0.711
651.87	0.709
652.06	0.698
652.25	0.702
652.44	0.705
652.63	0.701
652.82	0.701
653.01	0.701
653.20	0.699
653.39	0.687
653.58	0.684
653.77	0.684
653.96	0.679
654.15	0.671
654.34	0.668
654.53	0.664
654.72	0.659
654.91	0.650
655.10	0.646
655.29	0.644
655.48	0.643
655.67	0.637
655.86	0.635
656.05	0.634
656.24	0.633
656.43	0.628
656.62	0.627
656.81	0.627
657.00	0.624
657.19	0.621
657.38	0.621
657.57	0.621
657.76	0.623
657.95	0.621
658.14	0.624
658.33	0.627
658.51	0.632
658.70	0.632
658.89	0.634
659.08	0.643
659.27	0.651
659.46	0.651
659.65	0.658
659.84	0.661
660.03	0.664
660.22	0.664
660.41	0.668
660.60	0.668
660.79	0.669
660.98	0.675
661.17	0.673
661.36	0.671
661.55	0.672
661.74	0.669
661.92	0.672
662.11	0.674
662.30	0.673
662.49	0.665
662.68	0.665
662.87	0.669
663.06	0.663
663.25	0.664
663.44	0.665
663.63	0.666
663.82	0.665
664.01	0.659
664.20	0.658
664.38	0.659
664.57	0.661
664.76	0.659
664.95	0.659
665.14	0.664
665.33	0.660
665.52	0.667
665.71	0.671
665.90	0.671
666.09	0.672
666.28	0.670
666.46	0.669
666.65	0.670
666.84	0.669
667.03	0.663
667.22	0.660
667.41	0.663
667.60	0.653
667.79	0.646
667.98	0.647
668.16	0.648
668.35	0.648
668.54	0.645
668.73	0.645
668.92	0.647
669.11	0.647
669.30	0.641
669.49	0.637
669.67	0.639
669.86	0.642
670.05	0.640
670.24	0.636
670.43	0.634
670.62	0.632
670.81	0.627
671.00	0.628
671.18	0.628
671.37	0.627
671.56	0.625
671.75	0.623
671.94	0.620
672.13	0.618
672.32	0.614
672.50	0.613
672.69	0.614
672.88	0.614
673.07	0.609
673.26	0.611
673.45	0.612
673.63	0.612
673.82	0.609
674.01	0.611
674.20	0.611
674.39	0.610
674.58	0.610
674.76	0.610
674.95	0.609
675.14	0.609
675.33	0.604
675.52	0.603
675.71	0.603
675.89	0.603
676.08	0.598
676.27	0.597
676.46	0.598
676.65	0.597
676.84	0.596
677.02	0.598
677.21	0.600
677.40	0.599
677.59	0.597
677.78	0.598
677.96	0.600
678.15	0.599
678.34	0.597
678.53	0.598
678.72	0.599
678.90	0.595
679.09	0.591
679.28	0.588
679.47	0.588
679.66	0.588
679.84	0.584
680.03	0.581
680.22	0.581
680.41	0.582
680.60	0.578
680.78	0.576
680.97	0.579
681.16	0.579
681.35	0.578
681.53	0.576
681.72	0.578
681.91	0.580
682.10	0.579
682.29	0.581
682.47	0.580
682.66	0.579
682.85	0.578
683.04	0.577
683.22	0.577
683.41	0.579
683.60	0.578
683.79	0.578
683.97	0.577
684.16	0.576
684.35	0.572
684.54	0.573
684.72	0.574
684.91	0.574
685.10	0.573
685.29	0.574
685.47	0.572
685.66	0.571
685.85	0.568
686.04	0.567
686.22	0.570
686.41	0.572
686.60	0.570
686.79	0.572
686.97	0.574
687.16	0.575
687.35	0.571
687.54	0.575
687.72	0.580
687.91	0.579
688.10	0.581
688.29	0.580
688.47	0.578
688.66	0.578
688.85	0.573
689.03	0.570
689.22	0.575
689.41	0.575
689.60	0.570
689.78	0.567
689.97	0.568
690.16	0.565
690.34	0.562
690.53	0.562
690.72	0.562
690.91	0.560
691.09	0.558
691.28	0.552
691.47	0.551
691.65	0.550
691.84	0.547
692.03	0.545
692.21	0.543
692.40	0.543
692.59	0.541
692.77	0.540
692.96	0.541
693.15	0.542
693.34	0.540
693.52	0.540
693.71	0.540
693.90	0.542
694.08	0.543
694.27	0.544
694.46	0.552
694.64	0.553
694.83	0.552
695.02	0.551
695.20	0.550
695.39	0.550
695.58	0.550
695.76	0.550
695.95	0.549
696.14	0.548
696.32	0.546
696.51	0.537
696.70	0.537
696.88	0.538
697.07	0.537
697.26	0.539
697.44	0.540
697.63	0.540
697.81	0.538
698.00	0.538
698.19	0.537
698.37	0.537
698.56	0.537
698.75	0.537
698.93	0.536
699.12	0.536
699.31	0.534
699.49	0.534
699.68	0.535
699.87	0.537
700.05	0.536
700.24	0.536
700.42	0.538
700.61	0.537
700.80	0.535
700.98	0.535
701.17	0.537
701.36	0.536
701.54	0.535
701.73	0.536
701.91	0.534
702.10	0.533
702.29	0.531
702.47	0.530
702.66	0.532
702.84	0.532
703.03	0.530
703.22	0.531
703.40	0.531
703.59	0.532
703.77	0.531
703.96	0.531
704.15	0.532
704.33	0.532
704.52	0.532
704.70	0.531
704.89	0.532
705.08	0.530
705.26	0.526
705.45	0.526
705.63	0.526
705.82	0.524
706.00	0.522
706.19	0.522
706.38	0.522
706.56	0.521
706.75	0.519
706.93	0.518
707.12	0.519
707.30	0.519
707.49	0.516
707.68	0.515
707.86	0.514
708.05	0.514
708.23	0.511
708.42	0.511
708.60	0.514
708.79	0.513
708.98	0.511
709.16	0.511
709.35	0.513
709.53	0.517
709.72	0.515
709.90	0.517
710.09	0.519
710.27	0.521
710.46	0.525
710.64	0.524
710.83	0.526
711.02	0.527
711.20	0.526
711.39	0.524
711.57	0.522
711.76	0.522
711.94	0.520
712.13	0.521
712.31	0.520
712.50	0.516
712.68	0.514
712.87	0.515
713.05	0.516
713.24	0.517
713.42	0.516
713.61	0.517
713.79	0.518
713.98	0.518
714.16	0.519
714.35	0.518
714.54	0.520
714.72	0.519
714.91	0.517
715.09	0.524
715.28	0.527
715.46	0.526
715.65	0.524
715.83	0.524
716.02	0.526
716.20	0.523
716.39	0.522
716.57	0.523
716.76	0.525
716.94	0.525
717.12	0.517
717.31	0.518
717.49	0.521
717.68	0.522
717.86	0.521
718.05	0.523
718.23	0.526
718.42	0.528
718.60	0.529
718.79	0.538
718.97	0.541
719.16	0.541
719.34	0.538
719.53	0.537
719.71	0.538
719.90	0.540
720.08	0.536
720.27	0.537
720.45	0.537
720.63	0.536
720.82	0.529
721.00	0.531
721.19	0.535
721.37	0.535
721.56	0.535
721.74	0.538
721.93	0.547
722.11	0.554
722.30	0.551
722.48	0.556
722.66	0.557
722.85	0.557
723.03	0.558
723.22	0.556
723.40	0.560
723.59	0.559
723.77	0.563
723.95	0.556
724.14	0.558
724.32	0.560
724.51	0.559
724.69	0.560
724.88	0.561
725.06	0.558
725.24	0.559
725.43	0.560
725.61	0.564
725.80	0.558
725.98	0.556
726.16	0.552
726.35	0.558
726.53	0.557
726.72	0.555
726.90	0.565
727.09	0.565
727.27	0.571
727.45	0.567
727.64	0.575
727.82	0.585
728.01	0.588
728.19	0.586
728.37	0.591
728.56	0.596
728.74	0.603
728.92	0.591
729.11	0.595
729.29	0.593
729.48	0.597
729.66	0.585
729.84	0.585
730.03	0.588
730.21	0.591
730.40	0.581
730.58	0.581
730.76	0.581
730.95	0.584
731.13	0.584
731.31	0.598
731.50	0.606
731.68	0.610
731.86	0.606
732.05	0.621
732.23	0.623
732.42	0.627
732.60	0.630
732.78	0.636
732.97	0.655
733.15	0.661
733.33	0.648
733.52	0.656
733.70	0.667
733.88	0.676
734.07	0.660
734.25	0.686
734.43	0.695
734.62	0.697
734.80	0.689
734.98	0.678
735.17	0.684
735.35	0.692
735.53	0.680
735.72	0.682
735.90	0.702
736.08	0.722
736.27	0.699
736.45	0.707
736.63	0.720
736.82	0.732
737.00	0.731
737.18	0.741
737.37	0.769
737.55	0.790
737.73	0.785
737.92	0.788
738.10	0.785
738.28	0.805
738.46	0.791
738.65	0.801
738.83	0.819
739.01	0.871
739.20	0.858
739.38	0.843
739.56	0.833
739.75	0.838
739.93	0.804
740.11	0.827
740.29	0.824
740.48	0.830
740.66	0.808
740.84	0.805
741.03	0.774
741.21	0.787
741.39	0.766
741.57	0.781
741.76	0.796
741.94	0.803
742.12	0.771
742.31	0.781
742.49	0.799
742.67	0.824
742.85	0.835
743.04	0.837
743.22	0.845
743.40	0.900
743.58	0.880
743.77	0.899
743.95	0.933
744.13	0.978
744.31	0.956
744.50	0.956
744.68	0.957
744.86	0.933
745.04	0.940
745.23	1.005
745.41	0.984
745.59	0.991
745.77	0.951
745.96	0.944
746.14	0.953
746.32	0.953
746.50	0.934
746.69	0.918
746.87	0.931
747.05	0.916
747.23	0.841
747.42	0.832
747.60	0.857
747.78	0.859
747.96	0.881
748.14	0.841
748.33	0.865
748.51	0.867
748.69	0.859
748.87	0.886
749.06	0.891
749.24	0.892
749.42	0.875
749.60	0.854
749.78	0.864
749.97	0.821
750.15	0.813
750.33	0.815
750.51	0.836
750.69	0.838
750.88	0.839
751.06	0.842
751.24	0.867
751.42	0.859
751.60	0.854
751.79	0.918
751.97	0.963
752.15	0.964
752.33	0.933
752.51	0.995
752.69	1.015
752.88	0.984
753.06	1.031
753.24	1.009
753.42	1.049
753.60	1.212
753.78	1.075
753.97	1.085
754.15	1.108
754.33	1.130
754.51	1.007
754.69	0.989
754.87	1.021
755.06	0.949
755.24	0.949
755.42	0.954
755.60	0.861
755.78	0.870
755.96	0.822
756.15	0.821
756.33	0.829
756.51	0.853
756.69	0.840
756.87	0.805
757.05	0.828
757.23	0.811
757.42	0.778
757.60	0.778
757.78	0.767
757.96	0.766
758.14	0.749
758.32	0.735
758.50	0.744
758.69	0.743
758.87	0.737
759.05	0.740
759.23	0.751
759.41	0.752
759.59	0.745
759.77	0.765
759.95	0.791
760.13	0.840
760.32	0.835
760.50	0.832
760.68	0.856
760.86	0.857
761.04	0.826
761.22	0.829
761.40	0.874
761.58	0.874
761.76	0.848
761.95	0.831
762.13	0.788
762.31	0.790
762.49	0.760
762.67	0.774
762.85	0.787
763.03	0.783
763.21	0.765
763.39	0.746
763.57	0.750
763.75	0.747
763.94	0.732
764.12	0.737
764.30	0.762
764.48	0.766
764.66	0.734
764.84	0.732
765.02	0.771
765.20	0.779
765.38	0.762
765.56	0.769
765.74	0.808
765.92	0.812
766.10	0.816
766.28	0.805
766.46	0.832
766.65	0.831
766.83	0.819
767.01	0.800
767.19	0.809
767.37	0.807
767.55	0.792
767.73	0.772
767.91	0.774
768.09	0.762
768.27	0.752
768.45	0.742
768.63	0.748
768.81	0.750
768.99	0.725
769.17	0.745
769.35	0.760
769.53	0.758
769.71	0.740
769.89	0.747
770.07	0.753
770.25	0.737
770.43	0.716
770.61	0.739
770.79	0.744
770.97	0.751
771.15	0.724
771.33	0.728
771.51	0.732
771.69	0.744
771.87	0.753
772.05	0.759
772.24	0.765
772.42	0.774
772.60	0.752
772.78	0.811
772.96	0.838
773.14	0.831
773.32	0.806
773.49	0.811
773.67	0.811
773.85	0.787
774.03	0.775
774.21	0.808
774.39	0.820
774.57	0.843
774.75	0.770
774.93	0.768
775.11	0.792
775.29	0.800
775.47	0.802
775.65	0.809
775.83	0.827
776.01	0.852
776.19	0.805
776.37	0.807
776.55	0.807
776.73	0.807
776.91	0.799
777.09	0.783
777.27	0.782
777.45	0.770
777.63	0.748
777.81	0.744
777.99	0.729
778.17	0.730
778.35	0.709
778.53	0.697
778.71	0.702
778.89	0.692
779.07	0.681
779.24	0.686
779.42	0.689
779.60	0.708
779.78	0.705
779.96	0.709
780.14	0.716
780.32	0.735
780.50	0.720
780.68	0.718
780.86	0.711
781.04	0.727
781.22	0.729
781.40	0.739
781.58	0.729
781.75	0.723
781.93	0.707
782.11	0.707
782.29	0.696
782.47	0.694
782.65	0.682
782.83	0.708
783.01	0.704
783.19	0.699
783.37	0.683
783.55	0.688
783.72	0.704
783.90	0.715
784.08	0.707
784.26	0.719
784.44	0.741
784.62	0.742
784.80	0.710
784.98	0.714
785.16	0.719
785.33	0.735
785.51	0.717
785.69	0.703
785.87	0.702
786.05	0.713
786.23	0.706
786.41	0.701
786.59	0.709
786.77	0.709
786.94	0.697
787.12	0.699
787.30	0.699
787.48	0.698
787.66	0.687
787.84	0.689
788.02	0.680
788.19	0.677
788.37	0.665
788.55	0.666
788.73	0.666
788.91	0.660
789.09	0.646
789.27	0.634
789.44	0.646
789.62	0.651
789.80	0.658
789.98	0.682
790.16	0.671
790.34	0.666
790.51	0.655
790.69	0.675
790.87	0.682
791.05	0.679
791.23	0.675
791.41	0.674
791.58	0.685
791.76	0.664
791.94	0.634
792.12	0.645
792.30	0.647
792.48	0.645
792.65	0.638
792.83	0.644
793.01	0.651
793.19	0.649
793.37	0.634
793.54	0.629
793.72	0.640
793.90	0.638
794.08	0.626
794.26	0.628
794.43	0.636
794.61	0.621
794.79	0.610
794.97	0.608
795.15	0.613
795.32	0.619
795.50	0.609
795.68	0.603
795.86	0.608
796.04	0.611
796.21	0.603
796.39	0.602
796.57	0.617
796.75	0.624
796.92	0.626
797.10	0.631
797.28	0.632
797.46	0.635
797.64	0.638
797.81	0.647
797.99	0.651
798.17	0.655
798.35	0.650
798.52	0.653
798.70	0.649
798.88	0.655
799.06	0.655
799.23	0.659
799.41	0.669
799.59	0.660
799.77	0.649
799.94	0.658
800.12	0.668
800.30	0.686
800.48	0.684
800.65	0.683
800.83	0.674
801.01	0.666
801.19	0.665
801.36	0.659
801.54	0.664
801.72	0.672
801.90	0.657
802.07	0.653
802.25	0.639
802.43	0.623
802.60	0.618
802.78	0.625
802.96	0.630
803.14	0.625
803.31	0.624
803.49	0.623
803.67	0.621
803.84	0.625
804.02	0.615
804.20	0.618
804.38	0.625
804.55	0.624
804.73	0.611
804.91	0.610
805.08	0.622
805.26	0.618
805.44	0.681
805.61	0.684
805.79	0.686
805.97	0.687
806.15	0.679
806.32	0.673
806.50	0.680
806.68	0.679
806.85	0.668
807.03	0.659
807.21	0.676
807.38	0.609
807.56	0.599
807.74	0.607
807.91	0.613
808.09	0.615
808.27	0.633
808.44	0.658
808.62	0.669
808.80	0.673
808.97	0.668
809.15	0.662
809.33	0.680
809.50	0.687
809.68	0.671
809.86	0.681
810.03	0.712
810.21	0.691
810.39	0.673
810.56	0.680
810.74	0.705
810.91	0.776
811.09	0.767
811.27	0.784
811.44	0.791
811.62	0.793
811.80	0.775
811.97	0.746
812.15	0.747
812.33	0.740
812.50	0.721
812.68	0.709
812.85	0.655
813.03	0.655
813.21	0.626
813.38	0.620
813.56	0.624
813.74	0.635
813.91	0.639
814.09	0.667
814.26	0.661
814.44	0.666
814.62	0.656
814.79	0.658
814.97	0.663
815.14	0.666
815.32	0.668
815.50	0.685
815.67	0.688
815.85	0.679
816.02	0.667
816.20	0.676
816.38	0.692
816.55	0.697
816.73	0.697
816.90	0.706
817.08	0.734
817.26	0.741
817.43	0.718
817.61	0.740
817.78	0.762
817.96	0.743
818.13	0.731
818.31	0.734
818.49	0.744
818.66	0.733
818.84	0.719
819.01	0.700
819.19	0.707
819.36	0.709
819.54	0.678
819.71	0.717
819.89	0.731
820.07	0.740
820.24	0.731
820.42	0.732
820.59	0.752
820.77	0.775
820.94	0.765
821.12	0.781
821.29	0.799
821.47	0.800
821.64	0.738
821.82	0.753
822.00	0.752
822.17	0.750
822.35	0.741
822.52	0.744
822.70	0.737
822.87	0.749
823.05	0.726
823.22	0.738
823.40	0.767
823.57	0.789
823.75	0.767
823.92	0.792
824.10	0.813
824.27	0.854
824.45	0.842
824.62	0.899
824.80	0.911
824.97	0.930
825.15	0.914
825.32	0.926
825.50	0.925
825.67	0.940
825.85	0.915
826.02	0.935
826.20	0.957
826.37	1.072
826.55	0.988
826.72	1.183
826.90	1.242
827.07	1.299
827.25	1.234
827.42	1.394
827.60	1.534
827.77	1.694
827.95	1.631
828.12	1.705
828.30	1.397
828.47	1.530
828.65	1.162
828.82	1.201
829.00	1.246
829.17	1.312
829.34	1.310
829.52	1.345
829.69	-0.000
829.87	-0.000
830.04	-0.000
830.22	-0.000
830.39	-0.000
830.57	-0.000
830.74	-0.000
830.92	-0.000
831.09	-0.000
831.26	-0.000
831.44	-0.000
831.61	-0.000
831.79	-0.000
831.96	-0.000
832.14	-0.000
832.31	-0.000
832.49	-0.000
832.66	-0.000
832.83	-0.000
833.01	-0.000
833.18	-0.000
833.36	-0.000
833.53	-0.000
833.70	-0.000
833.88	-0.000
834.05	-0.000
834.23	-0.000
834.40	-0.000
834.58	-0.000
834.75	-0.000
834.92	-0.000
835.10	-0.000
835.27	-0.000
835.45	-0.000
835.62	-0.000
835.79	-0.000
835.97	-0.000
836.14	-0.000
836.32	-0.000
836.49	-0.000
836.66	-0.000
836.84	-0.000
837.01	-0.000
837.18	-0.000
837.36	-0.000
837.53	-0.000
837.71	-0.000
837.88	-0.000
838.05	-0.000
838.23	-0.000
838.40	-0.000
838.58	-0.000
838.75	-0.000
838.92	-0.000
839.10	-0.000
839.27	-0.000
839.44	-0.000
839.62	-0.000
839.79	-0.000
839.96	-0.000
840.14	-0.000
840.31	-0.000
840.48	-0.000
840.66	-0.000
840.83	-0.000
841.01	-0.000
841.18	-0.000
841.35	-0.000
841.53	-0.000
841.70	-0.000
841.87	-0.000
842.05	-0.000
842.22	-0.000
842.39	-0.000
842.57	-0.000
842.74	-0.000
842.91	-0.000
843.09	-0.000
843.26	-0.000
843.43	-0.000
843.60	-0.000
843.78	-0.000
843.95	-0.000
844.12	-0.000
844.30	-0.000
844.47	-0.000
844.64	-0.000
844.82	-0.000
844.99	-0.000
845.16	-0.000
845.34	-0.000
845.51	-0.000
845.68	-0.000
845.85	-0.000
846.03	-0.000
846.20	-0.000
846.37	-0.000
846.55	-0.000
846.72	-0.000
846.89	-0.000
847.06	-0.000
847.24	-0.000
847.41	-0.000
847.58	-0.000
847.76	-0.000
847.93	-0.000
848.10	-0.000
848.27	-0.000
848.45	-0.000
848.62	-0.000
848.79	-0.000
848.97	-0.000
849.14	-0.000
849.31	-0.000
849.48	-0.000
849.66	-0.000
849.83	-0.000
850.00	-0.000
850.17	-0.000
850.35	-0.000
850.52	-0.000
850.69	-0.000
850.86	-0.000
851.04	-0.000
851.21	-0.000
851.38	-0.000
851.55	-0.000
851.72	-0.000
851.90	-0.000
852.07	-0.000
852.24	-0.000
852.41	-0.000
852.59	-0.000
852.76	-0.000
852.93	-0.000
853.10	-0.000
853.28	-0.000
853.45	-0.000
853.62	-0.000
853.79	-0.000
853.96	-0.000
854.14	-0.000
854.31	-0.000
854.48	-0.000
854.65	-0.000
854.82	-0.000
855.00	-0.000
855.17	-0.000
855.34	-0.000
855.51	-0.000
855.68	-0.000
855.86	-0.000
856.03	-0.000
856.20	-0.000
856.37	-0.000
856.54	-0.000
856.72	-0.000
856.89	-0.000
857.06	-0.000
857.23	-0.000
857.40	-0.000
857.57	-0.000
857.75	-0.000
857.92	-0.000
858.09	-0.000
858.26	-0.000
858.43	-0.000
858.60	-0.000
858.78	-0.000
858.95	-0.000
859.12	-0.000
859.29	-0.000
859.46	-0.000
859.63	-0.000
859.81	-0.000
859.98	-0.000
860.15	-0.000
860.32	-0.000
860.49	-0.000
860.66	-0.000
860.83	-0.000
861.01	-0.000
861.18	-0.000
861.35	-0.000
861.52	-0.000
861.69	-0.000
861.86	-0.000
862.03	-0.000
862.21	-0.000
862.38	-0.000
862.55	-0.000
862.72	-0.000
862.89	-0.000
863.06	-0.000
863.23	-0.000
863.40	-0.000
863.58	-0.000
863.75	-0.000
863.92	-0.000
864.09	-0.000
864.26	-0.000
864.43	-0.000
864.60	-0.000
864.77	-0.000
864.94	-0.000
865.11	-0.000
865.29	-0.000
865.46	-0.000
865.63	-0.000
865.80	-0.000
865.97	-0.000
866.14	-0.000
866.31	-0.000
866.48	-0.000
866.65	-0.000
866.82	-0.000
866.99	-0.000
867.16	-0.000
867.34	-0.000
867.51	-0.000
867.68	-0.000
867.85	-0.000
868.02	-0.000
868.19	-0.000
868.36	-0.000
868.53	-0.000
868.70	-0.000
868.87	-0.000
869.04	-0.000
869.21	-0.000
869.38	-0.000
869.55	-0.000
869.72	-0.000
869.89	-0.000
870.06	-0.000
870.24	-0.000
870.41	-0.000
870.58	-0.000
870.75	-0.000
870.92	-0.000
871.09	-0.000
871.26	-0.000
871.43	-0.000
871.60	-0.000
871.77	-0.000
871.94	-0.000
872.11	-0.000
872.28	-0.000
872.45	-0.000
872.62	-0.000
872.79	-0.000
872.96	-0.000
873.13	-0.000
873.30	-0.000
873.47	-0.000
873.64	-0.000
873.81	-0.000
873.98	-0.000
874.15	-0.000
874.32	-0.000
874.49	-0.000
874.66	-0.000
874.83	-0.000
875.00	-0.000
875.17	-0.000
875.34	-0.000
875.51	-0.000
875.68	-0.000
875.85	-0.000
876.02	-0.000
876.19	-0.000
876.36	-0.000
876.53	-0.000
876.70	-0.000
876.87	-0.000
877.04	-0.000
877.21	-0.000
877.38	-0.000
877.55	-0.000
877.72	-0.000
877.89	-0.000
878.06	-0.000
878.23	-0.000
878.39	-0.000
878.56	-0.000
878.73	-0.000
878.90	-0.000
879.07	-0.000
879.24	-0.000
879.41	-0.000
879.58	-0.000
879.75	-0.000
879.92	-0.000
880.09	-0.000
880.26	-0.000
880.43	-0.000
880.60	-0.000
880.77	-0.000
880.94	-0.000
881.11	-0.000
881.27	-0.000
881.44	-0.000
881.61	-0.000
881.78	-0.000
881.95	-0.000
882.12	-0.000
882.29	-0.000
882.46	-0.000
882.63	-0.000
882.80	-0.000
882.97	-0.000
883.14	-0.000
883.30	-0.000
883.47	-0.000
883.64	-0.000
883.81	-0.000
883.98	-0.000
884.15	-0.000
884.32	-0.000
884.49	-0.000
884.66	-0.000
884.82	-0.000
884.99	-0.000
885.16	-0.000
885.33	-0.000
885.50	-0.000
885.67	-0.000
885.84	-0.000
886.01	-0.000
886.17	-0.000
886.34	-0.000
886.51	-0.000
886.68	-0.000
886.85	-0.000
887.02	-0.000
887.19	-0.000
887.36	-0.000
887.52	-0.000
887.69	-0.000
887.86	-0.000
888.03	-0.000
888.20	-0.000
888.37	-0.000
888.54	-0.000
888.70	-0.000
888.87	-0.000
889.04	-0.000
889.21	-0.000
889.38	-0.000
889.55	-0.000
889.71	-0.000
889.88	-0.000
890.05	-0.000
890.22	-0.000
890.39	-0.000
>>>>>End Processed Spectral Data<<<<<
