SpectraSuite Data File
++++++++++++++++++++++++++++++++++++
Date: Fri Jun 19 12:24:12 CEST 2015
User: introlabs
Dark Spectrum Present: Yes
Reference Spectrum Present: Yes
Number of Sampled Component Spectra: 1
Spectrometers: USB4H08886
Integration Time (usec): 745692 (USB4H08886)
Spectra Averaged: 5 (USB4H08886)
Boxcar Smoothing: 5 (USB4H08886)
Correct for Electrical Dark: Yes (USB4H08886)
Strobe/Lamp Enabled: No (USB4H08886)
Correct for Detector Non-linearity: Yes (USB4H08886)
Correct for Stray Light: Yes (USB4H08886)
Number of Pixels in Processed Spectrum: 3648
>>>>>Begin Processed Spectral Data<<<<<
178.14	-0.000
178.36	-0.000
178.57	-0.000
178.79	-0.000
179.01	-0.000
179.22	-0.000
179.44	-0.000
179.65	-0.000
179.87	-0.000
180.08	-0.000
180.30	-0.000
180.52	-0.000
180.73	-0.000
180.95	-0.000
181.16	-0.000
181.38	-0.000
181.59	-0.000
181.81	-0.000
182.03	-0.000
182.24	-0.000
182.46	-0.000
182.67	-0.000
182.89	-0.000
183.10	-0.000
183.32	-0.000
183.54	-0.000
183.75	-0.000
183.97	-0.000
184.18	-0.000
184.40	-0.000
184.61	-0.000
184.83	-0.000
185.04	-0.000
185.26	-0.000
185.48	-0.000
185.69	-0.000
185.91	-0.000
186.12	-0.000
186.34	-0.000
186.55	-0.000
186.77	-0.000
186.98	-0.000
187.20	-0.000
187.42	-0.000
187.63	-0.000
187.85	-0.000
188.06	-0.000
188.28	-0.000
188.49	-0.000
188.71	-0.000
188.92	-0.000
189.14	-0.000
189.36	-0.000
189.57	-0.000
189.79	-0.000
190.00	-0.000
190.22	-0.000
190.43	-0.000
190.65	-0.000
190.86	-0.000
191.08	-0.000
191.29	-0.000
191.51	-0.000
191.72	-0.000
191.94	-0.000
192.16	-0.000
192.37	-0.000
192.59	-0.000
192.80	-0.000
193.02	-0.000
193.23	-0.000
193.45	-0.000
193.66	-0.000
193.88	-0.000
194.09	-0.000
194.31	-0.000
194.52	-0.000
194.74	-0.000
194.95	-0.000
195.17	-0.000
195.38	-0.000
195.60	-0.000
195.81	-0.000
196.03	-0.000
196.25	-0.000
196.46	-0.000
196.68	-0.000
196.89	-0.000
197.11	-0.000
197.32	-0.000
197.54	-0.000
197.75	-0.000
197.97	-0.000
198.18	-0.000
198.40	-0.000
198.61	-0.000
198.83	-0.000
199.04	-0.000
199.26	-0.000
199.47	-0.000
199.69	-0.000
199.90	-0.000
200.12	-0.000
200.33	-0.000
200.55	-0.000
200.76	-0.000
200.98	-0.000
201.19	-0.000
201.41	-0.000
201.62	-0.000
201.84	-0.000
202.05	-0.000
202.27	-0.000
202.48	-0.000
202.70	-0.000
202.91	-0.000
203.13	-0.000
203.34	-0.000
203.56	-0.000
203.77	-0.000
203.99	-0.000
204.20	-0.000
204.42	-0.000
204.63	-0.000
204.85	-0.000
205.06	-0.000
205.28	-0.000
205.49	-0.000
205.71	-0.000
205.92	-0.000
206.14	-0.000
206.35	-0.000
206.56	-0.000
206.78	-0.000
206.99	-0.000
207.21	-0.000
207.42	-0.000
207.64	-0.000
207.85	-0.000
208.07	-0.000
208.28	-0.000
208.50	-0.000
208.71	-0.000
208.93	-0.000
209.14	-0.000
209.36	-0.000
209.57	-0.000
209.79	-0.000
210.00	-0.000
210.22	-0.000
210.43	-0.000
210.64	-0.000
210.86	-0.000
211.07	-0.000
211.29	-0.000
211.50	-0.000
211.72	-0.000
211.93	-0.000
212.15	-0.000
212.36	-0.000
212.58	-0.000
212.79	-0.000
213.01	-0.000
213.22	-0.000
213.43	-0.000
213.65	-0.000
213.86	-0.000
214.08	-0.000
214.29	-0.000
214.51	-0.000
214.72	-0.000
214.94	-0.000
215.15	-0.000
215.36	-0.000
215.58	-0.000
215.79	-0.000
216.01	-0.000
216.22	-0.000
216.44	-0.000
216.65	-0.000
216.87	-0.000
217.08	-0.000
217.29	-0.000
217.51	-0.000
217.72	-0.000
217.94	-0.000
218.15	-0.000
218.37	-0.000
218.58	-0.000
218.80	-0.000
219.01	-0.000
219.22	-0.000
219.44	-0.000
219.65	-0.000
219.87	-0.000
220.08	-0.000
220.30	-0.000
220.51	-0.000
220.72	-0.000
220.94	-0.000
221.15	-0.000
221.37	-0.000
221.58	-0.000
221.79	-0.000
222.01	-0.000
222.22	-0.000
222.44	-0.000
222.65	-0.000
222.87	-0.000
223.08	-0.000
223.29	-0.000
223.51	-0.000
223.72	-0.000
223.94	-0.000
224.15	-0.000
224.36	-0.000
224.58	-0.000
224.79	-0.000
225.01	-0.000
225.22	-0.000
225.44	-0.000
225.65	-0.000
225.86	-0.000
226.08	-0.000
226.29	-0.000
226.51	-0.000
226.72	-0.000
226.93	-0.000
227.15	-0.000
227.36	-0.000
227.58	-0.000
227.79	-0.000
228.00	-0.000
228.22	-0.000
228.43	-0.000
228.65	-0.000
228.86	-0.000
229.07	-0.000
229.29	-0.000
229.50	-0.000
229.72	-0.000
229.93	-0.000
230.14	-0.000
230.36	-0.000
230.57	-0.000
230.78	-0.000
231.00	-0.000
231.21	-0.000
231.43	-0.000
231.64	-0.000
231.85	-0.000
232.07	-0.000
232.28	-0.000
232.50	-0.000
232.71	-0.000
232.92	-0.000
233.14	-0.000
233.35	-0.000
233.56	-0.000
233.78	-0.000
233.99	-0.000
234.21	-0.000
234.42	-0.000
234.63	-0.000
234.85	-0.000
235.06	-0.000
235.27	-0.000
235.49	-0.000
235.70	-0.000
235.91	-0.000
236.13	-0.000
236.34	-0.000
236.56	-0.000
236.77	-0.000
236.98	-0.000
237.20	-0.000
237.41	-0.000
237.62	-0.000
237.84	-0.000
238.05	-0.000
238.26	-0.000
238.48	-0.000
238.69	-0.000
238.91	-0.000
239.12	-0.000
239.33	-0.000
239.55	-0.000
239.76	-0.000
239.97	-0.000
240.19	-0.000
240.40	-0.000
240.61	-0.000
240.83	-0.000
241.04	-0.000
241.25	-0.000
241.47	-0.000
241.68	-0.000
241.89	-0.000
242.11	-0.000
242.32	-0.000
242.53	-0.000
242.75	-0.000
242.96	-0.000
243.17	-0.000
243.39	-0.000
243.60	-0.000
243.81	-0.000
244.03	-0.000
244.24	-0.000
244.45	-0.000
244.67	-0.000
244.88	-0.000
245.09	-0.000
245.31	-0.000
245.52	-0.000
245.73	-0.000
245.95	-0.000
246.16	-0.000
246.37	-0.000
246.59	-0.000
246.80	-0.000
247.01	-0.000
247.23	-0.000
247.44	-0.000
247.65	-0.000
247.87	-0.000
248.08	-0.000
248.29	-0.000
248.51	-0.000
248.72	-0.000
248.93	-0.000
249.15	-0.000
249.36	-0.000
249.57	-0.000
249.78	-0.000
250.00	-0.000
250.21	-0.000
250.42	-0.000
250.64	-0.000
250.85	-0.000
251.06	-0.000
251.28	-0.000
251.49	-0.000
251.70	-0.000
251.92	-0.000
252.13	-0.000
252.34	-0.000
252.55	-0.000
252.77	-0.000
252.98	-0.000
253.19	-0.000
253.41	-0.000
253.62	-0.000
253.83	-0.000
254.05	-0.000
254.26	-0.000
254.47	-0.000
254.68	-0.000
254.90	-0.000
255.11	-0.000
255.32	-0.000
255.54	-0.000
255.75	-0.000
255.96	-0.000
256.17	-0.000
256.39	-0.000
256.60	-0.000
256.81	-0.000
257.03	-0.000
257.24	-0.000
257.45	-0.000
257.66	-0.000
257.88	-0.000
258.09	-0.000
258.30	-0.000
258.51	-0.000
258.73	-0.000
258.94	-0.000
259.15	-0.000
259.37	-0.000
259.58	-0.000
259.79	-0.000
260.00	-0.000
260.22	-0.000
260.43	-0.000
260.64	-0.000
260.85	-0.000
261.07	-0.000
261.28	-0.000
261.49	-0.000
261.71	-0.000
261.92	-0.000
262.13	-0.000
262.34	-0.000
262.56	-0.000
262.77	-0.000
262.98	-0.000
263.19	-0.000
263.41	-0.000
263.62	-0.000
263.83	-0.000
264.04	-0.000
264.26	-0.000
264.47	-0.000
264.68	-0.000
264.89	-0.000
265.11	-0.000
265.32	-0.000
265.53	-0.000
265.74	-0.000
265.96	-0.000
266.17	-0.000
266.38	-0.000
266.59	-0.000
266.81	-0.000
267.02	-0.000
267.23	-0.000
267.44	-0.000
267.65	-0.000
267.87	-0.000
268.08	-0.000
268.29	-0.000
268.50	-0.000
268.72	-0.000
268.93	-0.000
269.14	-0.000
269.35	-0.000
269.57	-0.000
269.78	-0.000
269.99	-0.000
270.20	-0.000
270.41	-0.000
270.63	-0.000
270.84	-0.000
271.05	-0.000
271.26	-0.000
271.48	-0.000
271.69	-0.000
271.90	-0.000
272.11	-0.000
272.32	-0.000
272.54	-0.000
272.75	-0.000
272.96	-0.000
273.17	-0.000
273.39	-0.000
273.60	-0.000
273.81	-0.000
274.02	-0.000
274.23	-0.000
274.45	-0.000
274.66	-0.000
274.87	-0.000
275.08	-0.000
275.29	-0.000
275.51	-0.000
275.72	-0.000
275.93	-0.000
276.14	-0.000
276.35	-0.000
276.57	-0.000
276.78	-0.000
276.99	-0.000
277.20	-0.000
277.41	-0.000
277.63	-0.000
277.84	-0.000
278.05	-0.000
278.26	-0.000
278.47	-0.000
278.69	-0.000
278.90	-0.000
279.11	-0.000
279.32	-0.000
279.53	-0.000
279.74	-0.000
279.96	-0.000
280.17	-0.000
280.38	-0.000
280.59	-0.000
280.80	-0.000
281.02	-0.000
281.23	-0.000
281.44	-0.000
281.65	-0.000
281.86	-0.000
282.07	-0.000
282.29	-0.000
282.50	-0.000
282.71	-0.000
282.92	-0.000
283.13	-0.000
283.35	-0.000
283.56	-0.000
283.77	-0.000
283.98	-0.000
284.19	-0.000
284.40	-0.000
284.62	-0.000
284.83	-0.000
285.04	-0.000
285.25	-0.000
285.46	-0.000
285.67	-0.000
285.88	-0.000
286.10	-0.000
286.31	-0.000
286.52	-0.000
286.73	-0.000
286.94	-0.000
287.15	-0.000
287.37	-0.000
287.58	-0.000
287.79	-0.000
288.00	-0.000
288.21	-0.000
288.42	-0.000
288.63	-0.000
288.85	-0.000
289.06	-0.000
289.27	-0.000
289.48	-0.000
289.69	-0.000
289.90	-0.000
290.11	-0.000
290.33	-0.000
290.54	-0.000
290.75	-0.000
290.96	-0.000
291.17	-0.000
291.38	-0.000
291.59	-0.000
291.81	2.758
292.02	2.463
292.23	2.340
292.44	1.856
292.65	1.705
292.86	1.888
293.07	1.857
293.28	1.624
293.50	1.687
293.71	1.823
293.92	1.745
294.13	1.813
294.34	1.831
294.55	1.916
294.76	1.869
294.97	1.685
295.19	1.744
295.40	1.951
295.61	1.875
295.82	1.596
296.03	1.520
296.24	1.557
296.45	1.407
296.66	1.297
296.87	1.297
297.09	1.333
297.30	1.380
297.51	1.264
297.72	1.250
297.93	1.297
298.14	1.285
298.35	1.263
298.56	1.248
298.77	1.301
298.99	1.292
299.20	1.277
299.41	1.266
299.62	1.260
299.83	1.254
300.04	1.222
300.25	1.217
300.46	1.242
300.67	1.227
300.88	1.197
301.10	1.196
301.31	1.237
301.52	1.209
301.73	1.175
301.94	1.173
302.15	1.188
302.36	1.163
302.57	1.125
302.78	1.132
302.99	1.160
303.20	1.171
303.41	1.123
303.63	1.111
303.84	1.116
304.05	1.116
304.26	1.080
304.47	1.085
304.68	1.092
304.89	1.087
305.10	1.053
305.31	1.046
305.52	1.073
305.73	1.067
305.94	1.039
306.15	1.036
306.37	1.050
306.58	1.054
306.79	1.032
307.00	1.044
307.21	1.068
307.42	1.067
307.63	1.039
307.84	1.017
308.05	1.041
308.26	1.041
308.47	1.024
308.68	1.023
308.89	1.027
309.10	1.026
309.31	0.996
309.52	0.993
309.73	1.004
309.95	1.000
310.16	0.981
310.37	0.974
310.58	0.991
310.79	0.990
311.00	0.983
311.21	0.983
311.42	0.985
311.63	0.983
311.84	0.966
312.05	0.965
312.26	0.983
312.47	0.990
312.68	0.975
312.89	0.963
313.10	0.970
313.31	0.952
313.52	0.950
313.73	0.951
313.94	0.953
314.15	0.942
314.36	0.926
314.57	0.920
314.78	0.912
314.99	0.907
315.21	0.896
315.42	0.898
315.63	0.909
315.84	0.893
316.05	0.882
316.26	0.889
316.47	0.906
316.68	0.903
316.89	0.889
317.10	0.904
317.31	0.909
317.52	0.910
317.73	0.893
317.94	0.892
318.15	0.925
318.36	0.923
318.57	0.908
318.78	0.898
318.99	0.924
319.20	0.922
319.41	0.897
319.62	0.898
319.83	0.909
320.04	0.905
320.25	0.894
320.46	0.870
320.67	0.873
320.88	0.870
321.09	0.858
321.30	0.847
321.51	0.859
321.72	0.858
321.93	0.844
322.14	0.839
322.35	0.861
322.56	0.862
322.77	0.852
322.98	0.862
323.19	0.868
323.40	0.873
323.61	0.855
323.82	0.852
324.03	0.857
324.24	0.855
324.45	0.844
324.66	0.829
324.87	0.828
325.08	0.826
325.29	0.810
325.50	0.806
325.71	0.811
325.92	0.817
326.13	0.805
326.34	0.805
326.55	0.812
326.76	0.812
326.97	0.802
327.18	0.797
327.39	0.819
327.60	0.820
327.80	0.818
328.01	0.817
328.22	0.820
328.43	0.823
328.64	0.813
328.85	0.817
329.06	0.819
329.27	0.819
329.48	0.815
329.69	0.799
329.90	0.808
330.11	0.802
330.32	0.795
330.53	0.790
330.74	0.791
330.95	0.790
331.16	0.778
331.37	0.784
331.58	0.786
331.79	0.787
332.00	0.779
332.21	0.774
332.42	0.779
332.63	0.773
332.83	0.768
333.04	0.768
333.25	0.780
333.46	0.779
333.67	0.767
333.88	0.768
334.09	0.777
334.30	0.774
334.51	0.766
334.72	0.763
334.93	0.767
335.14	0.767
335.35	0.761
335.56	0.756
335.77	0.764
335.98	0.763
336.18	0.757
336.39	0.752
336.60	0.757
336.81	0.755
337.02	0.753
337.23	0.757
337.44	0.759
337.65	0.760
337.86	0.751
338.07	0.747
338.28	0.753
338.49	0.751
338.70	0.744
338.91	0.749
339.11	0.756
339.32	0.753
339.53	0.742
339.74	0.740
339.95	0.738
340.16	0.738
340.37	0.730
340.58	0.728
340.79	0.733
341.00	0.733
341.21	0.723
341.41	0.724
341.62	0.726
341.83	0.727
342.04	0.722
342.25	0.731
342.46	0.736
342.67	0.736
342.88	0.729
343.09	0.728
343.30	0.735
343.50	0.738
343.71	0.730
343.92	0.729
344.13	0.734
344.34	0.734
344.55	0.721
344.76	0.719
344.97	0.724
345.18	0.723
345.38	0.720
345.59	0.716
345.80	0.717
346.01	0.715
346.22	0.710
346.43	0.705
346.64	0.713
346.85	0.712
347.06	0.706
347.26	0.707
347.47	0.710
347.68	0.706
347.89	0.703
348.10	0.700
348.31	0.707
348.52	0.707
348.73	0.704
348.93	0.701
349.14	0.704
349.35	0.704
349.56	0.698
349.77	0.695
349.98	0.701
350.19	0.699
350.39	0.694
350.60	0.691
350.81	0.705
351.02	0.704
351.23	0.700
351.44	0.703
351.65	0.707
351.86	0.705
352.06	0.703
352.27	0.702
352.48	0.705
352.69	0.704
352.90	0.699
353.11	0.687
353.31	0.695
353.52	0.691
353.73	0.683
353.94	0.683
354.15	0.689
354.36	0.689
354.57	0.682
354.77	0.684
354.98	0.685
355.19	0.685
355.40	0.684
355.61	0.688
355.82	0.693
356.02	0.694
356.23	0.688
356.44	0.690
356.65	0.694
356.86	0.695
357.07	0.689
357.27	0.692
357.48	0.695
357.69	0.692
357.90	0.679
358.11	0.676
358.32	0.680
358.52	0.683
358.73	0.673
358.94	0.675
359.15	0.679
359.36	0.680
359.56	0.674
359.77	0.672
359.98	0.679
360.19	0.678
360.40	0.674
360.61	0.675
360.81	0.674
361.02	0.675
361.23	0.667
361.44	0.666
361.65	0.668
361.85	0.668
362.06	0.665
362.27	0.667
362.48	0.669
362.69	0.671
362.89	0.665
363.10	0.666
363.31	0.671
363.52	0.675
363.73	0.670
363.93	0.670
364.14	0.673
364.35	0.675
364.56	0.666
364.77	0.668
364.97	0.671
365.18	0.672
365.39	0.667
365.60	0.665
365.81	0.666
366.01	0.665
366.22	0.662
366.43	0.662
366.64	0.664
366.84	0.669
367.05	0.665
367.26	0.665
367.47	0.667
367.68	0.668
367.88	0.664
368.09	0.663
368.30	0.667
368.51	0.666
368.71	0.664
368.92	0.668
369.13	0.667
369.34	0.667
369.55	0.665
369.75	0.665
369.96	0.672
370.17	0.671
370.38	0.667
370.58	0.667
370.79	0.673
371.00	0.671
371.21	0.663
371.41	0.668
371.62	0.673
371.83	0.669
372.04	0.666
372.24	0.659
372.45	0.662
372.66	0.663
372.87	0.659
373.07	0.656
373.28	0.658
373.49	0.660
373.70	0.651
373.90	0.650
374.11	0.660
374.32	0.659
374.53	0.658
374.73	0.658
374.94	0.661
375.15	0.661
375.36	0.659
375.56	0.666
375.77	0.667
375.98	0.668
376.19	0.665
376.39	0.659
376.60	0.663
376.81	0.663
377.02	0.660
377.22	0.659
377.43	0.659
377.64	0.659
377.84	0.651
378.05	0.655
378.26	0.661
378.47	0.660
378.67	0.657
378.88	0.654
379.09	0.656
379.30	0.657
379.50	0.653
379.71	0.656
379.92	0.660
380.12	0.659
380.33	0.650
380.54	0.647
380.75	0.654
380.95	0.655
381.16	0.652
381.37	0.652
381.57	0.654
381.78	0.655
381.99	0.653
382.20	0.653
382.40	0.656
382.61	0.657
382.82	0.652
383.02	0.646
383.23	0.649
383.44	0.649
383.64	0.647
383.85	0.649
384.06	0.652
384.27	0.651
384.47	0.649
384.68	0.650
384.89	0.655
385.09	0.654
385.30	0.653
385.51	0.652
385.71	0.655
385.92	0.655
386.13	0.653
386.33	0.654
386.54	0.655
386.75	0.654
386.95	0.649
387.16	0.644
387.37	0.648
387.58	0.647
387.78	0.645
387.99	0.643
388.20	0.646
388.40	0.644
388.61	0.640
388.82	0.642
389.02	0.645
389.23	0.645
389.44	0.642
389.64	0.642
389.85	0.653
390.06	0.652
390.26	0.652
390.47	0.651
390.68	0.653
390.88	0.651
391.09	0.646
391.30	0.646
391.50	0.646
391.71	0.646
391.92	0.643
392.12	0.635
392.33	0.637
392.53	0.636
392.74	0.636
392.95	0.636
393.15	0.638
393.36	0.640
393.57	0.637
393.77	0.640
393.98	0.642
394.19	0.642
394.39	0.641
394.60	0.643
394.81	0.645
395.01	0.642
395.22	0.640
395.43	0.641
395.63	0.645
395.84	0.646
396.04	0.641
396.25	0.643
396.46	0.645
396.66	0.644
396.87	0.640
397.08	0.638
397.28	0.640
397.49	0.642
397.69	0.638
397.90	0.633
398.11	0.635
398.31	0.636
398.52	0.632
398.73	0.632
398.93	0.632
399.14	0.631
399.34	0.629
399.55	0.630
399.76	0.630
399.96	0.630
400.17	0.629
400.37	0.627
400.58	0.633
400.79	0.635
400.99	0.633
401.20	0.638
401.41	0.641
401.61	0.642
401.82	0.645
402.02	0.644
402.23	0.646
402.44	0.645
402.64	0.645
402.85	0.639
403.05	0.639
403.26	0.637
403.47	0.631
403.67	0.629
403.88	0.630
404.08	0.625
404.29	0.622
404.50	0.622
404.70	0.623
404.91	0.621
405.11	0.618
405.32	0.618
405.52	0.619
405.73	0.619
405.94	0.617
406.14	0.619
406.35	0.621
406.55	0.621
406.76	0.619
406.97	0.620
407.17	0.622
407.38	0.622
407.58	0.620
407.79	0.623
407.99	0.625
408.20	0.626
408.41	0.622
408.61	0.620
408.82	0.622
409.02	0.621
409.23	0.619
409.43	0.618
409.64	0.620
409.84	0.620
410.05	0.616
410.26	0.615
410.46	0.614
410.67	0.614
410.87	0.616
411.08	0.617
411.28	0.619
411.49	0.620
411.69	0.617
411.90	0.619
412.11	0.621
412.31	0.622
412.52	0.620
412.72	0.622
412.93	0.623
413.13	0.622
413.34	0.618
413.54	0.618
413.75	0.620
413.95	0.619
414.16	0.616
414.37	0.618
414.57	0.618
414.78	0.620
414.98	0.618
415.19	0.619
415.39	0.617
415.60	0.619
415.80	0.618
416.01	0.617
416.21	0.620
416.42	0.620
416.62	0.615
416.83	0.616
417.03	0.616
417.24	0.616
417.44	0.614
417.65	0.614
417.86	0.615
418.06	0.613
418.27	0.611
418.47	0.612
418.68	0.613
418.88	0.614
419.09	0.611
419.29	0.611
419.50	0.613
419.70	0.612
419.91	0.610
420.11	0.608
420.32	0.610
420.52	0.610
420.73	0.609
420.93	0.609
421.14	0.611
421.34	0.610
421.55	0.607
421.75	0.606
421.96	0.609
422.16	0.609
422.37	0.608
422.57	0.606
422.78	0.607
422.98	0.605
423.19	0.603
423.39	0.602
423.60	0.606
423.80	0.608
424.01	0.606
424.21	0.608
424.42	0.610
424.62	0.610
424.83	0.609
425.03	0.609
425.23	0.611
425.44	0.611
425.64	0.612
425.85	0.610
426.05	0.612
426.26	0.612
426.46	0.608
426.67	0.608
426.87	0.613
427.08	0.613
427.28	0.611
427.49	0.612
427.69	0.613
427.90	0.613
428.10	0.609
428.31	0.609
428.51	0.611
428.71	0.610
428.92	0.611
429.12	0.608
429.33	0.610
429.53	0.613
429.74	0.616
429.94	0.616
430.15	0.616
430.35	0.616
430.56	0.613
430.76	0.613
430.96	0.614
431.17	0.612
431.37	0.610
431.58	0.608
431.78	0.606
431.99	0.600
432.19	0.601
432.40	0.603
432.60	0.604
432.80	0.607
433.01	0.605
433.21	0.605
433.42	0.608
433.62	0.608
433.83	0.607
434.03	0.610
434.23	0.613
434.44	0.613
434.64	0.610
434.85	0.615
435.05	0.615
435.26	0.616
435.46	0.614
435.66	0.614
435.87	0.614
436.07	0.614
436.28	0.609
436.48	0.607
436.69	0.606
436.89	0.607
437.09	0.601
437.30	0.600
437.50	0.601
437.71	0.612
437.91	0.611
438.11	0.612
438.32	0.617
438.52	0.617
438.73	0.616
438.93	0.615
439.13	0.616
439.34	0.619
439.54	0.617
439.75	0.617
439.95	0.608
440.15	0.612
440.36	0.611
440.56	0.609
440.77	0.610
440.97	0.610
441.17	0.609
441.38	0.610
441.58	0.608
441.79	0.608
441.99	0.606
442.19	0.606
442.40	0.605
442.60	0.605
442.81	0.602
443.01	0.603
443.21	0.604
443.42	0.604
443.62	0.602
443.82	0.603
444.03	0.604
444.23	0.605
444.44	0.605
444.64	0.604
444.84	0.605
445.05	0.605
445.25	0.603
445.45	0.603
445.66	0.606
445.86	0.605
446.06	0.605
446.27	0.605
446.47	0.608
446.68	0.606
446.88	0.604
447.08	0.604
447.29	0.607
447.49	0.607
447.69	0.606
447.90	0.605
448.10	0.609
448.30	0.607
448.51	0.608
448.71	0.606
448.91	0.609
449.12	0.608
449.32	0.609
449.52	0.608
449.73	0.612
449.93	0.611
450.14	0.611
450.34	0.610
450.54	0.614
450.75	0.611
450.95	0.610
451.15	0.609
451.36	0.612
451.56	0.609
451.76	0.608
451.97	0.605
452.17	0.607
452.37	0.605
452.58	0.602
452.78	0.601
452.98	0.604
453.19	0.604
453.39	0.604
453.59	0.602
453.79	0.604
454.00	0.605
454.20	0.603
454.40	0.604
454.61	0.607
454.81	0.608
455.01	0.606
455.22	0.606
455.42	0.608
455.62	0.606
455.83	0.606
456.03	0.609
456.23	0.610
456.44	0.611
456.64	0.609
456.84	0.608
457.04	0.609
457.25	0.608
457.45	0.605
457.65	0.604
457.86	0.606
458.06	0.605
458.26	0.601
458.47	0.600
458.67	0.603
458.87	0.603
459.07	0.601
459.28	0.603
459.48	0.606
459.68	0.606
459.89	0.605
460.09	0.604
460.29	0.606
460.49	0.607
460.70	0.606
460.90	0.605
461.10	0.607
461.31	0.606
461.51	0.603
461.71	0.604
461.91	0.606
462.12	0.605
462.32	0.604
462.52	0.605
462.72	0.608
462.93	0.608
463.13	0.606
463.33	0.607
463.53	0.609
463.74	0.608
463.94	0.604
464.14	0.604
464.35	0.606
464.55	0.606
464.75	0.604
464.95	0.602
465.16	0.604
465.36	0.603
465.56	0.602
465.76	0.601
465.97	0.602
466.17	0.604
466.37	0.602
466.57	0.603
466.78	0.604
466.98	0.604
467.18	0.602
467.38	0.600
467.59	0.603
467.79	0.604
467.99	0.603
468.19	0.604
468.39	0.606
468.60	0.606
468.80	0.605
469.00	0.606
469.20	0.608
469.41	0.608
469.61	0.607
469.81	0.607
470.01	0.607
470.22	0.608
470.42	0.606
470.62	0.604
470.82	0.606
471.02	0.605
471.23	0.602
471.43	0.603
471.63	0.606
471.83	0.605
472.04	0.603
472.24	0.602
472.44	0.607
472.64	0.607
472.84	0.605
473.05	0.605
473.25	0.608
473.45	0.607
473.65	0.605
473.85	0.605
474.06	0.607
474.26	0.607
474.46	0.607
474.66	0.605
474.86	0.606
475.07	0.606
475.27	0.604
475.47	0.602
475.67	0.603
475.87	0.606
476.08	0.602
476.28	0.603
476.48	0.604
476.68	0.603
476.88	0.600
477.09	0.601
477.29	0.604
477.49	0.603
477.69	0.603
477.89	0.603
478.09	0.602
478.30	0.604
478.50	0.602
478.70	0.601
478.90	0.601
479.10	0.604
479.31	0.605
479.51	0.604
479.71	0.605
479.91	0.605
480.11	0.603
480.31	0.604
480.52	0.603
480.72	0.603
480.92	0.603
481.12	0.602
481.32	0.600
481.52	0.598
481.72	0.597
481.93	0.601
482.13	0.602
482.33	0.601
482.53	0.599
482.73	0.599
482.93	0.600
483.14	0.600
483.34	0.599
483.54	0.600
483.74	0.600
483.94	0.598
484.14	0.594
484.34	0.594
484.55	0.595
484.75	0.595
484.95	0.593
485.15	0.593
485.35	0.593
485.55	0.593
485.75	0.592
485.96	0.592
486.16	0.594
486.36	0.594
486.56	0.593
486.76	0.592
486.96	0.593
487.16	0.593
487.36	0.591
487.57	0.591
487.77	0.592
487.97	0.592
488.17	0.590
488.37	0.590
488.57	0.590
488.77	0.591
488.97	0.589
489.18	0.589
489.38	0.591
489.58	0.592
489.78	0.590
489.98	0.590
490.18	0.590
490.38	0.591
490.58	0.589
490.78	0.590
490.98	0.591
491.19	0.592
491.39	0.591
491.59	0.590
491.79	0.594
491.99	0.594
492.19	0.593
492.39	0.596
492.59	0.596
492.79	0.598
492.99	0.598
493.20	0.598
493.40	0.598
493.60	0.599
493.80	0.597
494.00	0.595
494.20	0.596
494.40	0.596
494.60	0.593
494.80	0.597
495.00	0.597
495.20	0.595
495.40	0.594
495.61	0.596
495.81	0.596
496.01	0.600
496.21	0.600
496.41	0.599
496.61	0.601
496.81	0.600
497.01	0.595
497.21	0.594
497.41	0.595
497.61	0.596
497.81	0.593
498.01	0.593
498.21	0.591
498.41	0.589
498.61	0.589
498.82	0.590
499.02	0.593
499.22	0.594
499.42	0.593
499.62	0.594
499.82	0.595
500.02	0.596
500.22	0.594
500.42	0.597
500.62	0.598
500.82	0.598
501.02	0.596
501.22	0.597
501.42	0.597
501.62	0.599
501.82	0.597
502.02	0.598
502.22	0.597
502.42	0.599
502.62	0.597
502.82	0.597
503.02	0.598
503.22	0.598
503.42	0.595
503.63	0.595
503.83	0.593
504.03	0.592
504.23	0.591
504.43	0.591
504.63	0.592
504.83	0.592
505.03	0.591
505.23	0.593
505.43	0.595
505.63	0.596
505.83	0.596
506.03	0.598
506.23	0.600
506.43	0.601
506.63	0.600
506.83	0.598
507.03	0.600
507.23	0.601
507.43	0.597
507.63	0.598
507.83	0.599
508.03	0.599
508.23	0.597
508.43	0.596
508.63	0.598
508.83	0.598
509.03	0.599
509.23	0.598
509.43	0.600
509.63	0.600
509.83	0.598
510.03	0.600
510.23	0.602
510.43	0.603
510.63	0.603
510.83	0.603
511.03	0.604
511.23	0.602
511.43	0.601
511.63	0.602
511.83	0.605
512.03	0.605
512.22	0.602
512.42	0.601
512.62	0.602
512.82	0.602
513.02	0.601
513.22	0.601
513.42	0.603
513.62	0.606
513.82	0.603
514.02	0.603
514.22	0.604
514.42	0.606
514.62	0.605
514.82	0.605
515.02	0.608
515.22	0.611
515.42	0.609
515.62	0.612
515.82	0.610
516.02	0.612
516.22	0.610
516.42	0.612
516.62	0.614
516.82	0.615
517.01	0.613
517.21	0.612
517.41	0.617
517.61	0.617
517.81	0.612
518.01	0.612
518.21	0.613
518.41	0.612
518.61	0.610
518.81	0.611
519.01	0.611
519.21	0.612
519.41	0.610
519.61	0.605
519.81	0.608
520.00	0.608
520.20	0.608
520.40	0.611
520.60	0.612
520.80	0.611
521.00	0.612
521.20	0.613
521.40	0.618
521.60	0.618
521.80	0.617
522.00	0.618
522.20	0.621
522.39	0.621
522.59	0.617
522.79	0.619
522.99	0.622
523.19	0.620
523.39	0.618
523.59	0.616
523.79	0.619
523.99	0.621
524.19	0.620
524.38	0.619
524.58	0.621
524.78	0.621
524.98	0.619
525.18	0.621
525.38	0.623
525.58	0.624
525.78	0.620
525.98	0.619
526.18	0.620
526.37	0.619
526.57	0.620
526.77	0.620
526.97	0.621
527.17	0.622
527.37	0.617
527.57	0.620
527.77	0.622
527.96	0.624
528.16	0.622
528.36	0.622
528.56	0.625
528.76	0.622
528.96	0.621
529.16	0.622
529.36	0.625
529.55	0.625
529.75	0.621
529.95	0.621
530.15	0.622
530.35	0.625
530.55	0.622
530.75	0.623
530.94	0.625
531.14	0.625
531.34	0.622
531.54	0.621
531.74	0.624
531.94	0.627
532.13	0.625
532.33	0.626
532.53	0.626
532.73	0.626
532.93	0.624
533.13	0.625
533.33	0.625
533.52	0.626
533.72	0.629
533.92	0.627
534.12	0.626
534.32	0.627
534.52	0.625
534.71	0.626
534.91	0.630
535.11	0.631
535.31	0.629
535.51	0.631
535.71	0.633
535.90	0.631
536.10	0.632
536.30	0.634
536.50	0.635
536.70	0.634
536.89	0.632
537.09	0.631
537.29	0.634
537.49	0.634
537.69	0.631
537.89	0.631
538.08	0.631
538.28	0.629
538.48	0.629
538.68	0.631
538.88	0.633
539.07	0.633
539.27	0.631
539.47	0.630
539.67	0.631
539.87	0.633
540.06	0.631
540.26	0.632
540.46	0.635
540.66	0.632
540.86	0.629
541.05	0.630
541.25	0.632
541.45	0.631
541.65	0.629
541.84	0.631
542.04	0.632
542.24	0.633
542.44	0.632
542.64	0.631
542.83	0.635
543.03	0.635
543.23	0.632
543.43	0.633
543.62	0.635
543.82	0.635
544.02	0.634
544.22	0.634
544.42	0.637
544.61	0.637
544.81	0.634
545.01	0.633
545.21	0.636
545.40	0.636
545.60	0.634
545.80	0.637
546.00	0.637
546.19	0.636
546.39	0.635
546.59	0.634
546.79	0.635
546.98	0.636
547.18	0.635
547.38	0.636
547.58	0.639
547.77	0.639
547.97	0.635
548.17	0.637
548.37	0.638
548.56	0.638
548.76	0.636
548.96	0.639
549.16	0.642
549.35	0.642
549.55	0.640
549.75	0.640
549.95	0.644
550.14	0.645
550.34	0.642
550.54	0.647
550.73	0.652
550.93	0.653
551.13	0.648
551.33	0.647
551.52	0.648
551.72	0.649
551.92	0.646
552.12	0.646
552.31	0.647
552.51	0.647
552.71	0.641
552.90	0.641
553.10	0.642
553.30	0.643
553.50	0.641
553.69	0.643
553.89	0.644
554.09	0.645
554.28	0.642
554.48	0.643
554.68	0.646
554.87	0.645
555.07	0.642
555.27	0.642
555.47	0.644
555.66	0.645
555.86	0.643
556.06	0.645
556.25	0.646
556.45	0.653
556.65	0.651
556.84	0.654
557.04	0.659
557.24	0.660
557.43	0.659
557.63	0.662
557.83	0.664
558.02	0.664
558.22	0.667
558.42	0.669
558.61	0.662
558.81	0.663
559.01	0.658
559.21	0.658
559.40	0.659
559.60	0.659
559.80	0.655
559.99	0.656
560.19	0.658
560.39	0.652
560.58	0.649
560.78	0.649
560.97	0.653
561.17	0.652
561.37	0.649
561.56	0.650
561.76	0.652
561.96	0.651
562.15	0.649
562.35	0.651
562.55	0.653
562.74	0.654
562.94	0.652
563.14	0.650
563.33	0.652
563.53	0.651
563.73	0.649
563.92	0.650
564.12	0.654
564.31	0.656
564.51	0.655
564.71	0.656
564.90	0.659
565.10	0.660
565.30	0.662
565.49	0.663
565.69	0.667
565.89	0.667
566.08	0.664
566.28	0.665
566.47	0.666
566.67	0.663
566.87	0.659
567.06	0.661
567.26	0.667
567.46	0.662
567.65	0.661
567.85	0.662
568.04	0.665
568.24	0.664
568.44	0.660
568.63	0.659
568.83	0.661
569.02	0.660
569.22	0.655
569.42	0.651
569.61	0.654
569.81	0.652
570.00	0.649
570.20	0.651
570.40	0.653
570.59	0.653
570.79	0.650
570.98	0.649
571.18	0.651
571.38	0.651
571.57	0.648
571.77	0.646
571.96	0.650
572.16	0.648
572.35	0.643
572.55	0.644
572.75	0.643
572.94	0.643
573.14	0.641
573.33	0.641
573.53	0.642
573.73	0.641
573.92	0.639
574.12	0.637
574.31	0.639
574.51	0.640
574.70	0.637
574.90	0.639
575.09	0.641
575.29	0.642
575.49	0.639
575.68	0.640
575.88	0.642
576.07	0.643
576.27	0.641
576.46	0.640
576.66	0.640
576.86	0.639
577.05	0.636
577.25	0.634
577.44	0.636
577.64	0.636
577.83	0.633
578.03	0.633
578.22	0.633
578.42	0.632
578.61	0.630
578.81	0.631
579.00	0.632
579.20	0.632
579.40	0.631
579.59	0.629
579.79	0.630
579.98	0.630
580.18	0.629
580.37	0.630
580.57	0.633
580.76	0.637
580.96	0.635
581.15	0.636
581.35	0.639
581.54	0.638
581.74	0.638
581.93	0.639
582.13	0.641
582.32	0.639
582.52	0.637
582.71	0.637
582.91	0.634
583.10	0.633
583.30	0.632
583.49	0.632
583.69	0.636
583.88	0.637
584.08	0.636
584.27	0.637
584.47	0.641
584.66	0.642
584.86	0.640
585.05	0.642
585.25	0.645
585.44	0.644
585.64	0.642
585.83	0.639
586.03	0.640
586.22	0.639
586.42	0.636
586.61	0.637
586.81	0.640
587.00	0.640
587.20	0.638
587.39	0.639
587.59	0.641
587.78	0.642
587.98	0.643
588.17	0.643
588.37	0.646
588.56	0.648
588.76	0.643
588.95	0.643
589.15	0.647
589.34	0.649
589.54	0.647
589.73	0.647
589.92	0.651
590.12	0.650
590.31	0.647
590.51	0.652
590.70	0.653
590.90	0.653
591.09	0.650
591.29	0.649
591.48	0.649
591.68	0.650
591.87	0.648
592.06	0.647
592.26	0.650
592.45	0.649
592.65	0.643
592.84	0.644
593.04	0.647
593.23	0.649
593.43	0.647
593.62	0.647
593.81	0.648
594.01	0.648
594.20	0.646
594.40	0.645
594.59	0.648
594.79	0.649
594.98	0.647
595.17	0.646
595.37	0.647
595.56	0.649
595.76	0.647
595.95	0.648
596.14	0.650
596.34	0.651
596.53	0.649
596.73	0.649
596.92	0.650
597.12	0.653
597.31	0.651
597.50	0.651
597.70	0.653
597.89	0.652
598.09	0.649
598.28	0.650
598.47	0.653
598.67	0.651
598.86	0.648
599.06	0.649
599.25	0.650
599.44	0.649
599.64	0.646
599.83	0.645
600.03	0.649
600.22	0.650
600.41	0.650
600.61	0.648
600.80	0.652
601.00	0.653
601.19	0.648
601.38	0.647
601.58	0.650
601.77	0.652
601.96	0.653
602.16	0.653
602.35	0.662
602.55	0.658
602.74	0.658
602.93	0.659
603.13	0.664
603.32	0.665
603.51	0.664
603.71	0.666
603.90	0.668
604.09	0.668
604.29	0.664
604.48	0.659
604.68	0.661
604.87	0.659
605.06	0.656
605.26	0.653
605.45	0.654
605.64	0.653
605.84	0.648
606.03	0.647
606.22	0.647
606.42	0.648
606.61	0.644
606.80	0.644
607.00	0.647
607.19	0.647
607.38	0.645
607.58	0.646
607.77	0.650
607.96	0.650
608.16	0.649
608.35	0.653
608.54	0.657
608.74	0.660
608.93	0.664
609.12	0.667
609.32	0.671
609.51	0.674
609.70	0.672
609.90	0.674
610.09	0.679
610.28	0.684
610.48	0.676
610.67	0.677
610.86	0.678
611.06	0.673
611.25	0.670
611.44	0.670
611.64	0.670
611.83	0.672
612.02	0.668
612.21	0.666
612.41	0.665
612.60	0.665
612.79	0.660
612.99	0.660
613.18	0.663
613.37	0.661
613.57	0.658
613.76	0.660
613.95	0.658
614.14	0.659
614.34	0.656
614.53	0.658
614.72	0.661
614.92	0.662
615.11	0.658
615.30	0.656
615.49	0.659
615.69	0.662
615.88	0.658
616.07	0.659
616.26	0.662
616.46	0.663
616.65	0.659
616.84	0.659
617.04	0.661
617.23	0.665
617.42	0.665
617.61	0.669
617.81	0.670
618.00	0.672
618.19	0.670
618.38	0.673
618.58	0.677
618.77	0.677
618.96	0.676
619.15	0.677
619.35	0.679
619.54	0.679
619.73	0.674
619.92	0.675
620.12	0.679
620.31	0.680
620.50	0.675
620.69	0.676
620.89	0.680
621.08	0.681
621.27	0.680
621.46	0.680
621.66	0.686
621.85	0.685
622.04	0.681
622.23	0.682
622.43	0.683
622.62	0.683
622.81	0.681
623.00	0.680
623.19	0.685
623.39	0.684
623.58	0.680
623.77	0.678
623.96	0.683
624.16	0.683
624.35	0.677
624.54	0.680
624.73	0.685
624.92	0.682
625.12	0.680
625.31	0.681
625.50	0.684
625.69	0.685
625.88	0.680
626.08	0.679
626.27	0.682
626.46	0.682
626.65	0.679
626.84	0.679
627.04	0.685
627.23	0.684
627.42	0.679
627.61	0.681
627.80	0.685
628.00	0.686
628.19	0.685
628.38	0.689
628.57	0.693
628.76	0.692
628.96	0.688
629.15	0.689
629.34	0.693
629.53	0.693
629.72	0.687
629.91	0.687
630.11	0.692
630.30	0.692
630.49	0.693
630.68	0.694
630.87	0.700
631.06	0.702
631.26	0.696
631.45	0.698
631.64	0.707
631.83	0.709
632.02	0.706
632.21	0.706
632.41	0.715
632.60	0.709
632.79	0.707
632.98	0.706
633.17	0.708
633.36	0.709
633.55	0.703
633.75	0.699
633.94	0.703
634.13	0.704
634.32	0.698
634.51	0.692
634.70	0.695
634.89	0.695
635.09	0.690
635.28	0.691
635.47	0.694
635.66	0.699
635.85	0.694
636.04	0.695
636.23	0.701
636.43	0.703
636.62	0.701
636.81	0.700
637.00	0.704
637.19	0.708
637.38	0.703
637.57	0.703
637.76	0.705
637.95	0.706
638.15	0.701
638.34	0.697
638.53	0.702
638.72	0.703
638.91	0.699
639.10	0.697
639.29	0.698
639.48	0.699
639.67	0.698
639.87	0.697
640.06	0.704
640.25	0.704
640.44	0.704
640.63	0.704
640.82	0.708
641.01	0.707
641.20	0.706
641.39	0.707
641.58	0.711
641.78	0.711
641.97	0.706
642.16	0.719
642.35	0.721
642.54	0.720
642.73	0.714
642.92	0.712
643.11	0.717
643.30	0.717
643.49	0.711
643.68	0.713
643.87	0.715
644.06	0.716
644.25	0.695
644.45	0.698
644.64	0.699
644.83	0.700
645.02	0.696
645.21	0.696
645.40	0.699
645.59	0.699
645.78	0.692
645.97	0.694
646.16	0.695
646.35	0.695
646.54	0.692
646.73	0.693
646.92	0.696
647.11	0.695
647.30	0.689
647.49	0.691
647.68	0.692
647.88	0.690
648.07	0.681
648.26	0.684
648.45	0.686
648.64	0.682
648.83	0.678
649.02	0.680
649.21	0.691
649.40	0.690
649.59	0.684
649.78	0.685
649.97	0.701
650.16	0.701
650.35	0.695
650.54	0.697
650.73	0.708
650.92	0.705
651.11	0.698
651.30	0.695
651.49	0.701
651.68	0.701
651.87	0.696
652.06	0.686
652.25	0.690
652.44	0.691
652.63	0.683
652.82	0.680
653.01	0.680
653.20	0.676
653.39	0.663
653.58	0.660
653.77	0.659
653.96	0.654
654.15	0.645
654.34	0.644
654.53	0.641
654.72	0.636
654.91	0.628
655.10	0.624
655.29	0.624
655.48	0.622
655.67	0.617
655.86	0.615
656.05	0.614
656.24	0.614
656.43	0.609
656.62	0.608
656.81	0.611
657.00	0.611
657.19	0.609
657.38	0.610
657.57	0.611
657.76	0.614
657.95	0.613
658.14	0.617
658.33	0.621
658.51	0.628
658.70	0.629
658.89	0.630
659.08	0.638
659.27	0.644
659.46	0.643
659.65	0.649
659.84	0.653
660.03	0.656
660.22	0.657
660.41	0.660
660.60	0.660
660.79	0.661
660.98	0.665
661.17	0.664
661.36	0.664
661.55	0.664
661.74	0.660
661.92	0.663
662.11	0.666
662.30	0.664
662.49	0.657
662.68	0.657
662.87	0.661
663.06	0.655
663.25	0.656
663.44	0.656
663.63	0.658
663.82	0.658
664.01	0.652
664.20	0.650
664.38	0.652
664.57	0.653
664.76	0.652
664.95	0.653
665.14	0.658
665.33	0.653
665.52	0.659
665.71	0.664
665.90	0.664
666.09	0.666
666.28	0.663
666.46	0.661
666.65	0.663
666.84	0.660
667.03	0.653
667.22	0.650
667.41	0.654
667.60	0.644
667.79	0.636
667.98	0.637
668.16	0.639
668.35	0.639
668.54	0.635
668.73	0.636
668.92	0.637
669.11	0.637
669.30	0.630
669.49	0.626
669.67	0.628
669.86	0.630
670.05	0.626
670.24	0.623
670.43	0.621
670.62	0.620
670.81	0.614
671.00	0.615
671.18	0.615
671.37	0.615
671.56	0.612
671.75	0.612
671.94	0.609
672.13	0.607
672.32	0.602
672.50	0.601
672.69	0.603
672.88	0.604
673.07	0.598
673.26	0.601
673.45	0.602
673.63	0.603
673.82	0.599
674.01	0.600
674.20	0.601
674.39	0.600
674.58	0.599
674.76	0.599
674.95	0.598
675.14	0.597
675.33	0.592
675.52	0.590
675.71	0.589
675.89	0.588
676.08	0.584
676.27	0.584
676.46	0.585
676.65	0.584
676.84	0.583
677.02	0.585
677.21	0.588
677.40	0.588
677.59	0.585
677.78	0.587
677.96	0.591
678.15	0.590
678.34	0.588
678.53	0.588
678.72	0.590
678.90	0.586
679.09	0.582
679.28	0.578
679.47	0.579
679.66	0.579
679.84	0.575
680.03	0.573
680.22	0.572
680.41	0.574
680.60	0.569
680.78	0.569
680.97	0.572
681.16	0.572
681.35	0.570
681.53	0.568
681.72	0.570
681.91	0.572
682.10	0.569
682.29	0.571
682.47	0.569
682.66	0.568
682.85	0.566
683.04	0.564
683.22	0.564
683.41	0.566
683.60	0.564
683.79	0.565
683.97	0.565
684.16	0.564
684.35	0.560
684.54	0.562
684.72	0.563
684.91	0.563
685.10	0.561
685.29	0.562
685.47	0.560
685.66	0.560
685.85	0.556
686.04	0.555
686.22	0.559
686.41	0.561
686.60	0.558
686.79	0.561
686.97	0.562
687.16	0.564
687.35	0.560
687.54	0.563
687.72	0.567
687.91	0.567
688.10	0.568
688.29	0.567
688.47	0.565
688.66	0.565
688.85	0.560
689.03	0.558
689.22	0.563
689.41	0.564
689.60	0.558
689.78	0.556
689.97	0.557
690.16	0.554
690.34	0.550
690.53	0.550
690.72	0.551
690.91	0.549
691.09	0.547
691.28	0.541
691.47	0.541
691.65	0.540
691.84	0.537
692.03	0.536
692.21	0.535
692.40	0.535
692.59	0.533
692.77	0.531
692.96	0.533
693.15	0.534
693.34	0.532
693.52	0.532
693.71	0.533
693.90	0.534
694.08	0.534
694.27	0.535
694.46	0.545
694.64	0.546
694.83	0.545
695.02	0.544
695.20	0.543
695.39	0.542
695.58	0.541
695.76	0.542
695.95	0.542
696.14	0.541
696.32	0.538
696.51	0.529
696.70	0.529
696.88	0.530
697.07	0.528
697.26	0.530
697.44	0.532
697.63	0.531
697.81	0.528
698.00	0.527
698.19	0.527
698.37	0.528
698.56	0.527
698.75	0.527
698.93	0.527
699.12	0.527
699.31	0.526
699.49	0.525
699.68	0.526
699.87	0.530
700.05	0.529
700.24	0.528
700.42	0.530
700.61	0.528
700.80	0.526
700.98	0.526
701.17	0.527
701.36	0.526
701.54	0.526
701.73	0.527
701.91	0.525
702.10	0.524
702.29	0.522
702.47	0.521
702.66	0.524
702.84	0.525
703.03	0.524
703.22	0.525
703.40	0.526
703.59	0.527
703.77	0.526
703.96	0.527
704.15	0.528
704.33	0.529
704.52	0.527
704.70	0.526
704.89	0.526
705.08	0.525
705.26	0.519
705.45	0.519
705.63	0.520
705.82	0.516
706.00	0.513
706.19	0.513
706.38	0.513
706.56	0.512
706.75	0.509
706.93	0.507
707.12	0.509
707.30	0.510
707.49	0.507
707.68	0.505
707.86	0.505
708.05	0.505
708.23	0.502
708.42	0.502
708.60	0.506
708.79	0.507
708.98	0.505
709.16	0.505
709.35	0.508
709.53	0.512
709.72	0.510
709.90	0.512
710.09	0.515
710.27	0.517
710.46	0.520
710.64	0.518
710.83	0.520
711.02	0.521
711.20	0.519
711.39	0.517
711.57	0.515
711.76	0.516
711.94	0.512
712.13	0.512
712.31	0.513
712.50	0.508
712.68	0.504
712.87	0.504
713.05	0.505
713.24	0.505
713.42	0.504
713.61	0.504
713.79	0.506
713.98	0.507
714.16	0.507
714.35	0.506
714.54	0.509
714.72	0.510
714.91	0.507
715.09	0.514
715.28	0.517
715.46	0.518
715.65	0.515
715.83	0.514
716.02	0.517
716.20	0.513
716.39	0.513
716.57	0.514
716.76	0.517
716.94	0.517
717.12	0.509
717.31	0.510
717.49	0.513
717.68	0.516
717.86	0.514
718.05	0.516
718.23	0.519
718.42	0.521
718.60	0.521
718.79	0.529
718.97	0.532
719.16	0.532
719.34	0.529
719.53	0.529
719.71	0.529
719.90	0.531
720.08	0.528
720.27	0.528
720.45	0.529
720.63	0.529
720.82	0.522
721.00	0.524
721.19	0.529
721.37	0.528
721.56	0.528
721.74	0.530
721.93	0.539
722.11	0.545
722.30	0.543
722.48	0.547
722.66	0.549
722.85	0.548
723.03	0.548
723.22	0.546
723.40	0.550
723.59	0.549
723.77	0.552
723.95	0.545
724.14	0.549
724.32	0.550
724.51	0.548
724.69	0.550
724.88	0.552
725.06	0.550
725.24	0.549
725.43	0.552
725.61	0.556
725.80	0.549
725.98	0.546
726.16	0.543
726.35	0.549
726.53	0.548
726.72	0.546
726.90	0.556
727.09	0.558
727.27	0.564
727.45	0.559
727.64	0.567
727.82	0.578
728.01	0.582
728.19	0.578
728.37	0.584
728.56	0.589
728.74	0.597
728.92	0.582
729.11	0.585
729.29	0.584
729.48	0.588
729.66	0.576
729.84	0.576
730.03	0.582
730.21	0.583
730.40	0.570
730.58	0.570
730.76	0.571
730.95	0.574
731.13	0.572
731.31	0.586
731.50	0.595
731.68	0.599
731.86	0.593
732.05	0.605
732.23	0.610
732.42	0.614
732.60	0.617
732.78	0.623
732.97	0.644
733.15	0.651
733.33	0.636
733.52	0.643
733.70	0.656
733.88	0.665
734.07	0.649
734.25	0.675
734.43	0.685
734.62	0.688
734.80	0.680
734.98	0.671
735.17	0.681
735.35	0.687
735.53	0.673
735.72	0.677
735.90	0.702
736.08	0.721
736.27	0.697
736.45	0.708
736.63	0.723
736.82	0.734
737.00	0.732
737.18	0.741
737.37	0.778
737.55	0.804
737.73	0.795
737.92	0.798
738.10	0.800
738.28	0.820
738.46	0.803
738.65	0.817
738.83	0.843
739.01	0.897
739.20	0.884
739.38	0.868
739.56	0.862
739.75	0.866
739.93	0.827
740.11	0.854
740.29	0.858
740.48	0.867
740.66	0.841
740.84	0.837
741.03	0.805
741.21	0.816
741.39	0.790
741.57	0.805
741.76	0.828
741.94	0.832
742.12	0.792
742.31	0.803
742.49	0.830
742.67	0.854
742.85	0.860
743.04	0.866
743.22	0.880
743.40	0.941
743.58	0.916
743.77	0.935
743.95	0.983
744.13	1.040
744.31	1.007
744.50	1.000
744.68	1.009
744.86	0.985
745.04	0.989
745.23	1.065
745.41	1.055
745.59	1.061
745.77	1.014
745.96	0.994
746.14	1.016
746.32	1.014
746.50	0.994
746.69	0.978
746.87	1.002
747.05	0.988
747.23	0.900
747.42	0.883
747.60	0.924
747.78	0.925
747.96	0.958
748.14	0.902
748.33	0.941
748.51	0.937
748.69	0.918
748.87	0.949
749.06	0.955
749.24	0.954
749.42	0.931
749.60	0.907
749.78	0.927
749.97	0.878
750.15	0.868
750.33	0.872
750.51	0.907
750.69	0.913
750.88	0.910
751.06	0.919
751.24	0.961
751.42	0.949
751.60	0.933
751.79	1.015
751.97	1.080
752.15	1.083
752.33	1.033
752.51	1.112
752.69	1.144
752.88	1.092
753.06	1.127
753.24	1.091
753.42	1.148
753.60	1.363
753.78	1.159
753.97	1.176
754.15	1.204
754.33	1.235
754.51	1.069
754.69	1.051
754.87	1.103
755.06	1.022
755.24	1.015
755.42	1.019
755.60	0.918
755.78	0.926
755.96	0.862
756.15	0.863
756.33	0.873
756.51	0.891
756.69	0.870
756.87	0.832
757.05	0.860
757.23	0.841
757.42	0.804
757.60	0.802
757.78	0.795
757.96	0.792
758.14	0.773
758.32	0.758
758.50	0.777
758.69	0.779
758.87	0.769
759.05	0.772
759.23	0.790
759.41	0.790
759.59	0.780
759.77	0.804
759.95	0.837
760.13	0.886
760.32	0.882
760.50	0.877
760.68	0.905
760.86	0.908
761.04	0.872
761.22	0.873
761.40	0.932
761.58	0.933
761.76	0.897
761.95	0.880
762.13	0.836
762.31	0.835
762.49	0.797
762.67	0.817
762.85	0.835
763.03	0.830
763.21	0.807
763.39	0.789
763.57	0.794
763.75	0.790
763.94	0.772
764.12	0.773
764.30	0.801
764.48	0.806
764.66	0.764
764.84	0.761
765.02	0.805
765.20	0.811
765.38	0.782
765.56	0.790
765.74	0.836
765.92	0.833
766.10	0.839
766.28	0.832
766.46	0.869
766.65	0.870
766.83	0.849
767.01	0.834
767.19	0.848
767.37	0.853
767.55	0.833
767.73	0.812
767.91	0.823
768.09	0.810
768.27	0.794
768.45	0.781
768.63	0.788
768.81	0.793
768.99	0.761
769.17	0.789
769.35	0.808
769.53	0.806
769.71	0.781
769.89	0.791
770.07	0.803
770.25	0.785
770.43	0.758
770.61	0.788
770.79	0.798
770.97	0.809
771.15	0.767
771.33	0.771
771.51	0.780
771.69	0.792
771.87	0.796
772.05	0.803
772.24	0.819
772.42	0.829
772.60	0.799
772.78	0.863
772.96	0.901
773.14	0.899
773.32	0.869
773.49	0.873
773.67	0.873
773.85	0.851
774.03	0.832
774.21	0.867
774.39	0.882
774.57	0.908
774.75	0.822
774.93	0.816
775.11	0.846
775.29	0.854
775.47	0.853
775.65	0.866
775.83	0.887
776.01	0.913
776.19	0.852
776.37	0.857
776.55	0.860
776.73	0.861
776.91	0.850
777.09	0.831
777.27	0.836
777.45	0.821
777.63	0.793
777.81	0.788
777.99	0.780
778.17	0.780
778.35	0.754
778.53	0.745
778.71	0.754
778.89	0.741
779.07	0.726
779.24	0.730
779.42	0.735
779.60	0.755
779.78	0.749
779.96	0.753
780.14	0.764
780.32	0.785
780.50	0.762
780.68	0.759
780.86	0.754
781.04	0.774
781.22	0.775
781.40	0.792
781.58	0.786
781.75	0.776
781.93	0.754
782.11	0.755
782.29	0.741
782.47	0.739
782.65	0.724
782.83	0.755
783.01	0.751
783.19	0.743
783.37	0.719
783.55	0.721
783.72	0.744
783.90	0.756
784.08	0.742
784.26	0.757
784.44	0.778
784.62	0.779
784.80	0.738
784.98	0.743
785.16	0.753
785.33	0.769
785.51	0.749
785.69	0.735
785.87	0.735
786.05	0.745
786.23	0.738
786.41	0.737
786.59	0.747
786.77	0.746
786.94	0.728
787.12	0.730
787.30	0.734
787.48	0.734
787.66	0.718
787.84	0.719
788.02	0.712
788.19	0.708
788.37	0.694
788.55	0.697
788.73	0.700
788.91	0.694
789.09	0.675
789.27	0.665
789.44	0.677
789.62	0.682
789.80	0.689
789.98	0.715
790.16	0.704
790.34	0.700
790.51	0.684
790.69	0.707
790.87	0.717
791.05	0.714
791.23	0.704
791.41	0.706
791.58	0.719
791.76	0.697
791.94	0.662
792.12	0.672
792.30	0.676
792.48	0.673
792.65	0.661
792.83	0.668
793.01	0.680
793.19	0.678
793.37	0.658
793.54	0.654
793.72	0.666
793.90	0.665
794.08	0.650
794.26	0.653
794.43	0.666
794.61	0.651
794.79	0.637
794.97	0.635
795.15	0.642
795.32	0.648
795.50	0.636
795.68	0.633
795.86	0.641
796.04	0.644
796.21	0.634
796.39	0.632
796.57	0.650
796.75	0.658
796.92	0.658
797.10	0.664
797.28	0.670
797.46	0.674
797.64	0.672
797.81	0.680
797.99	0.685
798.17	0.690
798.35	0.681
798.52	0.684
798.70	0.682
798.88	0.690
799.06	0.686
799.23	0.687
799.41	0.698
799.59	0.690
799.77	0.675
799.94	0.686
800.12	0.698
800.30	0.717
800.48	0.713
800.65	0.713
800.83	0.706
801.01	0.699
801.19	0.697
801.36	0.694
801.54	0.701
801.72	0.714
801.90	0.696
802.07	0.691
802.25	0.678
802.43	0.661
802.60	0.654
802.78	0.660
802.96	0.667
803.14	0.660
803.31	0.654
803.49	0.652
803.67	0.648
803.84	0.652
804.02	0.641
804.20	0.644
804.38	0.653
804.55	0.652
804.73	0.635
804.91	0.634
805.08	0.648
805.26	0.645
805.44	0.702
805.61	0.709
805.79	0.711
805.97	0.710
806.15	0.699
806.32	0.692
806.50	0.700
806.68	0.700
806.85	0.691
807.03	0.684
807.21	0.704
807.38	0.639
807.56	0.625
807.74	0.637
807.91	0.647
808.09	0.649
808.27	0.669
808.44	0.695
808.62	0.709
808.80	0.711
808.97	0.702
809.15	0.696
809.33	0.720
809.50	0.727
809.68	0.708
809.86	0.717
810.03	0.756
810.21	0.730
810.39	0.710
810.56	0.716
810.74	0.744
810.91	0.823
811.09	0.806
811.27	0.828
811.44	0.839
811.62	0.840
811.80	0.816
811.97	0.779
812.15	0.783
812.33	0.779
812.50	0.760
812.68	0.746
812.85	0.691
813.03	0.694
813.21	0.656
813.38	0.649
813.56	0.657
813.74	0.668
813.91	0.675
814.09	0.708
814.26	0.702
814.44	0.706
814.62	0.692
814.79	0.696
814.97	0.706
815.14	0.712
815.32	0.714
815.50	0.730
815.67	0.736
815.85	0.728
816.02	0.713
816.20	0.722
816.38	0.743
816.55	0.750
816.73	0.745
816.90	0.756
817.08	0.793
817.26	0.800
817.43	0.772
817.61	0.804
817.78	0.832
817.96	0.809
818.13	0.793
818.31	0.791
818.49	0.807
818.66	0.797
818.84	0.779
819.01	0.757
819.19	0.770
819.36	0.774
819.54	0.735
819.71	0.775
819.89	0.797
820.07	0.812
820.24	0.799
820.42	0.801
820.59	0.827
820.77	0.849
820.94	0.832
821.12	0.849
821.29	0.873
821.47	0.871
821.64	0.800
821.82	0.813
822.00	0.813
822.17	0.813
822.35	0.800
822.52	0.801
822.70	0.794
822.87	0.804
823.05	0.777
823.22	0.788
823.40	0.826
823.57	0.850
823.75	0.823
823.92	0.856
824.10	0.891
824.27	0.943
824.45	0.932
824.62	1.019
824.80	1.051
824.97	1.075
825.15	1.053
825.32	1.068
825.50	1.079
825.67	1.098
825.85	1.058
826.02	1.079
826.20	1.120
826.37	1.306
826.55	1.164
826.72	1.494
826.90	1.717
827.07	1.944
827.25	1.725
827.42	-0.000
827.60	-0.000
827.77	-0.000
827.95	-0.000
828.12	-0.000
828.30	-0.000
828.47	-0.000
828.65	1.855
828.82	2.317
829.00	-0.000
829.17	-0.000
829.34	-0.000
829.52	-0.000
829.69	-0.000
829.87	-0.000
830.04	-0.000
830.22	-0.000
830.39	-0.000
830.57	-0.000
830.74	-0.000
830.92	-0.000
831.09	-0.000
831.26	-0.000
831.44	-0.000
831.61	-0.000
831.79	-0.000
831.96	-0.000
832.14	-0.000
832.31	-0.000
832.49	-0.000
832.66	-0.000
832.83	-0.000
833.01	-0.000
833.18	-0.000
833.36	-0.000
833.53	-0.000
833.70	-0.000
833.88	-0.000
834.05	-0.000
834.23	-0.000
834.40	-0.000
834.58	-0.000
834.75	-0.000
834.92	-0.000
835.10	-0.000
835.27	-0.000
835.45	-0.000
835.62	-0.000
835.79	-0.000
835.97	-0.000
836.14	-0.000
836.32	-0.000
836.49	-0.000
836.66	-0.000
836.84	-0.000
837.01	-0.000
837.18	-0.000
837.36	-0.000
837.53	-0.000
837.71	-0.000
837.88	-0.000
838.05	-0.000
838.23	-0.000
838.40	-0.000
838.58	-0.000
838.75	-0.000
838.92	-0.000
839.10	-0.000
839.27	-0.000
839.44	-0.000
839.62	-0.000
839.79	-0.000
839.96	-0.000
840.14	-0.000
840.31	-0.000
840.48	-0.000
840.66	-0.000
840.83	-0.000
841.01	-0.000
841.18	-0.000
841.35	-0.000
841.53	-0.000
841.70	-0.000
841.87	-0.000
842.05	-0.000
842.22	-0.000
842.39	-0.000
842.57	-0.000
842.74	-0.000
842.91	-0.000
843.09	-0.000
843.26	-0.000
843.43	-0.000
843.60	-0.000
843.78	-0.000
843.95	-0.000
844.12	-0.000
844.30	-0.000
844.47	-0.000
844.64	-0.000
844.82	-0.000
844.99	-0.000
845.16	-0.000
845.34	-0.000
845.51	-0.000
845.68	-0.000
845.85	-0.000
846.03	-0.000
846.20	-0.000
846.37	-0.000
846.55	-0.000
846.72	-0.000
846.89	-0.000
847.06	-0.000
847.24	-0.000
847.41	-0.000
847.58	-0.000
847.76	-0.000
847.93	-0.000
848.10	-0.000
848.27	-0.000
848.45	-0.000
848.62	-0.000
848.79	-0.000
848.97	-0.000
849.14	-0.000
849.31	-0.000
849.48	-0.000
849.66	-0.000
849.83	-0.000
850.00	-0.000
850.17	-0.000
850.35	-0.000
850.52	-0.000
850.69	-0.000
850.86	-0.000
851.04	-0.000
851.21	-0.000
851.38	-0.000
851.55	-0.000
851.72	-0.000
851.90	-0.000
852.07	-0.000
852.24	-0.000
852.41	-0.000
852.59	-0.000
852.76	-0.000
852.93	-0.000
853.10	-0.000
853.28	-0.000
853.45	-0.000
853.62	-0.000
853.79	-0.000
853.96	-0.000
854.14	-0.000
854.31	-0.000
854.48	-0.000
854.65	-0.000
854.82	-0.000
855.00	-0.000
855.17	-0.000
855.34	-0.000
855.51	-0.000
855.68	-0.000
855.86	-0.000
856.03	-0.000
856.20	-0.000
856.37	-0.000
856.54	-0.000
856.72	-0.000
856.89	-0.000
857.06	-0.000
857.23	-0.000
857.40	-0.000
857.57	-0.000
857.75	-0.000
857.92	-0.000
858.09	-0.000
858.26	-0.000
858.43	-0.000
858.60	-0.000
858.78	-0.000
858.95	-0.000
859.12	-0.000
859.29	-0.000
859.46	-0.000
859.63	-0.000
859.81	-0.000
859.98	-0.000
860.15	-0.000
860.32	-0.000
860.49	-0.000
860.66	-0.000
860.83	-0.000
861.01	-0.000
861.18	-0.000
861.35	-0.000
861.52	-0.000
861.69	-0.000
861.86	-0.000
862.03	-0.000
862.21	-0.000
862.38	-0.000
862.55	-0.000
862.72	-0.000
862.89	-0.000
863.06	-0.000
863.23	-0.000
863.40	-0.000
863.58	-0.000
863.75	-0.000
863.92	-0.000
864.09	-0.000
864.26	-0.000
864.43	-0.000
864.60	-0.000
864.77	-0.000
864.94	-0.000
865.11	-0.000
865.29	-0.000
865.46	-0.000
865.63	-0.000
865.80	-0.000
865.97	-0.000
866.14	-0.000
866.31	-0.000
866.48	-0.000
866.65	-0.000
866.82	-0.000
866.99	-0.000
867.16	-0.000
867.34	-0.000
867.51	-0.000
867.68	-0.000
867.85	-0.000
868.02	-0.000
868.19	-0.000
868.36	-0.000
868.53	-0.000
868.70	-0.000
868.87	-0.000
869.04	-0.000
869.21	-0.000
869.38	-0.000
869.55	-0.000
869.72	-0.000
869.89	-0.000
870.06	-0.000
870.24	-0.000
870.41	-0.000
870.58	-0.000
870.75	-0.000
870.92	-0.000
871.09	-0.000
871.26	-0.000
871.43	-0.000
871.60	-0.000
871.77	-0.000
871.94	-0.000
872.11	-0.000
872.28	-0.000
872.45	-0.000
872.62	-0.000
872.79	-0.000
872.96	-0.000
873.13	-0.000
873.30	-0.000
873.47	-0.000
873.64	-0.000
873.81	-0.000
873.98	-0.000
874.15	-0.000
874.32	-0.000
874.49	-0.000
874.66	-0.000
874.83	-0.000
875.00	-0.000
875.17	-0.000
875.34	-0.000
875.51	-0.000
875.68	-0.000
875.85	-0.000
876.02	-0.000
876.19	-0.000
876.36	-0.000
876.53	-0.000
876.70	-0.000
876.87	-0.000
877.04	-0.000
877.21	-0.000
877.38	-0.000
877.55	-0.000
877.72	-0.000
877.89	-0.000
878.06	-0.000
878.23	-0.000
878.39	-0.000
878.56	-0.000
878.73	-0.000
878.90	-0.000
879.07	-0.000
879.24	-0.000
879.41	-0.000
879.58	-0.000
879.75	-0.000
879.92	-0.000
880.09	-0.000
880.26	-0.000
880.43	-0.000
880.60	-0.000
880.77	-0.000
880.94	-0.000
881.11	-0.000
881.27	-0.000
881.44	-0.000
881.61	-0.000
881.78	-0.000
881.95	-0.000
882.12	-0.000
882.29	-0.000
882.46	-0.000
882.63	-0.000
882.80	-0.000
882.97	-0.000
883.14	-0.000
883.30	-0.000
883.47	-0.000
883.64	-0.000
883.81	-0.000
883.98	-0.000
884.15	-0.000
884.32	-0.000
884.49	-0.000
884.66	-0.000
884.82	-0.000
884.99	-0.000
885.16	-0.000
885.33	-0.000
885.50	-0.000
885.67	-0.000
885.84	-0.000
886.01	-0.000
886.17	-0.000
886.34	-0.000
886.51	-0.000
886.68	-0.000
886.85	-0.000
887.02	-0.000
887.19	-0.000
887.36	-0.000
887.52	-0.000
887.69	-0.000
887.86	-0.000
888.03	-0.000
888.20	-0.000
888.37	-0.000
888.54	-0.000
888.70	-0.000
888.87	-0.000
889.04	-0.000
889.21	-0.000
889.38	-0.000
889.55	-0.000
889.71	-0.000
889.88	-0.000
890.05	-0.000
890.22	-0.000
890.39	-0.000
>>>>>End Processed Spectral Data<<<<<
