SpectraSuite Data File
++++++++++++++++++++++++++++++++++++
Date: Fri Jun 19 11:36:54 CEST 2015
User: introlabs
Dark Spectrum Present: Yes
Reference Spectrum Present: Yes
Number of Sampled Component Spectra: 1
Spectrometers: USB4H08886
Integration Time (usec): 5245692 (USB4H08886)
Spectra Averaged: 5 (USB4H08886)
Boxcar Smoothing: 5 (USB4H08886)
Correct for Electrical Dark: Yes (USB4H08886)
Strobe/Lamp Enabled: No (USB4H08886)
Correct for Detector Non-linearity: Yes (USB4H08886)
Correct for Stray Light: Yes (USB4H08886)
Number of Pixels in Processed Spectrum: 3648
>>>>>Begin Processed Spectral Data<<<<<
178.14	-0.000
178.36	-0.000
178.57	-0.000
178.79	-0.000
179.01	-0.000
179.22	-0.000
179.44	-0.000
179.65	-0.000
179.87	-0.000
180.08	-0.000
180.30	-0.000
180.52	-0.000
180.73	-0.000
180.95	-0.000
181.16	-0.000
181.38	-0.000
181.59	-0.000
181.81	-0.000
182.03	-0.000
182.24	-0.000
182.46	-0.000
182.67	-0.000
182.89	-0.000
183.10	-0.000
183.32	-0.000
183.54	-0.000
183.75	-0.000
183.97	-0.000
184.18	-0.000
184.40	-0.000
184.61	-0.000
184.83	-0.000
185.04	-0.000
185.26	-0.000
185.48	-0.000
185.69	-0.000
185.91	-0.000
186.12	-0.000
186.34	-0.000
186.55	-0.000
186.77	-0.000
186.98	-0.000
187.20	-0.000
187.42	-0.000
187.63	-0.000
187.85	-0.000
188.06	-0.000
188.28	-0.000
188.49	-0.000
188.71	-0.000
188.92	-0.000
189.14	-0.000
189.36	-0.000
189.57	-0.000
189.79	-0.000
190.00	-0.000
190.22	-0.000
190.43	-0.000
190.65	-0.000
190.86	-0.000
191.08	-0.000
191.29	-0.000
191.51	-0.000
191.72	-0.000
191.94	-0.000
192.16	-0.000
192.37	-0.000
192.59	-0.000
192.80	-0.000
193.02	-0.000
193.23	-0.000
193.45	-0.000
193.66	-0.000
193.88	-0.000
194.09	-0.000
194.31	-0.000
194.52	-0.000
194.74	-0.000
194.95	-0.000
195.17	-0.000
195.38	-0.000
195.60	-0.000
195.81	-0.000
196.03	-0.000
196.25	-0.000
196.46	-0.000
196.68	-0.000
196.89	-0.000
197.11	-0.000
197.32	-0.000
197.54	-0.000
197.75	-0.000
197.97	-0.000
198.18	-0.000
198.40	-0.000
198.61	-0.000
198.83	-0.000
199.04	-0.000
199.26	-0.000
199.47	-0.000
199.69	-0.000
199.90	-0.000
200.12	-0.000
200.33	-0.000
200.55	-0.000
200.76	-0.000
200.98	-0.000
201.19	-0.000
201.41	-0.000
201.62	-0.000
201.84	-0.000
202.05	-0.000
202.27	-0.000
202.48	-0.000
202.70	-0.000
202.91	-0.000
203.13	-0.000
203.34	-0.000
203.56	-0.000
203.77	-0.000
203.99	-0.000
204.20	-0.000
204.42	-0.000
204.63	-0.000
204.85	-0.000
205.06	-0.000
205.28	-0.000
205.49	-0.000
205.71	-0.000
205.92	-0.000
206.14	-0.000
206.35	-0.000
206.56	-0.000
206.78	-0.000
206.99	-0.000
207.21	-0.000
207.42	-0.000
207.64	-0.000
207.85	-0.000
208.07	-0.000
208.28	-0.000
208.50	-0.000
208.71	-0.000
208.93	-0.000
209.14	-0.000
209.36	-0.000
209.57	-0.000
209.79	-0.000
210.00	-0.000
210.22	-0.000
210.43	-0.000
210.64	-0.000
210.86	-0.000
211.07	-0.000
211.29	-0.000
211.50	-0.000
211.72	-0.000
211.93	-0.000
212.15	-0.000
212.36	-0.000
212.58	-0.000
212.79	-0.000
213.01	-0.000
213.22	-0.000
213.43	-0.000
213.65	-0.000
213.86	-0.000
214.08	-0.000
214.29	-0.000
214.51	-0.000
214.72	-0.000
214.94	-0.000
215.15	-0.000
215.36	-0.000
215.58	-0.000
215.79	-0.000
216.01	-0.000
216.22	-0.000
216.44	-0.000
216.65	-0.000
216.87	-0.000
217.08	-0.000
217.29	-0.000
217.51	-0.000
217.72	-0.000
217.94	-0.000
218.15	-0.000
218.37	-0.000
218.58	-0.000
218.80	-0.000
219.01	-0.000
219.22	-0.000
219.44	-0.000
219.65	-0.000
219.87	-0.000
220.08	-0.000
220.30	-0.000
220.51	-0.000
220.72	-0.000
220.94	-0.000
221.15	-0.000
221.37	-0.000
221.58	-0.000
221.79	-0.000
222.01	-0.000
222.22	-0.000
222.44	-0.000
222.65	-0.000
222.87	-0.000
223.08	-0.000
223.29	-0.000
223.51	-0.000
223.72	-0.000
223.94	-0.000
224.15	-0.000
224.36	-0.000
224.58	-0.000
224.79	-0.000
225.01	-0.000
225.22	-0.000
225.44	-0.000
225.65	-0.000
225.86	-0.000
226.08	-0.000
226.29	-0.000
226.51	-0.000
226.72	-0.000
226.93	-0.000
227.15	-0.000
227.36	-0.000
227.58	-0.000
227.79	-0.000
228.00	-0.000
228.22	-0.000
228.43	-0.000
228.65	-0.000
228.86	-0.000
229.07	-0.000
229.29	-0.000
229.50	-0.000
229.72	-0.000
229.93	-0.000
230.14	-0.000
230.36	-0.000
230.57	-0.000
230.78	-0.000
231.00	-0.000
231.21	-0.000
231.43	-0.000
231.64	-0.000
231.85	-0.000
232.07	-0.000
232.28	-0.000
232.50	-0.000
232.71	-0.000
232.92	-0.000
233.14	-0.000
233.35	-0.000
233.56	-0.000
233.78	-0.000
233.99	-0.000
234.21	-0.000
234.42	-0.000
234.63	-0.000
234.85	-0.000
235.06	-0.000
235.27	-0.000
235.49	-0.000
235.70	-0.000
235.91	-0.000
236.13	-0.000
236.34	-0.000
236.56	-0.000
236.77	-0.000
236.98	-0.000
237.20	-0.000
237.41	-0.000
237.62	-0.000
237.84	-0.000
238.05	-0.000
238.26	-0.000
238.48	-0.000
238.69	-0.000
238.91	-0.000
239.12	-0.000
239.33	-0.000
239.55	-0.000
239.76	-0.000
239.97	-0.000
240.19	-0.000
240.40	-0.000
240.61	-0.000
240.83	-0.000
241.04	-0.000
241.25	-0.000
241.47	-0.000
241.68	-0.000
241.89	-0.000
242.11	-0.000
242.32	-0.000
242.53	-0.000
242.75	-0.000
242.96	-0.000
243.17	-0.000
243.39	-0.000
243.60	-0.000
243.81	-0.000
244.03	-0.000
244.24	-0.000
244.45	-0.000
244.67	-0.000
244.88	-0.000
245.09	-0.000
245.31	-0.000
245.52	-0.000
245.73	-0.000
245.95	-0.000
246.16	-0.000
246.37	-0.000
246.59	-0.000
246.80	-0.000
247.01	-0.000
247.23	-0.000
247.44	-0.000
247.65	-0.000
247.87	-0.000
248.08	-0.000
248.29	-0.000
248.51	-0.000
248.72	-0.000
248.93	-0.000
249.15	-0.000
249.36	-0.000
249.57	-0.000
249.78	-0.000
250.00	-0.000
250.21	-0.000
250.42	-0.000
250.64	-0.000
250.85	-0.000
251.06	-0.000
251.28	-0.000
251.49	-0.000
251.70	-0.000
251.92	-0.000
252.13	-0.000
252.34	-0.000
252.55	-0.000
252.77	-0.000
252.98	-0.000
253.19	-0.000
253.41	-0.000
253.62	-0.000
253.83	-0.000
254.05	-0.000
254.26	-0.000
254.47	-0.000
254.68	-0.000
254.90	-0.000
255.11	-0.000
255.32	-0.000
255.54	-0.000
255.75	-0.000
255.96	-0.000
256.17	-0.000
256.39	-0.000
256.60	-0.000
256.81	-0.000
257.03	-0.000
257.24	-0.000
257.45	-0.000
257.66	-0.000
257.88	-0.000
258.09	1.859
258.30	1.741
258.51	1.604
258.73	1.407
258.94	1.192
259.15	1.119
259.37	1.087
259.58	1.001
259.79	0.998
260.00	1.060
260.22	1.142
260.43	1.138
260.64	1.050
260.85	1.088
261.07	1.027
261.28	1.116
261.49	1.099
261.71	1.091
261.92	1.234
262.13	1.111
262.34	1.030
262.56	0.963
262.77	0.948
262.98	0.934
263.19	0.938
263.41	1.017
263.62	0.998
263.83	1.003
264.04	0.981
264.26	0.881
264.47	0.904
264.68	0.920
264.89	0.966
265.11	0.957
265.32	0.997
265.53	0.951
265.74	0.918
265.96	0.899
266.17	0.907
266.38	0.863
266.59	0.923
266.81	0.906
267.02	0.849
267.23	0.784
267.44	0.800
267.65	0.764
267.87	0.769
268.08	0.740
268.29	0.702
268.50	0.686
268.72	0.679
268.93	0.639
269.14	0.630
269.35	0.628
269.57	0.622
269.78	0.602
269.99	0.602
270.20	0.586
270.41	0.578
270.63	0.575
270.84	0.573
271.05	0.570
271.26	0.568
271.48	0.570
271.69	0.583
271.90	0.578
272.11	0.574
272.32	0.581
272.54	0.573
272.75	0.564
272.96	0.569
273.17	0.552
273.39	0.550
273.60	0.547
273.81	0.556
274.02	0.547
274.23	0.553
274.45	0.555
274.66	0.539
274.87	0.538
275.08	0.533
275.29	0.538
275.51	0.537
275.72	0.525
275.93	0.520
276.14	0.492
276.35	0.490
276.57	0.480
276.78	0.483
276.99	0.479
277.20	0.483
277.41	0.472
277.63	0.452
277.84	0.446
278.05	0.445
278.26	0.438
278.47	0.442
278.69	0.426
278.90	0.421
279.11	0.406
279.32	0.400
279.53	0.385
279.74	0.391
279.96	0.388
280.17	0.382
280.38	0.385
280.59	0.385
280.80	0.382
281.02	0.385
281.23	0.383
281.44	0.382
281.65	0.381
281.86	0.387
282.07	0.378
282.29	0.380
282.50	0.380
282.71	0.371
282.92	0.365
283.13	0.359
283.35	0.355
283.56	0.348
283.77	0.347
283.98	0.345
284.19	0.336
284.40	0.336
284.62	0.330
284.83	0.325
285.04	0.319
285.25	0.314
285.46	0.309
285.67	0.304
285.88	0.304
286.10	0.303
286.31	0.302
286.52	0.303
286.73	0.299
286.94	0.296
287.15	0.290
287.37	0.292
287.58	0.290
287.79	0.287
288.00	0.285
288.21	0.281
288.42	0.274
288.63	0.269
288.85	0.262
289.06	0.256
289.27	0.255
289.48	0.253
289.69	0.249
289.90	0.246
290.11	0.244
290.33	0.239
290.54	0.237
290.75	0.237
290.96	0.234
291.17	0.234
291.38	0.233
291.59	0.230
291.81	0.229
292.02	0.227
292.23	0.226
292.44	0.225
292.65	0.224
292.86	0.221
293.07	0.219
293.28	0.219
293.50	0.216
293.71	0.215
293.92	0.215
294.13	0.212
294.34	0.211
294.55	0.209
294.76	0.209
294.97	0.207
295.19	0.205
295.40	0.204
295.61	0.202
295.82	0.204
296.03	0.203
296.24	0.202
296.45	0.202
296.66	0.202
296.87	0.202
297.09	0.201
297.30	0.200
297.51	0.199
297.72	0.198
297.93	0.198
298.14	0.195
298.35	0.195
298.56	0.195
298.77	0.194
298.99	0.193
299.20	0.193
299.41	0.193
299.62	0.193
299.83	0.193
300.04	0.192
300.25	0.192
300.46	0.191
300.67	0.190
300.88	0.188
301.10	0.188
301.31	0.186
301.52	0.185
301.73	0.184
301.94	0.183
302.15	0.183
302.36	0.183
302.57	0.183
302.78	0.182
302.99	0.182
303.20	0.181
303.41	0.180
303.63	0.180
303.84	0.181
304.05	0.179
304.26	0.179
304.47	0.178
304.68	0.177
304.89	0.176
305.10	0.177
305.31	0.175
305.52	0.174
305.73	0.174
305.94	0.173
306.15	0.172
306.37	0.172
306.58	0.170
306.79	0.171
307.00	0.170
307.21	0.170
307.42	0.168
307.63	0.169
307.84	0.169
308.05	0.168
308.26	0.168
308.47	0.168
308.68	0.167
308.89	0.168
309.10	0.167
309.31	0.167
309.52	0.166
309.73	0.166
309.95	0.165
310.16	0.164
310.37	0.164
310.58	0.163
310.79	0.162
311.00	0.162
311.21	0.162
311.42	0.163
311.63	0.161
311.84	0.161
312.05	0.160
312.26	0.159
312.47	0.159
312.68	0.159
312.89	0.158
313.10	0.158
313.31	0.158
313.52	0.157
313.73	0.155
313.94	0.156
314.15	0.156
314.36	0.157
314.57	0.157
314.78	0.157
314.99	0.157
315.21	0.157
315.42	0.156
315.63	0.156
315.84	0.156
316.05	0.157
316.26	0.156
316.47	0.155
316.68	0.156
316.89	0.155
317.10	0.155
317.31	0.155
317.52	0.155
317.73	0.155
317.94	0.155
318.15	0.156
318.36	0.156
318.57	0.157
318.78	0.158
318.99	0.156
319.20	0.156
319.41	0.156
319.62	0.156
319.83	0.156
320.04	0.155
320.25	0.156
320.46	0.154
320.67	0.153
320.88	0.152
321.09	0.151
321.30	0.151
321.51	0.150
321.72	0.150
321.93	0.149
322.14	0.148
322.35	0.147
322.56	0.147
322.77	0.147
322.98	0.146
323.19	0.146
323.40	0.145
323.61	0.145
323.82	0.144
324.03	0.144
324.24	0.144
324.45	0.144
324.66	0.145
324.87	0.144
325.08	0.144
325.29	0.144
325.50	0.145
325.71	0.145
325.92	0.145
326.13	0.145
326.34	0.144
326.55	0.145
326.76	0.144
326.97	0.144
327.18	0.144
327.39	0.144
327.60	0.144
327.80	0.143
328.01	0.143
328.22	0.143
328.43	0.143
328.64	0.143
328.85	0.142
329.06	0.142
329.27	0.142
329.48	0.141
329.69	0.141
329.90	0.141
330.11	0.141
330.32	0.141
330.53	0.141
330.74	0.141
330.95	0.141
331.16	0.141
331.37	0.141
331.58	0.141
331.79	0.141
332.00	0.140
332.21	0.140
332.42	0.140
332.63	0.140
332.83	0.140
333.04	0.140
333.25	0.139
333.46	0.139
333.67	0.139
333.88	0.139
334.09	0.138
334.30	0.138
334.51	0.138
334.72	0.138
334.93	0.137
335.14	0.137
335.35	0.136
335.56	0.137
335.77	0.136
335.98	0.136
336.18	0.135
336.39	0.135
336.60	0.135
336.81	0.135
337.02	0.135
337.23	0.134
337.44	0.134
337.65	0.134
337.86	0.133
338.07	0.133
338.28	0.133
338.49	0.133
338.70	0.134
338.91	0.133
339.11	0.133
339.32	0.132
339.53	0.133
339.74	0.133
339.95	0.133
340.16	0.133
340.37	0.133
340.58	0.133
340.79	0.133
341.00	0.133
341.21	0.133
341.41	0.132
341.62	0.132
341.83	0.132
342.04	0.132
342.25	0.131
342.46	0.130
342.67	0.130
342.88	0.130
343.09	0.129
343.30	0.129
343.50	0.129
343.71	0.129
343.92	0.129
344.13	0.128
344.34	0.128
344.55	0.128
344.76	0.128
344.97	0.128
345.18	0.127
345.38	0.127
345.59	0.127
345.80	0.127
346.01	0.127
346.22	0.127
346.43	0.127
346.64	0.127
346.85	0.127
347.06	0.127
347.26	0.127
347.47	0.126
347.68	0.127
347.89	0.126
348.10	0.127
348.31	0.126
348.52	0.125
348.73	0.125
348.93	0.125
349.14	0.126
349.35	0.126
349.56	0.126
349.77	0.126
349.98	0.126
350.19	0.126
350.39	0.126
350.60	0.127
350.81	0.126
351.02	0.126
351.23	0.126
351.44	0.126
351.65	0.126
351.86	0.126
352.06	0.125
352.27	0.125
352.48	0.125
352.69	0.125
352.90	0.124
353.11	0.124
353.31	0.124
353.52	0.125
353.73	0.124
353.94	0.123
354.15	0.123
354.36	0.123
354.57	0.123
354.77	0.123
354.98	0.123
355.19	0.122
355.40	0.123
355.61	0.122
355.82	0.122
356.02	0.122
356.23	0.122
356.44	0.122
356.65	0.122
356.86	0.121
357.07	0.121
357.27	0.121
357.48	0.121
357.69	0.121
357.90	0.121
358.11	0.121
358.32	0.121
358.52	0.120
358.73	0.120
358.94	0.120
359.15	0.120
359.36	0.120
359.56	0.120
359.77	0.120
359.98	0.120
360.19	0.119
360.40	0.120
360.61	0.120
360.81	0.120
361.02	0.120
361.23	0.120
361.44	0.120
361.65	0.120
361.85	0.120
362.06	0.120
362.27	0.119
362.48	0.119
362.69	0.119
362.89	0.119
363.10	0.119
363.31	0.120
363.52	0.120
363.73	0.119
363.93	0.119
364.14	0.119
364.35	0.119
364.56	0.120
364.77	0.119
364.97	0.119
365.18	0.119
365.39	0.118
365.60	0.118
365.81	0.118
366.01	0.117
366.22	0.117
366.43	0.117
366.64	0.117
366.84	0.116
367.05	0.116
367.26	0.115
367.47	0.116
367.68	0.116
367.88	0.116
368.09	0.116
368.30	0.116
368.51	0.115
368.71	0.115
368.92	0.115
369.13	0.115
369.34	0.115
369.55	0.116
369.75	0.115
369.96	0.115
370.17	0.115
370.38	0.115
370.58	0.115
370.79	0.115
371.00	0.115
371.21	0.116
371.41	0.115
371.62	0.115
371.83	0.115
372.04	0.114
372.24	0.115
372.45	0.114
372.66	0.114
372.87	0.115
373.07	0.115
373.28	0.115
373.49	0.114
373.70	0.114
373.90	0.114
374.11	0.113
374.32	0.114
374.53	0.113
374.73	0.113
374.94	0.113
375.15	0.112
375.36	0.112
375.56	0.112
375.77	0.112
375.98	0.112
376.19	0.112
376.39	0.112
376.60	0.112
376.81	0.112
377.02	0.112
377.22	0.112
377.43	0.112
377.64	0.112
377.84	0.113
378.05	0.112
378.26	0.112
378.47	0.112
378.67	0.111
378.88	0.111
379.09	0.111
379.30	0.111
379.50	0.111
379.71	0.110
379.92	0.110
380.12	0.109
380.33	0.110
380.54	0.109
380.75	0.109
380.95	0.109
381.16	0.109
381.37	0.109
381.57	0.109
381.78	0.109
381.99	0.109
382.20	0.109
382.40	0.110
382.61	0.109
382.82	0.109
383.02	0.109
383.23	0.109
383.44	0.109
383.64	0.109
383.85	0.109
384.06	0.108
384.27	0.108
384.47	0.108
384.68	0.108
384.89	0.108
385.09	0.108
385.30	0.108
385.51	0.108
385.71	0.108
385.92	0.107
386.13	0.107
386.33	0.107
386.54	0.108
386.75	0.107
386.95	0.107
387.16	0.107
387.37	0.107
387.58	0.106
387.78	0.106
387.99	0.106
388.20	0.106
388.40	0.106
388.61	0.105
388.82	0.105
389.02	0.105
389.23	0.105
389.44	0.105
389.64	0.105
389.85	0.104
390.06	0.104
390.26	0.103
390.47	0.104
390.68	0.103
390.88	0.103
391.09	0.103
391.30	0.103
391.50	0.102
391.71	0.102
391.92	0.102
392.12	0.102
392.33	0.102
392.53	0.102
392.74	0.102
392.95	0.101
393.15	0.101
393.36	0.101
393.57	0.102
393.77	0.101
393.98	0.101
394.19	0.102
394.39	0.101
394.60	0.101
394.81	0.101
395.01	0.102
395.22	0.102
395.43	0.101
395.63	0.101
395.84	0.101
396.04	0.101
396.25	0.100
396.46	0.100
396.66	0.100
396.87	0.100
397.08	0.100
397.28	0.099
397.49	0.099
397.69	0.099
397.90	0.099
398.11	0.099
398.31	0.099
398.52	0.099
398.73	0.099
398.93	0.099
399.14	0.098
399.34	0.099
399.55	0.099
399.76	0.098
399.96	0.098
400.17	0.098
400.37	0.098
400.58	0.098
400.79	0.097
400.99	0.097
401.20	0.097
401.41	0.097
401.61	0.097
401.82	0.097
402.02	0.097
402.23	0.097
402.44	0.097
402.64	0.096
402.85	0.097
403.05	0.097
403.26	0.097
403.47	0.097
403.67	0.096
403.88	0.096
404.08	0.096
404.29	0.096
404.50	0.096
404.70	0.096
404.91	0.096
405.11	0.095
405.32	0.095
405.52	0.095
405.73	0.095
405.94	0.095
406.14	0.094
406.35	0.094
406.55	0.094
406.76	0.094
406.97	0.094
407.17	0.094
407.38	0.094
407.58	0.094
407.79	0.094
407.99	0.093
408.20	0.093
408.41	0.094
408.61	0.093
408.82	0.093
409.02	0.093
409.23	0.093
409.43	0.093
409.64	0.093
409.84	0.093
410.05	0.093
410.26	0.093
410.46	0.093
410.67	0.093
410.87	0.093
411.08	0.093
411.28	0.093
411.49	0.093
411.69	0.093
411.90	0.093
412.11	0.093
412.31	0.093
412.52	0.093
412.72	0.093
412.93	0.093
413.13	0.093
413.34	0.093
413.54	0.093
413.75	0.093
413.95	0.093
414.16	0.093
414.37	0.092
414.57	0.092
414.78	0.092
414.98	0.092
415.19	0.092
415.39	0.092
415.60	0.092
415.80	0.092
416.01	0.092
416.21	0.091
416.42	0.091
416.62	0.091
416.83	0.091
417.03	0.091
417.24	0.091
417.44	0.091
417.65	0.090
417.86	0.091
418.06	0.091
418.27	0.091
418.47	0.091
418.68	0.091
418.88	0.091
419.09	0.091
419.29	0.091
419.50	0.091
419.70	0.091
419.91	0.091
420.11	0.091
420.32	0.090
420.52	0.090
420.73	0.091
420.93	0.090
421.14	0.090
421.34	0.090
421.55	0.090
421.75	0.090
421.96	0.090
422.16	0.089
422.37	0.089
422.57	0.089
422.78	0.089
422.98	0.089
423.19	0.089
423.39	0.089
423.60	0.089
423.80	0.089
424.01	0.089
424.21	0.089
424.42	0.089
424.62	0.089
424.83	0.089
425.03	0.089
425.23	0.089
425.44	0.089
425.64	0.089
425.85	0.089
426.05	0.089
426.26	0.089
426.46	0.089
426.67	0.089
426.87	0.089
427.08	0.089
427.28	0.088
427.49	0.088
427.69	0.088
427.90	0.088
428.10	0.089
428.31	0.088
428.51	0.089
428.71	0.089
428.92	0.089
429.12	0.089
429.33	0.089
429.53	0.089
429.74	0.089
429.94	0.089
430.15	0.089
430.35	0.088
430.56	0.088
430.76	0.089
430.96	0.088
431.17	0.088
431.37	0.088
431.58	0.088
431.78	0.088
431.99	0.088
432.19	0.088
432.40	0.088
432.60	0.088
432.80	0.089
433.01	0.089
433.21	0.089
433.42	0.089
433.62	0.090
433.83	0.090
434.03	0.090
434.23	0.090
434.44	0.090
434.64	0.090
434.85	0.090
435.05	0.090
435.26	0.090
435.46	0.089
435.66	0.089
435.87	0.089
436.07	0.089
436.28	0.089
436.48	0.090
436.69	0.089
436.89	0.090
437.09	0.090
437.30	0.090
437.50	0.089
437.71	0.090
437.91	0.090
438.11	0.090
438.32	0.090
438.52	0.089
438.73	0.089
438.93	0.089
439.13	0.089
439.34	0.089
439.54	0.089
439.75	0.090
439.95	0.090
440.15	0.090
440.36	0.089
440.56	0.089
440.77	0.089
440.97	0.089
441.17	0.089
441.38	0.089
441.58	0.089
441.79	0.089
441.99	0.088
442.19	0.088
442.40	0.089
442.60	0.089
442.81	0.088
443.01	0.089
443.21	0.089
443.42	0.089
443.62	0.088
443.82	0.089
444.03	0.089
444.23	0.089
444.44	0.089
444.64	0.089
444.84	0.089
445.05	0.089
445.25	0.089
445.45	0.089
445.66	0.089
445.86	0.089
446.06	0.089
446.27	0.089
446.47	0.089
446.68	0.089
446.88	0.089
447.08	0.089
447.29	0.089
447.49	0.089
447.69	0.089
447.90	0.089
448.10	0.089
448.30	0.089
448.51	0.089
448.71	0.089
448.91	0.089
449.12	0.089
449.32	0.089
449.52	0.089
449.73	0.088
449.93	0.088
450.14	0.088
450.34	0.088
450.54	0.088
450.75	0.088
450.95	0.088
451.15	0.088
451.36	0.088
451.56	0.088
451.76	0.088
451.97	0.089
452.17	0.089
452.37	0.089
452.58	0.089
452.78	0.090
452.98	0.090
453.19	0.090
453.39	0.090
453.59	0.090
453.79	0.090
454.00	0.090
454.20	0.090
454.40	0.090
454.61	0.090
454.81	0.090
455.01	0.090
455.22	0.089
455.42	0.089
455.62	0.089
455.83	0.089
456.03	0.089
456.23	0.089
456.44	0.089
456.64	0.090
456.84	0.089
457.04	0.090
457.25	0.090
457.45	0.090
457.65	0.090
457.86	0.090
458.06	0.090
458.26	0.090
458.47	0.090
458.67	0.090
458.87	0.090
459.07	0.090
459.28	0.089
459.48	0.090
459.68	0.089
459.89	0.089
460.09	0.089
460.29	0.089
460.49	0.089
460.70	0.089
460.90	0.089
461.10	0.089
461.31	0.089
461.51	0.090
461.71	0.090
461.91	0.090
462.12	0.090
462.32	0.090
462.52	0.090
462.72	0.090
462.93	0.089
463.13	0.090
463.33	0.090
463.53	0.089
463.74	0.089
463.94	0.089
464.14	0.089
464.35	0.090
464.55	0.090
464.75	0.090
464.95	0.089
465.16	0.089
465.36	0.089
465.56	0.090
465.76	0.090
465.97	0.090
466.17	0.089
466.37	0.089
466.57	0.088
466.78	0.089
466.98	0.088
467.18	0.088
467.38	0.088
467.59	0.088
467.79	0.088
467.99	0.088
468.19	0.088
468.39	0.088
468.60	0.088
468.80	0.089
469.00	0.089
469.20	0.089
469.41	0.089
469.61	0.089
469.81	0.089
470.01	0.089
470.22	0.089
470.42	0.090
470.62	0.089
470.82	0.090
471.02	0.089
471.23	0.089
471.43	0.089
471.63	0.089
471.83	0.089
472.04	0.089
472.24	0.089
472.44	0.089
472.64	0.089
472.84	0.089
473.05	0.089
473.25	0.089
473.45	0.088
473.65	0.088
473.85	0.088
474.06	0.088
474.26	0.088
474.46	0.087
474.66	0.087
474.86	0.087
475.07	0.087
475.27	0.087
475.47	0.087
475.67	0.087
475.87	0.087
476.08	0.087
476.28	0.087
476.48	0.087
476.68	0.088
476.88	0.087
477.09	0.087
477.29	0.087
477.49	0.087
477.69	0.087
477.89	0.087
478.09	0.087
478.30	0.087
478.50	0.087
478.70	0.086
478.90	0.087
479.10	0.087
479.31	0.087
479.51	0.087
479.71	0.086
479.91	0.086
480.11	0.086
480.31	0.086
480.52	0.086
480.72	0.086
480.92	0.086
481.12	0.086
481.32	0.086
481.52	0.085
481.72	0.086
481.93	0.086
482.13	0.086
482.33	0.086
482.53	0.086
482.73	0.086
482.93	0.086
483.14	0.086
483.34	0.085
483.54	0.085
483.74	0.085
483.94	0.085
484.14	0.085
484.34	0.084
484.55	0.084
484.75	0.084
484.95	0.083
485.15	0.083
485.35	0.083
485.55	0.083
485.75	0.083
485.96	0.083
486.16	0.083
486.36	0.083
486.56	0.083
486.76	0.083
486.96	0.083
487.16	0.083
487.36	0.084
487.57	0.084
487.77	0.084
487.97	0.084
488.17	0.084
488.37	0.084
488.57	0.084
488.77	0.084
488.97	0.084
489.18	0.083
489.38	0.083
489.58	0.083
489.78	0.084
489.98	0.084
490.18	0.084
490.38	0.084
490.58	0.084
490.78	0.085
490.98	0.085
491.19	0.085
491.39	0.085
491.59	0.085
491.79	0.085
491.99	0.085
492.19	0.085
492.39	0.085
492.59	0.085
492.79	0.085
492.99	0.085
493.20	0.084
493.40	0.084
493.60	0.084
493.80	0.083
494.00	0.084
494.20	0.083
494.40	0.083
494.60	0.083
494.80	0.083
495.00	0.083
495.20	0.083
495.40	0.083
495.61	0.083
495.81	0.083
496.01	0.083
496.21	0.083
496.41	0.083
496.61	0.083
496.81	0.083
497.01	0.084
497.21	0.084
497.41	0.084
497.61	0.084
497.81	0.084
498.01	0.084
498.21	0.084
498.41	0.084
498.61	0.084
498.82	0.084
499.02	0.085
499.22	0.085
499.42	0.085
499.62	0.085
499.82	0.085
500.02	0.085
500.22	0.085
500.42	0.085
500.62	0.085
500.82	0.085
501.02	0.085
501.22	0.085
501.42	0.085
501.62	0.084
501.82	0.084
502.02	0.084
502.22	0.084
502.42	0.084
502.62	0.084
502.82	0.084
503.02	0.084
503.22	0.084
503.42	0.084
503.63	0.084
503.83	0.084
504.03	0.085
504.23	0.085
504.43	0.085
504.63	0.085
504.83	0.085
505.03	0.085
505.23	0.085
505.43	0.085
505.63	0.085
505.83	0.085
506.03	0.085
506.23	0.085
506.43	0.085
506.63	0.085
506.83	0.085
507.03	0.085
507.23	0.085
507.43	0.085
507.63	0.085
507.83	0.086
508.03	0.086
508.23	0.086
508.43	0.086
508.63	0.087
508.83	0.086
509.03	0.087
509.23	0.087
509.43	0.087
509.63	0.087
509.83	0.087
510.03	0.087
510.23	0.087
510.43	0.087
510.63	0.086
510.83	0.087
511.03	0.087
511.23	0.087
511.43	0.087
511.63	0.087
511.83	0.087
512.03	0.087
512.22	0.087
512.42	0.087
512.62	0.088
512.82	0.088
513.02	0.088
513.22	0.088
513.42	0.088
513.62	0.088
513.82	0.088
514.02	0.088
514.22	0.089
514.42	0.089
514.62	0.089
514.82	0.088
515.02	0.088
515.22	0.088
515.42	0.088
515.62	0.088
515.82	0.089
516.02	0.089
516.22	0.089
516.42	0.088
516.62	0.088
516.82	0.088
517.01	0.088
517.21	0.089
517.41	0.089
517.61	0.089
517.81	0.089
518.01	0.088
518.21	0.088
518.41	0.089
518.61	0.089
518.81	0.089
519.01	0.089
519.21	0.089
519.41	0.089
519.61	0.089
519.81	0.089
520.00	0.089
520.20	0.090
520.40	0.090
520.60	0.090
520.80	0.089
521.00	0.089
521.20	0.090
521.40	0.089
521.60	0.090
521.80	0.090
522.00	0.090
522.20	0.089
522.39	0.089
522.59	0.089
522.79	0.090
522.99	0.090
523.19	0.090
523.39	0.091
523.59	0.091
523.79	0.090
523.99	0.090
524.19	0.090
524.38	0.090
524.58	0.091
524.78	0.091
524.98	0.091
525.18	0.091
525.38	0.091
525.58	0.090
525.78	0.090
525.98	0.090
526.18	0.091
526.37	0.091
526.57	0.091
526.77	0.091
526.97	0.091
527.17	0.090
527.37	0.090
527.57	0.090
527.77	0.090
527.96	0.090
528.16	0.091
528.36	0.091
528.56	0.091
528.76	0.091
528.96	0.091
529.16	0.091
529.36	0.091
529.55	0.091
529.75	0.092
529.95	0.092
530.15	0.092
530.35	0.092
530.55	0.092
530.75	0.092
530.94	0.092
531.14	0.092
531.34	0.092
531.54	0.092
531.74	0.092
531.94	0.091
532.13	0.091
532.33	0.091
532.53	0.091
532.73	0.091
532.93	0.091
533.13	0.091
533.33	0.091
533.52	0.091
533.72	0.091
533.92	0.091
534.12	0.092
534.32	0.092
534.52	0.091
534.71	0.092
534.91	0.092
535.11	0.092
535.31	0.092
535.51	0.092
535.71	0.092
535.90	0.092
536.10	0.092
536.30	0.092
536.50	0.092
536.70	0.092
536.89	0.092
537.09	0.092
537.29	0.092
537.49	0.092
537.69	0.092
537.89	0.092
538.08	0.092
538.28	0.092
538.48	0.092
538.68	0.092
538.88	0.092
539.07	0.092
539.27	0.093
539.47	0.093
539.67	0.093
539.87	0.093
540.06	0.093
540.26	0.093
540.46	0.093
540.66	0.093
540.86	0.093
541.05	0.094
541.25	0.094
541.45	0.093
541.65	0.093
541.84	0.093
542.04	0.093
542.24	0.093
542.44	0.093
542.64	0.094
542.83	0.093
543.03	0.093
543.23	0.093
543.43	0.094
543.62	0.094
543.82	0.094
544.02	0.094
544.22	0.094
544.42	0.094
544.61	0.095
544.81	0.094
545.01	0.095
545.21	0.095
545.40	0.094
545.60	0.094
545.80	0.094
546.00	0.093
546.19	0.093
546.39	0.093
546.59	0.093
546.79	0.093
546.98	0.093
547.18	0.092
547.38	0.092
547.58	0.092
547.77	0.092
547.97	0.093
548.17	0.093
548.37	0.093
548.56	0.094
548.76	0.094
548.96	0.094
549.16	0.094
549.35	0.094
549.55	0.095
549.75	0.095
549.95	0.095
550.14	0.096
550.34	0.095
550.54	0.096
550.73	0.095
550.93	0.096
551.13	0.096
551.33	0.096
551.52	0.096
551.72	0.096
551.92	0.096
552.12	0.096
552.31	0.096
552.51	0.096
552.71	0.096
552.90	0.095
553.10	0.095
553.30	0.094
553.50	0.095
553.69	0.095
553.89	0.095
554.09	0.094
554.28	0.094
554.48	0.095
554.68	0.095
554.87	0.095
555.07	0.095
555.27	0.095
555.47	0.095
555.66	0.096
555.86	0.096
556.06	0.095
556.25	0.096
556.45	0.096
556.65	0.096
556.84	0.097
557.04	0.097
557.24	0.097
557.43	0.097
557.63	0.097
557.83	0.098
558.02	0.098
558.22	0.098
558.42	0.098
558.61	0.098
558.81	0.098
559.01	0.098
559.21	0.098
559.40	0.098
559.60	0.098
559.80	0.098
559.99	0.098
560.19	0.098
560.39	0.098
560.58	0.097
560.78	0.097
560.97	0.097
561.17	0.097
561.37	0.097
561.56	0.096
561.76	0.096
561.96	0.097
562.15	0.096
562.35	0.096
562.55	0.096
562.74	0.096
562.94	0.096
563.14	0.096
563.33	0.096
563.53	0.096
563.73	0.096
563.92	0.096
564.12	0.096
564.31	0.096
564.51	0.097
564.71	0.097
564.90	0.097
565.10	0.097
565.30	0.097
565.49	0.097
565.69	0.097
565.89	0.097
566.08	0.098
566.28	0.097
566.47	0.097
566.67	0.097
566.87	0.098
567.06	0.097
567.26	0.097
567.46	0.098
567.65	0.098
567.85	0.097
568.04	0.097
568.24	0.096
568.44	0.096
568.63	0.096
568.83	0.095
569.02	0.095
569.22	0.095
569.42	0.095
569.61	0.094
569.81	0.094
570.00	0.093
570.20	0.092
570.40	0.092
570.59	0.092
570.79	0.092
570.98	0.091
571.18	0.091
571.38	0.091
571.57	0.090
571.77	0.090
571.96	0.090
572.16	0.090
572.35	0.090
572.55	0.090
572.75	0.090
572.94	0.090
573.14	0.089
573.33	0.089
573.53	0.089
573.73	0.089
573.92	0.089
574.12	0.089
574.31	0.089
574.51	0.089
574.70	0.089
574.90	0.088
575.09	0.088
575.29	0.088
575.49	0.088
575.68	0.088
575.88	0.088
576.07	0.088
576.27	0.088
576.46	0.088
576.66	0.088
576.86	0.088
577.05	0.088
577.25	0.088
577.44	0.088
577.64	0.088
577.83	0.088
578.03	0.088
578.22	0.088
578.42	0.088
578.61	0.087
578.81	0.087
579.00	0.087
579.20	0.087
579.40	0.086
579.59	0.087
579.79	0.086
579.98	0.086
580.18	0.086
580.37	0.086
580.57	0.086
580.76	0.086
580.96	0.086
581.15	0.086
581.35	0.086
581.54	0.086
581.74	0.086
581.93	0.086
582.13	0.086
582.32	0.086
582.52	0.086
582.71	0.086
582.91	0.086
583.10	0.086
583.30	0.086
583.49	0.086
583.69	0.087
583.88	0.087
584.08	0.087
584.27	0.087
584.47	0.087
584.66	0.087
584.86	0.087
585.05	0.087
585.25	0.087
585.44	0.088
585.64	0.087
585.83	0.088
586.03	0.088
586.22	0.088
586.42	0.088
586.61	0.088
586.81	0.088
587.00	0.088
587.20	0.088
587.39	0.088
587.59	0.088
587.78	0.089
587.98	0.089
588.17	0.089
588.37	0.089
588.56	0.089
588.76	0.090
588.95	0.090
589.15	0.090
589.34	0.090
589.54	0.091
589.73	0.091
589.92	0.091
590.12	0.091
590.31	0.091
590.51	0.091
590.70	0.092
590.90	0.091
591.09	0.092
591.29	0.091
591.48	0.092
591.68	0.091
591.87	0.091
592.06	0.091
592.26	0.091
592.45	0.091
592.65	0.091
592.84	0.090
593.04	0.091
593.23	0.091
593.43	0.091
593.62	0.090
593.81	0.090
594.01	0.090
594.20	0.090
594.40	0.091
594.59	0.091
594.79	0.091
594.98	0.091
595.17	0.091
595.37	0.092
595.56	0.092
595.76	0.093
595.95	0.093
596.14	0.093
596.34	0.093
596.53	0.093
596.73	0.093
596.92	0.093
597.12	0.092
597.31	0.092
597.50	0.092
597.70	0.091
597.89	0.091
598.09	0.091
598.28	0.090
598.47	0.090
598.67	0.090
598.86	0.090
599.06	0.089
599.25	0.089
599.44	0.089
599.64	0.089
599.83	0.089
600.03	0.089
600.22	0.089
600.41	0.089
600.61	0.089
600.80	0.089
601.00	0.089
601.19	0.090
601.38	0.090
601.58	0.090
601.77	0.091
601.96	0.091
602.16	0.091
602.35	0.091
602.55	0.091
602.74	0.092
602.93	0.092
603.13	0.092
603.32	0.093
603.51	0.093
603.71	0.093
603.90	0.093
604.09	0.093
604.29	0.092
604.48	0.092
604.68	0.092
604.87	0.092
605.06	0.092
605.26	0.092
605.45	0.091
605.64	0.091
605.84	0.091
606.03	0.091
606.22	0.091
606.42	0.091
606.61	0.091
606.80	0.092
607.00	0.092
607.19	0.092
607.38	0.092
607.58	0.092
607.77	0.092
607.96	0.092
608.16	0.092
608.35	0.092
608.54	0.093
608.74	0.093
608.93	0.093
609.12	0.093
609.32	0.094
609.51	0.094
609.70	0.095
609.90	0.095
610.09	0.096
610.28	0.096
610.48	0.097
610.67	0.097
610.86	0.097
611.06	0.098
611.25	0.098
611.44	0.098
611.64	0.098
611.83	0.098
612.02	0.098
612.21	0.097
612.41	0.097
612.60	0.097
612.79	0.097
612.99	0.097
613.18	0.097
613.37	0.097
613.57	0.097
613.76	0.097
613.95	0.097
614.14	0.097
614.34	0.097
614.53	0.097
614.72	0.097
614.92	0.097
615.11	0.097
615.30	0.097
615.49	0.097
615.69	0.097
615.88	0.098
616.07	0.098
616.26	0.098
616.46	0.099
616.65	0.099
616.84	0.099
617.04	0.099
617.23	0.100
617.42	0.100
617.61	0.101
617.81	0.101
618.00	0.101
618.19	0.101
618.38	0.101
618.58	0.102
618.77	0.102
618.96	0.102
619.15	0.102
619.35	0.103
619.54	0.103
619.73	0.102
619.92	0.103
620.12	0.103
620.31	0.103
620.50	0.103
620.69	0.103
620.89	0.103
621.08	0.104
621.27	0.103
621.46	0.104
621.66	0.103
621.85	0.103
622.04	0.103
622.23	0.103
622.43	0.103
622.62	0.103
622.81	0.102
623.00	0.102
623.19	0.102
623.39	0.102
623.58	0.102
623.77	0.103
623.96	0.103
624.16	0.103
624.35	0.103
624.54	0.103
624.73	0.103
624.92	0.103
625.12	0.103
625.31	0.103
625.50	0.103
625.69	0.103
625.88	0.103
626.08	0.103
626.27	0.104
626.46	0.104
626.65	0.104
626.84	0.104
627.04	0.104
627.23	0.105
627.42	0.105
627.61	0.105
627.80	0.105
628.00	0.105
628.19	0.105
628.38	0.105
628.57	0.105
628.76	0.105
628.96	0.105
629.15	0.105
629.34	0.106
629.53	0.106
629.72	0.107
629.91	0.107
630.11	0.107
630.30	0.108
630.49	0.108
630.68	0.108
630.87	0.109
631.06	0.109
631.26	0.110
631.45	0.110
631.64	0.110
631.83	0.110
632.02	0.111
632.21	0.111
632.41	0.112
632.60	0.112
632.79	0.112
632.98	0.112
633.17	0.112
633.36	0.113
633.55	0.113
633.75	0.113
633.94	0.114
634.13	0.113
634.32	0.114
634.51	0.114
634.70	0.114
634.89	0.114
635.09	0.114
635.28	0.114
635.47	0.114
635.66	0.113
635.85	0.113
636.04	0.113
636.23	0.113
636.43	0.112
636.62	0.112
636.81	0.112
637.00	0.112
637.19	0.111
637.38	0.112
637.57	0.112
637.76	0.112
637.95	0.112
638.15	0.112
638.34	0.112
638.53	0.112
638.72	0.112
638.91	0.113
639.10	0.113
639.29	0.114
639.48	0.113
639.67	0.113
639.87	0.113
640.06	0.113
640.25	0.113
640.44	0.113
640.63	0.113
640.82	0.114
641.01	0.114
641.20	0.114
641.39	0.114
641.58	0.114
641.78	0.115
641.97	0.115
642.16	0.115
642.35	0.115
642.54	0.116
642.73	0.116
642.92	0.115
643.11	0.115
643.30	0.115
643.49	0.115
643.68	0.114
643.87	0.114
644.06	0.114
644.25	0.115
644.45	0.115
644.64	0.116
644.83	0.115
645.02	0.115
645.21	0.116
645.40	0.116
645.59	0.116
645.78	0.116
645.97	0.116
646.16	0.115
646.35	0.114
646.54	0.113
646.73	0.113
646.92	0.112
647.11	0.112
647.30	0.111
647.49	0.110
647.68	0.110
647.88	0.109
648.07	0.109
648.26	0.109
648.45	0.109
648.64	0.108
648.83	0.108
649.02	0.108
649.21	0.107
649.40	0.107
649.59	0.108
649.78	0.108
649.97	0.108
650.16	0.107
650.35	0.107
650.54	0.107
650.73	0.107
650.92	0.107
651.11	0.107
651.30	0.107
651.49	0.107
651.68	0.106
651.87	0.106
652.06	0.107
652.25	0.107
652.44	0.108
652.63	0.107
652.82	0.106
653.01	0.105
653.20	0.103
653.39	0.102
653.58	0.101
653.77	0.099
653.96	0.098
654.15	0.096
654.34	0.095
654.53	0.094
654.72	0.092
654.91	0.092
655.10	0.091
655.29	0.090
655.48	0.090
655.67	0.089
655.86	0.089
656.05	0.089
656.24	0.088
656.43	0.088
656.62	0.087
656.81	0.087
657.00	0.087
657.19	0.087
657.38	0.088
657.57	0.088
657.76	0.089
657.95	0.090
658.14	0.091
658.33	0.093
658.51	0.095
658.70	0.096
658.89	0.098
659.08	0.100
659.27	0.101
659.46	0.102
659.65	0.103
659.84	0.105
660.03	0.106
660.22	0.107
660.41	0.106
660.60	0.107
660.79	0.107
660.98	0.107
661.17	0.108
661.36	0.108
661.55	0.108
661.74	0.108
661.92	0.108
662.11	0.108
662.30	0.107
662.49	0.108
662.68	0.107
662.87	0.107
663.06	0.107
663.25	0.107
663.44	0.106
663.63	0.107
663.82	0.107
664.01	0.107
664.20	0.107
664.38	0.107
664.57	0.107
664.76	0.107
664.95	0.107
665.14	0.107
665.33	0.107
665.52	0.107
665.71	0.106
665.90	0.106
666.09	0.106
666.28	0.106
666.46	0.107
666.65	0.108
666.84	0.108
667.03	0.108
667.22	0.108
667.41	0.108
667.60	0.107
667.79	0.108
667.98	0.107
668.16	0.107
668.35	0.106
668.54	0.105
668.73	0.104
668.92	0.103
669.11	0.103
669.30	0.103
669.49	0.103
669.67	0.103
669.86	0.102
670.05	0.102
670.24	0.101
670.43	0.101
670.62	0.100
670.81	0.100
671.00	0.100
671.18	0.099
671.37	0.099
671.56	0.098
671.75	0.098
671.94	0.098
672.13	0.098
672.32	0.098
672.50	0.098
672.69	0.098
672.88	0.098
673.07	0.098
673.26	0.098
673.45	0.098
673.63	0.098
673.82	0.098
674.01	0.098
674.20	0.098
674.39	0.098
674.58	0.098
674.76	0.099
674.95	0.099
675.14	0.099
675.33	0.099
675.52	0.098
675.71	0.098
675.89	0.098
676.08	0.098
676.27	0.098
676.46	0.097
676.65	0.097
676.84	0.096
677.02	0.096
677.21	0.095
677.40	0.096
677.59	0.096
677.78	0.095
677.96	0.095
678.15	0.095
678.34	0.096
678.53	0.095
678.72	0.094
678.90	0.094
679.09	0.094
679.28	0.094
679.47	0.094
679.66	0.094
679.84	0.094
680.03	0.094
680.22	0.094
680.41	0.093
680.60	0.094
680.78	0.094
680.97	0.094
681.16	0.094
681.35	0.094
681.53	0.094
681.72	0.094
681.91	0.093
682.10	0.093
682.29	0.093
682.47	0.092
682.66	0.092
682.85	0.092
683.04	0.091
683.22	0.091
683.41	0.091
683.60	0.091
683.79	0.090
683.97	0.090
684.16	0.090
684.35	0.090
684.54	0.090
684.72	0.089
684.91	0.089
685.10	0.089
685.29	0.089
685.47	0.089
685.66	0.088
685.85	0.089
686.04	0.089
686.22	0.088
686.41	0.088
686.60	0.088
686.79	0.088
686.97	0.088
687.16	0.088
687.35	0.088
687.54	0.088
687.72	0.088
687.91	0.088
688.10	0.088
688.29	0.088
688.47	0.088
688.66	0.089
688.85	0.089
689.03	0.089
689.22	0.089
689.41	0.088
689.60	0.089
689.78	0.089
689.97	0.089
690.16	0.088
690.34	0.089
690.53	0.088
690.72	0.088
690.91	0.088
691.09	0.088
691.28	0.088
691.47	0.089
691.65	0.089
691.84	0.089
692.03	0.089
692.21	0.089
692.40	0.089
692.59	0.089
692.77	0.089
692.96	0.089
693.15	0.088
693.34	0.088
693.52	0.088
693.71	0.087
693.90	0.087
694.08	0.086
694.27	0.087
694.46	0.086
694.64	0.086
694.83	0.087
695.02	0.087
695.20	0.087
695.39	0.087
695.58	0.087
695.76	0.087
695.95	0.086
696.14	0.087
696.32	0.086
696.51	0.086
696.70	0.086
696.88	0.085
697.07	0.085
697.26	0.084
697.44	0.084
697.63	0.084
697.81	0.084
698.00	0.085
698.19	0.085
698.37	0.085
698.56	0.086
698.75	0.086
698.93	0.087
699.12	0.087
699.31	0.087
699.49	0.087
699.68	0.087
699.87	0.087
700.05	0.087
700.24	0.087
700.42	0.087
700.61	0.087
700.80	0.088
700.98	0.087
701.17	0.088
701.36	0.088
701.54	0.088
701.73	0.088
701.91	0.087
702.10	0.087
702.29	0.088
702.47	0.088
702.66	0.088
702.84	0.088
703.03	0.088
703.22	0.088
703.40	0.088
703.59	0.088
703.77	0.088
703.96	0.088
704.15	0.088
704.33	0.088
704.52	0.088
704.70	0.087
704.89	0.087
705.08	0.088
705.26	0.088
705.45	0.087
705.63	0.087
705.82	0.087
706.00	0.087
706.19	0.087
706.38	0.087
706.56	0.087
706.75	0.087
706.93	0.087
707.12	0.086
707.30	0.086
707.49	0.085
707.68	0.085
707.86	0.085
708.05	0.085
708.23	0.085
708.42	0.085
708.60	0.085
708.79	0.084
708.98	0.084
709.16	0.084
709.35	0.085
709.53	0.085
709.72	0.085
709.90	0.085
710.09	0.086
710.27	0.085
710.46	0.086
710.64	0.086
710.83	0.086
711.02	0.087
711.20	0.087
711.39	0.086
711.57	0.086
711.76	0.087
711.94	0.087
712.13	0.087
712.31	0.088
712.50	0.088
712.68	0.088
712.87	0.088
713.05	0.088
713.24	0.088
713.42	0.088
713.61	0.088
713.79	0.088
713.98	0.088
714.16	0.089
714.35	0.089
714.54	0.089
714.72	0.089
714.91	0.090
715.09	0.090
715.28	0.091
715.46	0.091
715.65	0.091
715.83	0.092
716.02	0.092
716.20	0.093
716.39	0.093
716.57	0.093
716.76	0.093
716.94	0.093
717.12	0.094
717.31	0.094
717.49	0.095
717.68	0.095
717.86	0.095
718.05	0.095
718.23	0.095
718.42	0.095
718.60	0.095
718.79	0.095
718.97	0.095
719.16	0.095
719.34	0.095
719.53	0.096
719.71	0.096
719.90	0.097
720.08	0.097
720.27	0.097
720.45	0.098
720.63	0.098
720.82	0.098
721.00	0.099
721.19	0.100
721.37	0.101
721.56	0.100
721.74	0.100
721.93	0.101
722.11	0.101
722.30	0.102
722.48	0.102
722.66	0.103
722.85	0.104
723.03	0.104
723.22	0.104
723.40	0.105
723.59	0.106
723.77	0.106
723.95	0.106
724.14	0.106
724.32	0.106
724.51	0.107
724.69	0.107
724.88	0.108
725.06	0.108
725.24	0.108
725.43	0.109
725.61	0.109
725.80	0.111
725.98	0.112
726.16	0.112
726.35	0.113
726.53	0.113
726.72	0.114
726.90	0.115
727.09	0.115
727.27	0.115
727.45	0.116
727.64	0.115
727.82	0.115
728.01	0.115
728.19	0.117
728.37	0.117
728.56	0.117
728.74	0.118
728.92	0.119
729.11	0.120
729.29	0.121
729.48	0.122
729.66	0.123
729.84	0.125
730.03	0.125
730.21	0.125
730.40	0.127
730.58	0.128
730.76	0.130
730.95	0.130
731.13	0.132
731.31	0.131
731.50	0.131
731.68	0.132
731.86	0.134
732.05	0.134
732.23	0.135
732.42	0.135
732.60	0.135
732.78	0.135
732.97	0.135
733.15	0.135
733.33	0.137
733.52	0.139
733.70	0.139
733.88	0.139
734.07	0.140
734.25	0.141
734.43	0.144
734.62	0.146
734.80	0.148
734.98	0.150
735.17	0.151
735.35	0.152
735.53	0.154
735.72	0.154
735.90	0.156
736.08	0.158
736.27	0.160
736.45	0.160
736.63	0.162
736.82	0.164
737.00	0.165
737.18	0.166
737.37	0.168
737.55	0.168
737.73	0.170
737.92	0.171
738.10	0.175
738.28	0.176
738.46	0.176
738.65	0.177
738.83	0.179
739.01	0.180
739.20	0.183
739.38	0.184
739.56	0.189
739.75	0.191
739.93	0.196
740.11	0.195
740.29	0.196
740.48	0.199
740.66	0.202
740.84	0.204
741.03	0.207
741.21	0.208
741.39	0.213
741.57	0.212
741.76	0.214
741.94	0.214
742.12	0.218
742.31	0.220
742.49	0.222
742.67	0.223
742.85	0.222
743.04	0.225
743.22	0.228
743.40	0.224
743.58	0.228
743.77	0.229
743.95	0.234
744.13	0.231
744.31	0.233
744.50	0.231
744.68	0.231
744.86	0.232
745.04	0.230
745.23	0.231
745.41	0.233
745.59	0.232
745.77	0.236
745.96	0.237
746.14	0.239
746.32	0.243
746.50	0.245
746.69	0.249
746.87	0.253
747.05	0.251
747.23	0.257
747.42	0.259
747.60	0.257
747.78	0.254
747.96	0.249
748.14	0.250
748.33	0.249
748.51	0.247
748.69	0.249
748.87	0.249
749.06	0.252
749.24	0.246
749.42	0.243
749.60	0.245
749.78	0.246
749.97	0.248
750.15	0.252
750.33	0.249
750.51	0.250
750.69	0.245
750.88	0.243
751.06	0.242
751.24	0.242
751.42	0.244
751.60	0.242
751.79	0.239
751.97	0.240
752.15	0.237
752.33	0.237
752.51	0.234
752.69	0.237
752.88	0.236
753.06	0.235
753.24	0.236
753.42	0.234
753.60	0.231
753.78	0.233
753.97	0.228
754.15	0.230
754.33	0.227
754.51	0.230
754.69	0.226
754.87	0.223
755.06	0.223
755.24	0.219
755.42	0.218
755.60	0.220
755.78	0.215
755.96	0.213
756.15	0.209
756.33	0.208
756.51	0.204
756.69	0.205
756.87	0.205
757.05	0.202
757.23	0.203
757.42	0.201
757.60	0.199
757.78	0.201
757.96	0.201
758.14	0.200
758.32	0.199
758.50	0.198
758.69	0.196
758.87	0.197
759.05	0.197
759.23	0.197
759.41	0.196
759.59	0.199
759.77	0.197
759.95	0.198
760.13	0.197
760.32	0.197
760.50	0.199
760.68	0.199
760.86	0.200
761.04	0.200
761.22	0.201
761.40	0.199
761.58	0.196
761.76	0.195
761.95	0.193
762.13	0.194
762.31	0.194
762.49	0.195
762.67	0.193
762.85	0.192
763.03	0.192
763.21	0.192
763.39	0.192
763.57	0.193
763.75	0.194
763.94	0.194
764.12	0.191
764.30	0.191
764.48	0.188
764.66	0.191
764.84	0.189
765.02	0.187
765.20	0.185
765.38	0.187
765.56	0.187
765.74	0.185
765.92	0.185
766.10	0.186
766.28	0.185
766.46	0.186
766.65	0.185
766.83	0.186
767.01	0.186
767.19	0.187
767.37	0.186
767.55	0.187
767.73	0.188
767.91	0.189
768.09	0.191
768.27	0.193
768.45	0.192
768.63	0.192
768.81	0.191
768.99	0.193
769.17	0.192
769.35	0.192
769.53	0.191
769.71	0.191
769.89	0.191
770.07	0.191
770.25	0.193
770.43	0.196
770.61	0.196
770.79	0.196
770.97	0.195
771.15	0.197
771.33	0.197
771.51	0.200
771.69	0.201
771.87	0.201
772.05	0.200
772.24	0.198
772.42	0.196
772.60	0.197
772.78	0.198
772.96	0.199
773.14	0.201
773.32	0.203
773.49	0.201
773.67	0.201
773.85	0.201
774.03	0.203
774.21	0.204
774.39	0.206
774.57	0.206
774.75	0.206
774.93	0.205
775.11	0.203
775.29	0.201
775.47	0.200
775.65	0.201
775.83	0.202
776.01	0.202
776.19	0.203
776.37	0.201
776.55	0.202
776.73	0.201
776.91	0.201
777.09	0.202
777.27	0.205
777.45	0.207
777.63	0.208
777.81	0.206
777.99	0.205
778.17	0.205
778.35	0.205
778.53	0.207
778.71	0.207
778.89	0.206
779.07	0.206
779.24	0.204
779.42	0.200
779.60	0.197
779.78	0.194
779.96	0.192
780.14	0.191
780.32	0.187
780.50	0.186
780.68	0.184
780.86	0.184
781.04	0.182
781.22	0.179
781.40	0.179
781.58	0.180
781.75	0.181
781.93	0.182
782.11	0.181
782.29	0.182
782.47	0.182
782.65	0.183
782.83	0.183
783.01	0.185
783.19	0.185
783.37	0.186
783.55	0.185
783.72	0.186
783.90	0.183
784.08	0.183
784.26	0.185
784.44	0.184
784.62	0.183
784.80	0.183
784.98	0.181
785.16	0.183
785.33	0.183
785.51	0.186
785.69	0.185
785.87	0.188
786.05	0.186
786.23	0.184
786.41	0.184
786.59	0.182
786.77	0.181
786.94	0.180
787.12	0.177
787.30	0.174
787.48	0.170
787.66	0.170
787.84	0.168
788.02	0.169
788.19	0.169
788.37	0.169
788.55	0.168
788.73	0.168
788.91	0.168
789.09	0.169
789.27	0.172
789.44	0.174
789.62	0.172
789.80	0.172
789.98	0.170
790.16	0.170
790.34	0.171
790.51	0.173
790.69	0.173
790.87	0.173
791.05	0.175
791.23	0.173
791.41	0.171
791.58	0.171
791.76	0.172
791.94	0.172
792.12	0.169
792.30	0.167
792.48	0.165
792.65	0.164
792.83	0.162
793.01	0.161
793.19	0.161
793.37	0.161
793.54	0.161
793.72	0.159
793.90	0.159
794.08	0.160
794.26	0.161
794.43	0.163
794.61	0.164
794.79	0.164
794.97	0.164
795.15	0.164
795.32	0.164
795.50	0.165
795.68	0.166
795.86	0.166
796.04	0.167
796.21	0.168
796.39	0.167
796.57	0.168
796.75	0.169
796.92	0.169
797.10	0.168
797.28	0.171
797.46	0.171
797.64	0.171
797.81	0.172
797.99	0.171
798.17	0.170
798.35	0.170
798.52	0.170
798.70	0.169
798.88	0.169
799.06	0.169
799.23	0.168
799.41	0.167
799.59	0.167
799.77	0.167
799.94	0.167
800.12	0.167
800.30	0.166
800.48	0.166
800.65	0.167
800.83	0.168
801.01	0.168
801.19	0.168
801.36	0.168
801.54	0.169
801.72	0.168
801.90	0.168
802.07	0.168
802.25	0.169
802.43	0.171
802.60	0.171
802.78	0.170
802.96	0.171
803.14	0.173
803.31	0.173
803.49	0.172
803.67	0.173
803.84	0.172
804.02	0.173
804.20	0.172
804.38	0.171
804.55	0.171
804.73	0.172
804.91	0.172
805.08	0.170
805.26	0.169
805.44	0.168
805.61	0.167
805.79	0.169
805.97	0.168
806.15	0.168
806.32	0.168
806.50	0.169
806.68	0.169
806.85	0.167
807.03	0.167
807.21	0.166
807.38	0.168
807.56	0.169
807.74	0.168
807.91	0.170
808.09	0.170
808.27	0.170
808.44	0.169
808.62	0.169
808.80	0.172
808.97	0.173
809.15	0.174
809.33	0.173
809.50	0.173
809.68	0.175
809.86	0.174
810.03	0.174
810.21	0.175
810.39	0.176
810.56	0.176
810.74	0.176
810.91	0.175
811.09	0.176
811.27	0.177
811.44	0.178
811.62	0.178
811.80	0.178
811.97	0.179
812.15	0.180
812.33	0.180
812.50	0.182
812.68	0.181
812.85	0.183
813.03	0.183
813.21	0.185
813.38	0.186
813.56	0.187
813.74	0.186
813.91	0.185
814.09	0.184
814.26	0.185
814.44	0.183
814.62	0.184
814.79	0.184
814.97	0.184
815.14	0.184
815.32	0.183
815.50	0.183
815.67	0.185
815.85	0.187
816.02	0.188
816.20	0.188
816.38	0.191
816.55	0.192
816.73	0.193
816.90	0.193
817.08	0.194
817.26	0.195
817.43	0.198
817.61	0.197
817.78	0.197
817.96	0.200
818.13	0.201
818.31	0.202
818.49	0.201
818.66	0.202
818.84	0.204
819.01	0.206
819.19	0.207
819.36	0.207
819.54	0.210
819.71	0.210
819.89	0.211
820.07	0.212
820.24	0.212
820.42	0.216
820.59	0.217
820.77	0.218
820.94	0.219
821.12	0.219
821.29	0.220
821.47	0.222
821.64	0.225
821.82	0.225
822.00	0.226
822.17	0.230
822.35	0.232
822.52	0.234
822.70	0.239
822.87	0.240
823.05	0.244
823.22	0.246
823.40	0.249
823.57	0.249
823.75	0.257
823.92	0.261
824.10	0.262
824.27	0.263
824.45	0.269
824.62	0.268
824.80	0.272
824.97	0.276
825.15	0.278
825.32	0.280
825.50	0.284
825.67	0.282
825.85	0.285
826.02	0.288
826.20	0.293
826.37	0.292
826.55	0.303
826.72	0.306
826.90	0.308
827.07	0.312
827.25	0.319
827.42	0.326
827.60	0.333
827.77	0.338
827.95	0.353
828.12	0.365
828.30	0.381
828.47	0.382
828.65	0.396
828.82	0.419
829.00	0.441
829.17	0.460
829.34	0.479
829.52	0.500
829.69	0.522
829.87	0.546
830.04	0.566
830.22	0.576
830.39	0.607
830.57	0.644
830.74	0.654
830.92	0.678
831.09	0.677
831.26	0.718
831.44	0.751
831.61	0.803
831.79	0.806
831.96	0.848
832.14	0.999
832.31	1.042
832.49	1.077
832.66	1.186
832.83	1.578
833.01	-0.000
833.18	-0.000
833.36	-0.000
833.53	-0.000
833.70	-0.000
833.88	-0.000
834.05	-0.000
834.23	-0.000
834.40	-0.000
834.58	-0.000
834.75	-0.000
834.92	-0.000
835.10	-0.000
835.27	-0.000
835.45	-0.000
835.62	-0.000
835.79	-0.000
835.97	-0.000
836.14	-0.000
836.32	-0.000
836.49	-0.000
836.66	-0.000
836.84	-0.000
837.01	-0.000
837.18	-0.000
837.36	-0.000
837.53	-0.000
837.71	-0.000
837.88	-0.000
838.05	-0.000
838.23	-0.000
838.40	-0.000
838.58	-0.000
838.75	-0.000
838.92	-0.000
839.10	-0.000
839.27	-0.000
839.44	-0.000
839.62	-0.000
839.79	-0.000
839.96	-0.000
840.14	-0.000
840.31	-0.000
840.48	-0.000
840.66	-0.000
840.83	-0.000
841.01	-0.000
841.18	-0.000
841.35	-0.000
841.53	-0.000
841.70	-0.000
841.87	-0.000
842.05	-0.000
842.22	-0.000
842.39	-0.000
842.57	-0.000
842.74	-0.000
842.91	-0.000
843.09	-0.000
843.26	-0.000
843.43	-0.000
843.60	-0.000
843.78	-0.000
843.95	-0.000
844.12	-0.000
844.30	-0.000
844.47	-0.000
844.64	-0.000
844.82	-0.000
844.99	-0.000
845.16	-0.000
845.34	-0.000
845.51	-0.000
845.68	-0.000
845.85	-0.000
846.03	-0.000
846.20	-0.000
846.37	-0.000
846.55	-0.000
846.72	-0.000
846.89	-0.000
847.06	-0.000
847.24	-0.000
847.41	-0.000
847.58	-0.000
847.76	-0.000
847.93	-0.000
848.10	-0.000
848.27	-0.000
848.45	-0.000
848.62	-0.000
848.79	-0.000
848.97	-0.000
849.14	-0.000
849.31	-0.000
849.48	-0.000
849.66	-0.000
849.83	-0.000
850.00	-0.000
850.17	-0.000
850.35	-0.000
850.52	-0.000
850.69	-0.000
850.86	-0.000
851.04	-0.000
851.21	-0.000
851.38	-0.000
851.55	-0.000
851.72	-0.000
851.90	-0.000
852.07	-0.000
852.24	-0.000
852.41	-0.000
852.59	-0.000
852.76	-0.000
852.93	-0.000
853.10	-0.000
853.28	-0.000
853.45	-0.000
853.62	-0.000
853.79	-0.000
853.96	-0.000
854.14	-0.000
854.31	-0.000
854.48	-0.000
854.65	-0.000
854.82	-0.000
855.00	-0.000
855.17	-0.000
855.34	-0.000
855.51	-0.000
855.68	-0.000
855.86	-0.000
856.03	-0.000
856.20	-0.000
856.37	-0.000
856.54	-0.000
856.72	-0.000
856.89	-0.000
857.06	-0.000
857.23	-0.000
857.40	-0.000
857.57	-0.000
857.75	-0.000
857.92	-0.000
858.09	-0.000
858.26	-0.000
858.43	-0.000
858.60	-0.000
858.78	-0.000
858.95	-0.000
859.12	-0.000
859.29	-0.000
859.46	-0.000
859.63	-0.000
859.81	-0.000
859.98	-0.000
860.15	-0.000
860.32	-0.000
860.49	-0.000
860.66	-0.000
860.83	-0.000
861.01	-0.000
861.18	-0.000
861.35	-0.000
861.52	-0.000
861.69	-0.000
861.86	-0.000
862.03	-0.000
862.21	-0.000
862.38	-0.000
862.55	-0.000
862.72	-0.000
862.89	-0.000
863.06	-0.000
863.23	-0.000
863.40	-0.000
863.58	-0.000
863.75	-0.000
863.92	-0.000
864.09	-0.000
864.26	-0.000
864.43	-0.000
864.60	-0.000
864.77	-0.000
864.94	-0.000
865.11	-0.000
865.29	-0.000
865.46	-0.000
865.63	-0.000
865.80	-0.000
865.97	-0.000
866.14	-0.000
866.31	-0.000
866.48	-0.000
866.65	-0.000
866.82	-0.000
866.99	-0.000
867.16	-0.000
867.34	-0.000
867.51	-0.000
867.68	-0.000
867.85	-0.000
868.02	-0.000
868.19	-0.000
868.36	-0.000
868.53	-0.000
868.70	-0.000
868.87	-0.000
869.04	-0.000
869.21	-0.000
869.38	-0.000
869.55	-0.000
869.72	-0.000
869.89	-0.000
870.06	-0.000
870.24	-0.000
870.41	-0.000
870.58	-0.000
870.75	-0.000
870.92	-0.000
871.09	-0.000
871.26	-0.000
871.43	-0.000
871.60	-0.000
871.77	-0.000
871.94	-0.000
872.11	-0.000
872.28	-0.000
872.45	-0.000
872.62	-0.000
872.79	-0.000
872.96	-0.000
873.13	-0.000
873.30	-0.000
873.47	-0.000
873.64	-0.000
873.81	-0.000
873.98	-0.000
874.15	-0.000
874.32	-0.000
874.49	-0.000
874.66	-0.000
874.83	-0.000
875.00	-0.000
875.17	-0.000
875.34	-0.000
875.51	-0.000
875.68	-0.000
875.85	-0.000
876.02	-0.000
876.19	-0.000
876.36	-0.000
876.53	-0.000
876.70	-0.000
876.87	-0.000
877.04	-0.000
877.21	-0.000
877.38	-0.000
877.55	-0.000
877.72	-0.000
877.89	-0.000
878.06	-0.000
878.23	-0.000
878.39	-0.000
878.56	-0.000
878.73	-0.000
878.90	-0.000
879.07	-0.000
879.24	-0.000
879.41	-0.000
879.58	-0.000
879.75	-0.000
879.92	-0.000
880.09	-0.000
880.26	-0.000
880.43	-0.000
880.60	-0.000
880.77	-0.000
880.94	-0.000
881.11	-0.000
881.27	-0.000
881.44	-0.000
881.61	-0.000
881.78	-0.000
881.95	-0.000
882.12	-0.000
882.29	-0.000
882.46	-0.000
882.63	-0.000
882.80	-0.000
882.97	-0.000
883.14	-0.000
883.30	-0.000
883.47	-0.000
883.64	-0.000
883.81	-0.000
883.98	-0.000
884.15	-0.000
884.32	-0.000
884.49	-0.000
884.66	-0.000
884.82	-0.000
884.99	-0.000
885.16	-0.000
885.33	-0.000
885.50	-0.000
885.67	-0.000
885.84	-0.000
886.01	-0.000
886.17	-0.000
886.34	-0.000
886.51	-0.000
886.68	-0.000
886.85	-0.000
887.02	-0.000
887.19	-0.000
887.36	-0.000
887.52	-0.000
887.69	-0.000
887.86	-0.000
888.03	-0.000
888.20	-0.000
888.37	-0.000
888.54	-0.000
888.70	-0.000
888.87	-0.000
889.04	-0.000
889.21	-0.000
889.38	-0.000
889.55	-0.000
889.71	-0.000
889.88	-0.000
890.05	-0.000
890.22	-0.000
890.39	-0.000
>>>>>End Processed Spectral Data<<<<<
