SpectraSuite Data File
++++++++++++++++++++++++++++++++++++
Date: Fri Jun 19 13:22:12 CEST 2015
User: introlabs
Dark Spectrum Present: Yes
Reference Spectrum Present: Yes
Number of Sampled Component Spectra: 1
Spectrometers: USB4H08886
Integration Time (usec): 745692 (USB4H08886)
Spectra Averaged: 5 (USB4H08886)
Boxcar Smoothing: 5 (USB4H08886)
Correct for Electrical Dark: Yes (USB4H08886)
Strobe/Lamp Enabled: No (USB4H08886)
Correct for Detector Non-linearity: Yes (USB4H08886)
Correct for Stray Light: Yes (USB4H08886)
Number of Pixels in Processed Spectrum: 3648
>>>>>Begin Processed Spectral Data<<<<<
178.14	-0.000
178.36	-0.000
178.57	-0.000
178.79	-0.000
179.01	-0.000
179.22	-0.000
179.44	-0.000
179.65	-0.000
179.87	-0.000
180.08	-0.000
180.30	-0.000
180.52	-0.000
180.73	-0.000
180.95	-0.000
181.16	-0.000
181.38	-0.000
181.59	-0.000
181.81	-0.000
182.03	-0.000
182.24	-0.000
182.46	-0.000
182.67	-0.000
182.89	-0.000
183.10	-0.000
183.32	-0.000
183.54	-0.000
183.75	-0.000
183.97	-0.000
184.18	-0.000
184.40	-0.000
184.61	-0.000
184.83	-0.000
185.04	-0.000
185.26	-0.000
185.48	-0.000
185.69	-0.000
185.91	-0.000
186.12	-0.000
186.34	-0.000
186.55	-0.000
186.77	-0.000
186.98	-0.000
187.20	-0.000
187.42	-0.000
187.63	-0.000
187.85	-0.000
188.06	-0.000
188.28	-0.000
188.49	-0.000
188.71	-0.000
188.92	-0.000
189.14	-0.000
189.36	-0.000
189.57	-0.000
189.79	-0.000
190.00	-0.000
190.22	-0.000
190.43	-0.000
190.65	-0.000
190.86	-0.000
191.08	-0.000
191.29	-0.000
191.51	-0.000
191.72	-0.000
191.94	-0.000
192.16	-0.000
192.37	-0.000
192.59	-0.000
192.80	-0.000
193.02	-0.000
193.23	-0.000
193.45	-0.000
193.66	-0.000
193.88	-0.000
194.09	-0.000
194.31	-0.000
194.52	-0.000
194.74	-0.000
194.95	-0.000
195.17	-0.000
195.38	-0.000
195.60	-0.000
195.81	-0.000
196.03	-0.000
196.25	-0.000
196.46	-0.000
196.68	-0.000
196.89	-0.000
197.11	-0.000
197.32	-0.000
197.54	-0.000
197.75	-0.000
197.97	-0.000
198.18	-0.000
198.40	-0.000
198.61	-0.000
198.83	-0.000
199.04	-0.000
199.26	-0.000
199.47	-0.000
199.69	-0.000
199.90	-0.000
200.12	-0.000
200.33	-0.000
200.55	-0.000
200.76	-0.000
200.98	-0.000
201.19	-0.000
201.41	-0.000
201.62	-0.000
201.84	-0.000
202.05	-0.000
202.27	-0.000
202.48	-0.000
202.70	-0.000
202.91	-0.000
203.13	-0.000
203.34	-0.000
203.56	-0.000
203.77	-0.000
203.99	-0.000
204.20	-0.000
204.42	-0.000
204.63	-0.000
204.85	-0.000
205.06	-0.000
205.28	-0.000
205.49	-0.000
205.71	-0.000
205.92	-0.000
206.14	-0.000
206.35	-0.000
206.56	-0.000
206.78	-0.000
206.99	-0.000
207.21	-0.000
207.42	-0.000
207.64	-0.000
207.85	-0.000
208.07	-0.000
208.28	-0.000
208.50	-0.000
208.71	-0.000
208.93	-0.000
209.14	-0.000
209.36	-0.000
209.57	-0.000
209.79	-0.000
210.00	-0.000
210.22	-0.000
210.43	-0.000
210.64	-0.000
210.86	-0.000
211.07	-0.000
211.29	-0.000
211.50	-0.000
211.72	-0.000
211.93	-0.000
212.15	-0.000
212.36	-0.000
212.58	-0.000
212.79	-0.000
213.01	-0.000
213.22	-0.000
213.43	-0.000
213.65	-0.000
213.86	-0.000
214.08	-0.000
214.29	-0.000
214.51	-0.000
214.72	-0.000
214.94	-0.000
215.15	-0.000
215.36	-0.000
215.58	-0.000
215.79	-0.000
216.01	-0.000
216.22	-0.000
216.44	-0.000
216.65	-0.000
216.87	-0.000
217.08	-0.000
217.29	-0.000
217.51	-0.000
217.72	-0.000
217.94	-0.000
218.15	-0.000
218.37	-0.000
218.58	-0.000
218.80	-0.000
219.01	-0.000
219.22	-0.000
219.44	-0.000
219.65	-0.000
219.87	-0.000
220.08	-0.000
220.30	-0.000
220.51	-0.000
220.72	-0.000
220.94	-0.000
221.15	-0.000
221.37	-0.000
221.58	-0.000
221.79	-0.000
222.01	-0.000
222.22	-0.000
222.44	-0.000
222.65	-0.000
222.87	-0.000
223.08	-0.000
223.29	-0.000
223.51	-0.000
223.72	-0.000
223.94	-0.000
224.15	-0.000
224.36	-0.000
224.58	-0.000
224.79	-0.000
225.01	-0.000
225.22	-0.000
225.44	-0.000
225.65	-0.000
225.86	-0.000
226.08	-0.000
226.29	-0.000
226.51	-0.000
226.72	-0.000
226.93	-0.000
227.15	-0.000
227.36	-0.000
227.58	-0.000
227.79	-0.000
228.00	-0.000
228.22	-0.000
228.43	-0.000
228.65	-0.000
228.86	-0.000
229.07	-0.000
229.29	-0.000
229.50	-0.000
229.72	-0.000
229.93	-0.000
230.14	-0.000
230.36	-0.000
230.57	-0.000
230.78	-0.000
231.00	-0.000
231.21	-0.000
231.43	-0.000
231.64	-0.000
231.85	-0.000
232.07	-0.000
232.28	-0.000
232.50	-0.000
232.71	-0.000
232.92	-0.000
233.14	-0.000
233.35	-0.000
233.56	-0.000
233.78	-0.000
233.99	-0.000
234.21	-0.000
234.42	-0.000
234.63	-0.000
234.85	-0.000
235.06	-0.000
235.27	-0.000
235.49	-0.000
235.70	-0.000
235.91	-0.000
236.13	-0.000
236.34	-0.000
236.56	-0.000
236.77	-0.000
236.98	-0.000
237.20	-0.000
237.41	-0.000
237.62	-0.000
237.84	-0.000
238.05	-0.000
238.26	-0.000
238.48	-0.000
238.69	-0.000
238.91	-0.000
239.12	-0.000
239.33	-0.000
239.55	-0.000
239.76	-0.000
239.97	-0.000
240.19	-0.000
240.40	-0.000
240.61	-0.000
240.83	-0.000
241.04	-0.000
241.25	-0.000
241.47	-0.000
241.68	-0.000
241.89	-0.000
242.11	-0.000
242.32	-0.000
242.53	-0.000
242.75	-0.000
242.96	-0.000
243.17	-0.000
243.39	-0.000
243.60	-0.000
243.81	-0.000
244.03	-0.000
244.24	-0.000
244.45	-0.000
244.67	-0.000
244.88	-0.000
245.09	-0.000
245.31	-0.000
245.52	-0.000
245.73	-0.000
245.95	-0.000
246.16	-0.000
246.37	-0.000
246.59	-0.000
246.80	-0.000
247.01	-0.000
247.23	-0.000
247.44	-0.000
247.65	-0.000
247.87	-0.000
248.08	-0.000
248.29	-0.000
248.51	-0.000
248.72	-0.000
248.93	-0.000
249.15	-0.000
249.36	-0.000
249.57	-0.000
249.78	-0.000
250.00	-0.000
250.21	-0.000
250.42	-0.000
250.64	-0.000
250.85	-0.000
251.06	-0.000
251.28	-0.000
251.49	-0.000
251.70	-0.000
251.92	-0.000
252.13	-0.000
252.34	-0.000
252.55	-0.000
252.77	-0.000
252.98	-0.000
253.19	-0.000
253.41	-0.000
253.62	-0.000
253.83	-0.000
254.05	-0.000
254.26	-0.000
254.47	-0.000
254.68	-0.000
254.90	-0.000
255.11	-0.000
255.32	-0.000
255.54	-0.000
255.75	-0.000
255.96	-0.000
256.17	-0.000
256.39	-0.000
256.60	-0.000
256.81	-0.000
257.03	-0.000
257.24	-0.000
257.45	-0.000
257.66	-0.000
257.88	-0.000
258.09	-0.000
258.30	-0.000
258.51	-0.000
258.73	-0.000
258.94	-0.000
259.15	-0.000
259.37	-0.000
259.58	-0.000
259.79	-0.000
260.00	-0.000
260.22	-0.000
260.43	-0.000
260.64	-0.000
260.85	-0.000
261.07	-0.000
261.28	-0.000
261.49	-0.000
261.71	-0.000
261.92	-0.000
262.13	-0.000
262.34	-0.000
262.56	-0.000
262.77	-0.000
262.98	-0.000
263.19	-0.000
263.41	-0.000
263.62	-0.000
263.83	-0.000
264.04	-0.000
264.26	-0.000
264.47	-0.000
264.68	-0.000
264.89	-0.000
265.11	-0.000
265.32	-0.000
265.53	-0.000
265.74	-0.000
265.96	-0.000
266.17	-0.000
266.38	-0.000
266.59	-0.000
266.81	-0.000
267.02	-0.000
267.23	-0.000
267.44	-0.000
267.65	-0.000
267.87	-0.000
268.08	-0.000
268.29	-0.000
268.50	-0.000
268.72	-0.000
268.93	-0.000
269.14	-0.000
269.35	-0.000
269.57	-0.000
269.78	-0.000
269.99	-0.000
270.20	-0.000
270.41	-0.000
270.63	-0.000
270.84	-0.000
271.05	-0.000
271.26	-0.000
271.48	-0.000
271.69	-0.000
271.90	-0.000
272.11	-0.000
272.32	-0.000
272.54	-0.000
272.75	-0.000
272.96	-0.000
273.17	-0.000
273.39	-0.000
273.60	-0.000
273.81	-0.000
274.02	-0.000
274.23	-0.000
274.45	-0.000
274.66	-0.000
274.87	-0.000
275.08	-0.000
275.29	-0.000
275.51	-0.000
275.72	-0.000
275.93	-0.000
276.14	-0.000
276.35	-0.000
276.57	-0.000
276.78	-0.000
276.99	-0.000
277.20	-0.000
277.41	-0.000
277.63	-0.000
277.84	-0.000
278.05	-0.000
278.26	-0.000
278.47	-0.000
278.69	-0.000
278.90	-0.000
279.11	-0.000
279.32	-0.000
279.53	-0.000
279.74	-0.000
279.96	-0.000
280.17	-0.000
280.38	-0.000
280.59	-0.000
280.80	-0.000
281.02	-0.000
281.23	-0.000
281.44	-0.000
281.65	-0.000
281.86	-0.000
282.07	-0.000
282.29	-0.000
282.50	-0.000
282.71	-0.000
282.92	-0.000
283.13	-0.000
283.35	-0.000
283.56	-0.000
283.77	-0.000
283.98	-0.000
284.19	-0.000
284.40	-0.000
284.62	-0.000
284.83	-0.000
285.04	-0.000
285.25	-0.000
285.46	-0.000
285.67	-0.000
285.88	-0.000
286.10	-0.000
286.31	-0.000
286.52	-0.000
286.73	-0.000
286.94	-0.000
287.15	-0.000
287.37	-0.000
287.58	-0.000
287.79	-0.000
288.00	-0.000
288.21	-0.000
288.42	-0.000
288.63	-0.000
288.85	-0.000
289.06	-0.000
289.27	-0.000
289.48	-0.000
289.69	-0.000
289.90	-0.000
290.11	-0.000
290.33	-0.000
290.54	-0.000
290.75	-0.000
290.96	-0.000
291.17	-0.000
291.38	-0.000
291.59	-0.000
291.81	-0.000
292.02	-0.000
292.23	-0.000
292.44	-0.000
292.65	-0.000
292.86	-0.000
293.07	-0.000
293.28	-0.000
293.50	-0.000
293.71	-0.000
293.92	-0.000
294.13	-0.000
294.34	-0.000
294.55	-0.000
294.76	-0.000
294.97	-0.000
295.19	-0.000
295.40	-0.000
295.61	-0.000
295.82	-0.000
296.03	-0.000
296.24	-0.000
296.45	-0.000
296.66	-0.000
296.87	-0.000
297.09	-0.000
297.30	-0.000
297.51	2.697
297.72	2.396
297.93	3.304
298.14	2.637
298.35	2.303
298.56	2.207
298.77	3.264
298.99	2.822
299.20	2.512
299.41	2.342
299.62	2.216
299.83	2.158
300.04	1.984
300.25	1.968
300.46	2.086
300.67	2.022
300.88	1.878
301.10	1.874
301.31	2.043
301.52	1.883
301.73	1.771
301.94	1.767
302.15	1.805
302.36	1.714
302.57	1.609
302.78	1.623
302.99	1.696
303.20	1.725
303.41	1.575
303.63	1.546
303.84	1.557
304.05	1.539
304.26	1.449
304.47	1.453
304.68	1.457
304.89	1.444
305.10	1.384
305.31	1.366
305.52	1.420
305.73	1.409
305.94	1.361
306.15	1.353
306.37	1.383
306.58	1.391
306.79	1.351
307.00	1.379
307.21	1.429
307.42	1.419
307.63	1.370
307.84	1.328
308.05	1.377
308.26	1.370
308.47	1.339
308.68	1.335
308.89	1.339
309.10	1.331
309.31	1.283
309.52	1.274
309.73	1.297
309.95	1.289
310.16	1.257
310.37	1.244
310.58	1.266
310.79	1.263
311.00	1.256
311.21	1.258
311.42	1.263
311.63	1.253
311.84	1.227
312.05	1.223
312.26	1.251
312.47	1.262
312.68	1.232
312.89	1.214
313.10	1.225
313.31	1.191
313.52	1.191
313.73	1.192
313.94	1.197
314.15	1.180
314.36	1.157
314.57	1.147
314.78	1.133
314.99	1.126
315.21	1.112
315.42	1.116
315.63	1.134
315.84	1.109
316.05	1.093
316.26	1.100
316.47	1.121
316.68	1.115
316.89	1.093
317.10	1.117
317.31	1.125
317.52	1.125
317.73	1.100
317.94	1.098
318.15	1.148
318.36	1.148
318.57	1.128
318.78	1.113
318.99	1.151
319.20	1.149
319.41	1.108
319.62	1.110
319.83	1.127
320.04	1.121
320.25	1.105
320.46	1.067
320.67	1.070
320.88	1.064
321.09	1.050
321.30	1.033
321.51	1.050
321.72	1.048
321.93	1.027
322.14	1.018
322.35	1.048
322.56	1.050
322.77	1.034
322.98	1.045
323.19	1.055
323.40	1.060
323.61	1.036
323.82	1.030
324.03	1.036
324.24	1.033
324.45	1.018
324.66	0.998
324.87	0.995
325.08	0.995
325.29	0.974
325.50	0.965
325.71	0.970
325.92	0.978
326.13	0.963
326.34	0.963
326.55	0.973
326.76	0.972
326.97	0.959
327.18	0.953
327.39	0.980
327.60	0.981
327.80	0.981
328.01	0.979
328.22	0.981
328.43	0.986
328.64	0.974
328.85	0.978
329.06	0.981
329.27	0.982
329.48	0.976
329.69	0.955
329.90	0.967
330.11	0.960
330.32	0.952
330.53	0.944
330.74	0.944
330.95	0.941
331.16	0.926
331.37	0.933
331.58	0.933
331.79	0.933
332.00	0.923
332.21	0.915
332.42	0.920
332.63	0.912
332.83	0.908
333.04	0.909
333.25	0.923
333.46	0.921
333.67	0.907
333.88	0.910
334.09	0.920
334.30	0.916
334.51	0.908
334.72	0.903
334.93	0.907
335.14	0.907
335.35	0.899
335.56	0.895
335.77	0.903
335.98	0.901
336.18	0.893
336.39	0.887
336.60	0.893
336.81	0.890
337.02	0.888
337.23	0.891
337.44	0.894
337.65	0.895
337.86	0.884
338.07	0.879
338.28	0.884
338.49	0.883
338.70	0.875
338.91	0.882
339.11	0.888
339.32	0.885
339.53	0.873
339.74	0.870
339.95	0.867
340.16	0.865
340.37	0.857
340.58	0.856
340.79	0.860
341.00	0.859
341.21	0.847
341.41	0.847
341.62	0.848
341.83	0.849
342.04	0.844
342.25	0.855
342.46	0.860
342.67	0.858
342.88	0.851
343.09	0.850
343.30	0.858
343.50	0.862
343.71	0.851
343.92	0.850
344.13	0.855
344.34	0.855
344.55	0.837
344.76	0.836
344.97	0.841
345.18	0.840
345.38	0.837
345.59	0.831
345.80	0.830
346.01	0.829
346.22	0.824
346.43	0.819
346.64	0.828
346.85	0.828
347.06	0.821
347.26	0.822
347.47	0.825
347.68	0.821
347.89	0.817
348.10	0.813
348.31	0.819
348.52	0.818
348.73	0.815
348.93	0.810
349.14	0.813
349.35	0.813
349.56	0.805
349.77	0.801
349.98	0.807
350.19	0.804
350.39	0.799
350.60	0.794
350.81	0.811
351.02	0.809
351.23	0.805
351.44	0.808
351.65	0.811
351.86	0.808
352.06	0.806
352.27	0.807
352.48	0.808
352.69	0.807
352.90	0.802
353.11	0.788
353.31	0.796
353.52	0.792
353.73	0.783
353.94	0.785
354.15	0.791
354.36	0.790
354.57	0.781
354.77	0.783
354.98	0.783
355.19	0.782
355.40	0.782
355.61	0.787
355.82	0.792
356.02	0.792
356.23	0.784
356.44	0.786
356.65	0.791
356.86	0.791
357.07	0.785
357.27	0.788
357.48	0.791
357.69	0.785
357.90	0.770
358.11	0.766
358.32	0.770
358.52	0.773
358.73	0.763
358.94	0.765
359.15	0.770
359.36	0.770
359.56	0.765
359.77	0.762
359.98	0.771
360.19	0.770
360.40	0.767
360.61	0.767
360.81	0.767
361.02	0.767
361.23	0.758
361.44	0.757
361.65	0.759
361.85	0.758
362.06	0.755
362.27	0.757
362.48	0.758
362.69	0.761
362.89	0.754
363.10	0.756
363.31	0.761
363.52	0.765
363.73	0.759
363.93	0.759
364.14	0.761
364.35	0.763
364.56	0.753
364.77	0.754
364.97	0.756
365.18	0.757
365.39	0.750
365.60	0.746
365.81	0.747
366.01	0.747
366.22	0.743
366.43	0.743
366.64	0.745
366.84	0.751
367.05	0.748
367.26	0.747
367.47	0.749
367.68	0.750
367.88	0.746
368.09	0.744
368.30	0.747
368.51	0.747
368.71	0.745
368.92	0.748
369.13	0.746
369.34	0.746
369.55	0.744
369.75	0.744
369.96	0.751
370.17	0.750
370.38	0.746
370.58	0.746
370.79	0.752
371.00	0.750
371.21	0.742
371.41	0.747
371.62	0.751
371.83	0.747
372.04	0.745
372.24	0.738
372.45	0.741
372.66	0.741
372.87	0.736
373.07	0.733
373.28	0.734
373.49	0.738
373.70	0.729
373.90	0.728
374.11	0.737
374.32	0.736
374.53	0.735
374.73	0.735
374.94	0.738
375.15	0.738
375.36	0.735
375.56	0.743
375.77	0.744
375.98	0.745
376.19	0.741
376.39	0.735
376.60	0.739
376.81	0.739
377.02	0.736
377.22	0.735
377.43	0.735
377.64	0.736
377.84	0.726
378.05	0.731
378.26	0.736
378.47	0.735
378.67	0.731
378.88	0.728
379.09	0.729
379.30	0.730
379.50	0.727
379.71	0.729
379.92	0.732
380.12	0.731
380.33	0.722
380.54	0.718
380.75	0.725
380.95	0.726
381.16	0.723
381.37	0.724
381.57	0.725
381.78	0.726
381.99	0.725
382.20	0.725
382.40	0.728
382.61	0.728
382.82	0.724
383.02	0.718
383.23	0.721
383.44	0.721
383.64	0.718
383.85	0.721
384.06	0.724
384.27	0.722
384.47	0.720
384.68	0.721
384.89	0.727
385.09	0.728
385.30	0.727
385.51	0.726
385.71	0.730
385.92	0.730
386.13	0.728
386.33	0.730
386.54	0.732
386.75	0.730
386.95	0.725
387.16	0.720
387.37	0.722
387.58	0.722
387.78	0.719
387.99	0.717
388.20	0.719
388.40	0.715
388.61	0.710
388.82	0.713
389.02	0.715
389.23	0.716
389.44	0.714
389.64	0.714
389.85	0.726
390.06	0.725
390.26	0.725
390.47	0.724
390.68	0.728
390.88	0.725
391.09	0.721
391.30	0.720
391.50	0.719
391.71	0.719
391.92	0.716
392.12	0.708
392.33	0.709
392.53	0.709
392.74	0.709
392.95	0.708
393.15	0.711
393.36	0.713
393.57	0.710
393.77	0.714
393.98	0.716
394.19	0.715
394.39	0.715
394.60	0.716
394.81	0.718
395.01	0.715
395.22	0.713
395.43	0.714
395.63	0.718
395.84	0.719
396.04	0.715
396.25	0.718
396.46	0.719
396.66	0.717
396.87	0.714
397.08	0.711
397.28	0.714
397.49	0.715
397.69	0.711
397.90	0.706
398.11	0.707
398.31	0.707
398.52	0.702
398.73	0.704
398.93	0.703
399.14	0.701
399.34	0.700
399.55	0.701
399.76	0.701
399.96	0.702
400.17	0.699
400.37	0.698
400.58	0.706
400.79	0.707
400.99	0.705
401.20	0.710
401.41	0.713
401.61	0.714
401.82	0.719
402.02	0.719
402.23	0.721
402.44	0.720
402.64	0.720
402.85	0.714
403.05	0.713
403.26	0.711
403.47	0.706
403.67	0.704
403.88	0.705
404.08	0.699
404.29	0.697
404.50	0.696
404.70	0.698
404.91	0.696
405.11	0.693
405.32	0.693
405.52	0.694
405.73	0.693
405.94	0.692
406.14	0.694
406.35	0.696
406.55	0.696
406.76	0.693
406.97	0.694
407.17	0.697
407.38	0.696
407.58	0.694
407.79	0.697
407.99	0.700
408.20	0.701
408.41	0.696
408.61	0.694
408.82	0.695
409.02	0.695
409.23	0.692
409.43	0.691
409.64	0.693
409.84	0.692
410.05	0.688
410.26	0.687
410.46	0.686
410.67	0.686
410.87	0.688
411.08	0.690
411.28	0.691
411.49	0.692
411.69	0.690
411.90	0.692
412.11	0.693
412.31	0.694
412.52	0.692
412.72	0.694
412.93	0.694
413.13	0.693
413.34	0.689
413.54	0.690
413.75	0.692
413.95	0.692
414.16	0.688
414.37	0.691
414.57	0.691
414.78	0.694
414.98	0.691
415.19	0.693
415.39	0.691
415.60	0.693
415.80	0.691
416.01	0.690
416.21	0.692
416.42	0.692
416.62	0.686
416.83	0.686
417.03	0.686
417.24	0.686
417.44	0.684
417.65	0.683
417.86	0.683
418.06	0.682
418.27	0.679
418.47	0.681
418.68	0.682
418.88	0.683
419.09	0.682
419.29	0.682
419.50	0.682
419.70	0.682
419.91	0.680
420.11	0.678
420.32	0.680
420.52	0.680
420.73	0.679
420.93	0.679
421.14	0.681
421.34	0.680
421.55	0.676
421.75	0.676
421.96	0.678
422.16	0.679
422.37	0.678
422.57	0.675
422.78	0.677
422.98	0.674
423.19	0.671
423.39	0.670
423.60	0.673
423.80	0.675
424.01	0.673
424.21	0.675
424.42	0.677
424.62	0.677
424.83	0.675
425.03	0.675
425.23	0.678
425.44	0.679
425.64	0.679
425.85	0.679
426.05	0.680
426.26	0.680
426.46	0.677
426.67	0.675
426.87	0.680
427.08	0.681
427.28	0.678
427.49	0.679
427.69	0.680
427.90	0.679
428.10	0.675
428.31	0.675
428.51	0.677
428.71	0.676
428.92	0.677
429.12	0.674
429.33	0.675
429.53	0.679
429.74	0.683
429.94	0.684
430.15	0.683
430.35	0.683
430.56	0.681
430.76	0.680
430.96	0.680
431.17	0.678
431.37	0.675
431.58	0.673
431.78	0.670
431.99	0.663
432.19	0.665
432.40	0.668
432.60	0.669
432.80	0.672
433.01	0.670
433.21	0.670
433.42	0.672
433.62	0.673
433.83	0.673
434.03	0.675
434.23	0.678
434.44	0.677
434.64	0.674
434.85	0.679
435.05	0.679
435.26	0.680
435.46	0.678
435.66	0.677
435.87	0.677
436.07	0.677
436.28	0.673
436.48	0.670
436.69	0.670
436.89	0.671
437.09	0.664
437.30	0.663
437.50	0.664
437.71	0.676
437.91	0.675
438.11	0.677
438.32	0.681
438.52	0.681
438.73	0.680
438.93	0.678
439.13	0.678
439.34	0.681
439.54	0.679
439.75	0.679
439.95	0.669
440.15	0.674
440.36	0.672
440.56	0.670
440.77	0.671
440.97	0.671
441.17	0.669
441.38	0.671
441.58	0.668
441.79	0.668
441.99	0.666
442.19	0.665
442.40	0.662
442.60	0.663
442.81	0.660
443.01	0.661
443.21	0.662
443.42	0.662
443.62	0.661
443.82	0.661
444.03	0.662
444.23	0.663
444.44	0.663
444.64	0.663
444.84	0.664
445.05	0.663
445.25	0.661
445.45	0.661
445.66	0.663
445.86	0.663
446.06	0.663
446.27	0.663
446.47	0.666
446.68	0.664
446.88	0.662
447.08	0.662
447.29	0.664
447.49	0.664
447.69	0.664
447.90	0.662
448.10	0.666
448.30	0.663
448.51	0.664
448.71	0.661
448.91	0.664
449.12	0.663
449.32	0.665
449.52	0.663
449.73	0.668
449.93	0.667
450.14	0.667
450.34	0.667
450.54	0.670
450.75	0.668
450.95	0.667
451.15	0.666
451.36	0.669
451.56	0.666
451.76	0.665
451.97	0.662
452.17	0.663
452.37	0.661
452.58	0.658
452.78	0.657
452.98	0.658
453.19	0.658
453.39	0.658
453.59	0.658
453.79	0.659
454.00	0.659
454.20	0.658
454.40	0.659
454.61	0.662
454.81	0.662
455.01	0.661
455.22	0.662
455.42	0.665
455.62	0.663
455.83	0.662
456.03	0.665
456.23	0.666
456.44	0.666
456.64	0.664
456.84	0.664
457.04	0.666
457.25	0.665
457.45	0.661
457.65	0.660
457.86	0.661
458.06	0.660
458.26	0.655
458.47	0.654
458.67	0.656
458.87	0.656
459.07	0.654
459.28	0.656
459.48	0.658
459.68	0.658
459.89	0.658
460.09	0.656
460.29	0.658
460.49	0.659
460.70	0.658
460.90	0.658
461.10	0.659
461.31	0.658
461.51	0.655
461.71	0.656
461.91	0.658
462.12	0.658
462.32	0.657
462.52	0.657
462.72	0.660
462.93	0.660
463.13	0.658
463.33	0.659
463.53	0.661
463.74	0.660
463.94	0.656
464.14	0.656
464.35	0.658
464.55	0.658
464.75	0.656
464.95	0.655
465.16	0.657
465.36	0.656
465.56	0.654
465.76	0.653
465.97	0.654
466.17	0.655
466.37	0.653
466.57	0.655
466.78	0.656
466.98	0.655
467.18	0.652
467.38	0.651
467.59	0.653
467.79	0.654
467.99	0.654
468.19	0.655
468.39	0.658
468.60	0.658
468.80	0.656
469.00	0.657
469.20	0.659
469.41	0.659
469.61	0.659
469.81	0.659
470.01	0.658
470.22	0.659
470.42	0.656
470.62	0.654
470.82	0.656
471.02	0.655
471.23	0.653
471.43	0.653
471.63	0.655
471.83	0.655
472.04	0.653
472.24	0.652
472.44	0.658
472.64	0.658
472.84	0.655
473.05	0.655
473.25	0.658
473.45	0.658
473.65	0.656
473.85	0.656
474.06	0.657
474.26	0.657
474.46	0.658
474.66	0.655
474.86	0.657
475.07	0.656
475.27	0.654
475.47	0.651
475.67	0.652
475.87	0.654
476.08	0.651
476.28	0.652
476.48	0.654
476.68	0.652
476.88	0.649
477.09	0.651
477.29	0.653
477.49	0.653
477.69	0.652
477.89	0.652
478.09	0.651
478.30	0.654
478.50	0.650
478.70	0.650
478.90	0.650
479.10	0.653
479.31	0.654
479.51	0.652
479.71	0.653
479.91	0.653
480.11	0.652
480.31	0.652
480.52	0.652
480.72	0.652
480.92	0.651
481.12	0.650
481.32	0.647
481.52	0.645
481.72	0.645
481.93	0.648
482.13	0.649
482.33	0.648
482.53	0.646
482.73	0.647
482.93	0.648
483.14	0.647
483.34	0.646
483.54	0.647
483.74	0.647
483.94	0.646
484.14	0.642
484.34	0.641
484.55	0.642
484.75	0.641
484.95	0.639
485.15	0.639
485.35	0.639
485.55	0.639
485.75	0.637
485.96	0.636
486.16	0.639
486.36	0.638
486.56	0.637
486.76	0.637
486.96	0.637
487.16	0.637
487.36	0.635
487.57	0.635
487.77	0.636
487.97	0.636
488.17	0.635
488.37	0.634
488.57	0.634
488.77	0.635
488.97	0.633
489.18	0.632
489.38	0.636
489.58	0.636
489.78	0.636
489.98	0.635
490.18	0.635
490.38	0.636
490.58	0.635
490.78	0.635
490.98	0.637
491.19	0.637
491.39	0.636
491.59	0.635
491.79	0.637
491.99	0.638
492.19	0.637
492.39	0.640
492.59	0.640
492.79	0.642
492.99	0.642
493.20	0.643
493.40	0.643
493.60	0.645
493.80	0.643
494.00	0.641
494.20	0.642
494.40	0.641
494.60	0.639
494.80	0.642
495.00	0.641
495.20	0.640
495.40	0.638
495.61	0.640
495.81	0.639
496.01	0.643
496.21	0.643
496.41	0.643
496.61	0.644
496.81	0.643
497.01	0.639
497.21	0.638
497.41	0.639
497.61	0.639
497.81	0.636
498.01	0.636
498.21	0.635
498.41	0.633
498.61	0.632
498.82	0.633
499.02	0.636
499.22	0.636
499.42	0.636
499.62	0.637
499.82	0.637
500.02	0.639
500.22	0.637
500.42	0.639
500.62	0.640
500.82	0.640
501.02	0.638
501.22	0.638
501.42	0.638
501.62	0.640
501.82	0.639
502.02	0.640
502.22	0.639
502.42	0.642
502.62	0.639
502.82	0.640
503.02	0.640
503.22	0.640
503.42	0.638
503.63	0.638
503.83	0.637
504.03	0.635
504.23	0.634
504.43	0.635
504.63	0.635
504.83	0.635
505.03	0.633
505.23	0.635
505.43	0.637
505.63	0.638
505.83	0.637
506.03	0.639
506.23	0.641
506.43	0.642
506.63	0.640
506.83	0.639
507.03	0.642
507.23	0.642
507.43	0.640
507.63	0.641
507.83	0.641
508.03	0.640
508.23	0.639
508.43	0.637
508.63	0.639
508.83	0.640
509.03	0.641
509.23	0.639
509.43	0.641
509.63	0.641
509.83	0.639
510.03	0.642
510.23	0.644
510.43	0.645
510.63	0.645
510.83	0.645
511.03	0.646
511.23	0.644
511.43	0.644
511.63	0.645
511.83	0.648
512.03	0.647
512.22	0.644
512.42	0.644
512.62	0.645
512.82	0.645
513.02	0.644
513.22	0.644
513.42	0.646
513.62	0.649
513.82	0.647
514.02	0.646
514.22	0.647
514.42	0.647
514.62	0.647
514.82	0.646
515.02	0.649
515.22	0.652
515.42	0.651
515.62	0.653
515.82	0.651
516.02	0.653
516.22	0.652
516.42	0.654
516.62	0.656
516.82	0.658
517.01	0.656
517.21	0.655
517.41	0.659
517.61	0.660
517.81	0.656
518.01	0.655
518.21	0.655
518.41	0.654
518.61	0.653
518.81	0.654
519.01	0.654
519.21	0.654
519.41	0.653
519.61	0.647
519.81	0.649
520.00	0.650
520.20	0.651
520.40	0.654
520.60	0.655
520.80	0.654
521.00	0.654
521.20	0.655
521.40	0.661
521.60	0.661
521.80	0.660
522.00	0.660
522.20	0.662
522.39	0.662
522.59	0.658
522.79	0.660
522.99	0.662
523.19	0.660
523.39	0.657
523.59	0.655
523.79	0.658
523.99	0.660
524.19	0.659
524.38	0.657
524.58	0.659
524.78	0.660
524.98	0.657
525.18	0.660
525.38	0.661
525.58	0.662
525.78	0.660
525.98	0.658
526.18	0.658
526.37	0.657
526.57	0.659
526.77	0.659
526.97	0.660
527.17	0.660
527.37	0.656
527.57	0.659
527.77	0.661
527.96	0.661
528.16	0.659
528.36	0.661
528.56	0.663
528.76	0.661
528.96	0.660
529.16	0.661
529.36	0.664
529.55	0.665
529.75	0.661
529.95	0.661
530.15	0.663
530.35	0.666
530.55	0.664
530.75	0.665
530.94	0.666
531.14	0.666
531.34	0.664
531.54	0.662
531.74	0.666
531.94	0.668
532.13	0.666
532.33	0.668
532.53	0.667
532.73	0.666
532.93	0.664
533.13	0.665
533.33	0.666
533.52	0.666
533.72	0.669
533.92	0.667
534.12	0.665
534.32	0.665
534.52	0.663
534.71	0.665
534.91	0.668
535.11	0.670
535.31	0.668
535.51	0.670
535.71	0.672
535.90	0.669
536.10	0.671
536.30	0.672
536.50	0.673
536.70	0.674
536.89	0.671
537.09	0.671
537.29	0.673
537.49	0.673
537.69	0.671
537.89	0.672
538.08	0.672
538.28	0.669
538.48	0.671
538.68	0.672
538.88	0.673
539.07	0.673
539.27	0.671
539.47	0.670
539.67	0.670
539.87	0.671
540.06	0.668
540.26	0.669
540.46	0.671
540.66	0.668
540.86	0.666
541.05	0.666
541.25	0.668
541.45	0.668
541.65	0.666
541.84	0.669
542.04	0.670
542.24	0.671
542.44	0.669
542.64	0.671
542.83	0.674
543.03	0.675
543.23	0.673
543.43	0.673
543.62	0.674
543.82	0.674
544.02	0.672
544.22	0.672
544.42	0.676
544.61	0.676
544.81	0.672
545.01	0.671
545.21	0.673
545.40	0.673
545.60	0.671
545.80	0.675
546.00	0.676
546.19	0.675
546.39	0.674
546.59	0.671
546.79	0.673
546.98	0.673
547.18	0.672
547.38	0.673
547.58	0.675
547.77	0.676
547.97	0.671
548.17	0.673
548.37	0.674
548.56	0.674
548.76	0.673
548.96	0.675
549.16	0.678
549.35	0.678
549.55	0.676
549.75	0.676
549.95	0.680
550.14	0.680
550.34	0.677
550.54	0.682
550.73	0.687
550.93	0.687
551.13	0.683
551.33	0.682
551.52	0.683
551.72	0.683
551.92	0.681
552.12	0.681
552.31	0.683
552.51	0.683
552.71	0.678
552.90	0.677
553.10	0.678
553.30	0.678
553.50	0.678
553.69	0.680
553.89	0.681
554.09	0.681
554.28	0.678
554.48	0.680
554.68	0.682
554.87	0.683
555.07	0.680
555.27	0.680
555.47	0.681
555.66	0.682
555.86	0.680
556.06	0.682
556.25	0.683
556.45	0.691
556.65	0.688
556.84	0.692
557.04	0.695
557.24	0.696
557.43	0.696
557.63	0.699
557.83	0.702
558.02	0.702
558.22	0.706
558.42	0.706
558.61	0.699
558.81	0.699
559.01	0.695
559.21	0.695
559.40	0.696
559.60	0.696
559.80	0.692
559.99	0.692
560.19	0.695
560.39	0.689
560.58	0.687
560.78	0.687
560.97	0.691
561.17	0.689
561.37	0.687
561.56	0.688
561.76	0.689
561.96	0.689
562.15	0.687
562.35	0.689
562.55	0.691
562.74	0.691
562.94	0.689
563.14	0.687
563.33	0.689
563.53	0.689
563.73	0.686
563.92	0.687
564.12	0.690
564.31	0.693
564.51	0.690
564.71	0.692
564.90	0.694
565.10	0.695
565.30	0.698
565.49	0.698
565.69	0.701
565.89	0.702
566.08	0.698
566.28	0.700
566.47	0.701
566.67	0.699
566.87	0.696
567.06	0.697
567.26	0.704
567.46	0.699
567.65	0.698
567.85	0.699
568.04	0.702
568.24	0.702
568.44	0.699
568.63	0.697
568.83	0.699
569.02	0.698
569.22	0.692
569.42	0.689
569.61	0.691
569.81	0.690
570.00	0.687
570.20	0.689
570.40	0.690
570.59	0.690
570.79	0.687
570.98	0.685
571.18	0.687
571.38	0.686
571.57	0.683
571.77	0.681
571.96	0.685
572.16	0.682
572.35	0.677
572.55	0.678
572.75	0.676
572.94	0.676
573.14	0.675
573.33	0.675
573.53	0.676
573.73	0.675
573.92	0.673
574.12	0.671
574.31	0.674
574.51	0.674
574.70	0.671
574.90	0.673
575.09	0.675
575.29	0.676
575.49	0.673
575.68	0.673
575.88	0.675
576.07	0.677
576.27	0.674
576.46	0.673
576.66	0.672
576.86	0.672
577.05	0.669
577.25	0.668
577.44	0.669
577.64	0.669
577.83	0.667
578.03	0.668
578.22	0.666
578.42	0.666
578.61	0.664
578.81	0.665
579.00	0.665
579.20	0.665
579.40	0.664
579.59	0.662
579.79	0.663
579.98	0.663
580.18	0.662
580.37	0.662
580.57	0.665
580.76	0.669
580.96	0.667
581.15	0.668
581.35	0.669
581.54	0.669
581.74	0.668
581.93	0.670
582.13	0.671
582.32	0.669
582.52	0.667
582.71	0.666
582.91	0.662
583.10	0.663
583.30	0.662
583.49	0.661
583.69	0.665
583.88	0.666
584.08	0.665
584.27	0.667
584.47	0.671
584.66	0.671
584.86	0.670
585.05	0.672
585.25	0.674
585.44	0.674
585.64	0.672
585.83	0.669
586.03	0.670
586.22	0.668
586.42	0.664
586.61	0.666
586.81	0.668
587.00	0.668
587.20	0.665
587.39	0.666
587.59	0.669
587.78	0.669
587.98	0.670
588.17	0.671
588.37	0.674
588.56	0.675
588.76	0.670
588.95	0.672
589.15	0.676
589.34	0.678
589.54	0.676
589.73	0.677
589.92	0.680
590.12	0.680
590.31	0.678
590.51	0.683
590.70	0.684
590.90	0.685
591.09	0.683
591.29	0.681
591.48	0.681
591.68	0.683
591.87	0.681
592.06	0.681
592.26	0.683
592.45	0.683
592.65	0.676
592.84	0.676
593.04	0.679
593.23	0.680
593.43	0.678
593.62	0.677
593.81	0.678
594.01	0.677
594.20	0.675
594.40	0.674
594.59	0.677
594.79	0.678
594.98	0.676
595.17	0.675
595.37	0.676
595.56	0.678
595.76	0.677
595.95	0.679
596.14	0.681
596.34	0.682
596.53	0.680
596.73	0.682
596.92	0.684
597.12	0.687
597.31	0.686
597.50	0.685
597.70	0.688
597.89	0.687
598.09	0.683
598.28	0.684
598.47	0.687
598.67	0.685
598.86	0.681
599.06	0.683
599.25	0.683
599.44	0.682
599.64	0.679
599.83	0.676
600.03	0.680
600.22	0.681
600.41	0.681
600.61	0.678
600.80	0.682
601.00	0.682
601.19	0.678
601.38	0.676
601.58	0.678
601.77	0.680
601.96	0.682
602.16	0.682
602.35	0.691
602.55	0.689
602.74	0.689
602.93	0.690
603.13	0.696
603.32	0.697
603.51	0.697
603.71	0.700
603.90	0.702
604.09	0.702
604.29	0.699
604.48	0.693
604.68	0.694
604.87	0.693
605.06	0.690
605.26	0.687
605.45	0.687
605.64	0.687
605.84	0.682
606.03	0.682
606.22	0.681
606.42	0.680
606.61	0.676
606.80	0.676
607.00	0.678
607.19	0.678
607.38	0.677
607.58	0.678
607.77	0.681
607.96	0.681
608.16	0.679
608.35	0.684
608.54	0.688
608.74	0.691
608.93	0.696
609.12	0.699
609.32	0.702
609.51	0.705
609.70	0.704
609.90	0.706
610.09	0.710
610.28	0.715
610.48	0.709
610.67	0.709
610.86	0.709
611.06	0.703
611.25	0.700
611.44	0.701
611.64	0.701
611.83	0.703
612.02	0.699
612.21	0.698
612.41	0.697
612.60	0.696
612.79	0.692
612.99	0.692
613.18	0.694
613.37	0.691
613.57	0.688
613.76	0.690
613.95	0.688
614.14	0.688
614.34	0.684
614.53	0.685
614.72	0.689
614.92	0.690
615.11	0.687
615.30	0.684
615.49	0.687
615.69	0.690
615.88	0.685
616.07	0.687
616.26	0.690
616.46	0.691
616.65	0.688
616.84	0.687
617.04	0.688
617.23	0.692
617.42	0.693
617.61	0.696
617.81	0.697
618.00	0.698
618.19	0.696
618.38	0.700
618.58	0.703
618.77	0.705
618.96	0.703
619.15	0.706
619.35	0.707
619.54	0.708
619.73	0.703
619.92	0.705
620.12	0.710
620.31	0.712
620.50	0.706
620.69	0.707
620.89	0.711
621.08	0.710
621.27	0.710
621.46	0.708
621.66	0.713
621.85	0.713
622.04	0.708
622.23	0.709
622.43	0.710
622.62	0.710
622.81	0.709
623.00	0.708
623.19	0.713
623.39	0.711
623.58	0.708
623.77	0.707
623.96	0.710
624.16	0.710
624.35	0.704
624.54	0.707
624.73	0.712
624.92	0.709
625.12	0.707
625.31	0.707
625.50	0.711
625.69	0.712
625.88	0.707
626.08	0.708
626.27	0.710
626.46	0.711
626.65	0.707
626.84	0.708
627.04	0.714
627.23	0.713
627.42	0.708
627.61	0.710
627.80	0.713
628.00	0.713
628.19	0.711
628.38	0.715
628.57	0.717
628.76	0.718
628.96	0.713
629.15	0.714
629.34	0.717
629.53	0.717
629.72	0.710
629.91	0.710
630.11	0.716
630.30	0.716
630.49	0.717
630.68	0.718
630.87	0.721
631.06	0.724
631.26	0.718
631.45	0.721
631.64	0.730
631.83	0.733
632.02	0.731
632.21	0.730
632.41	0.736
632.60	0.731
632.79	0.728
632.98	0.729
633.17	0.730
633.36	0.732
633.55	0.727
633.75	0.723
633.94	0.725
634.13	0.726
634.32	0.722
634.51	0.717
634.70	0.720
634.89	0.721
635.09	0.717
635.28	0.719
635.47	0.720
635.66	0.723
635.85	0.719
636.04	0.721
636.23	0.726
636.43	0.727
636.62	0.726
636.81	0.726
637.00	0.728
637.19	0.732
637.38	0.727
637.57	0.727
637.76	0.728
637.95	0.730
638.15	0.724
638.34	0.721
638.53	0.725
638.72	0.727
638.91	0.723
639.10	0.721
639.29	0.721
639.48	0.722
639.67	0.722
639.87	0.720
640.06	0.725
640.25	0.726
640.44	0.727
640.63	0.726
640.82	0.729
641.01	0.729
641.20	0.728
641.39	0.730
641.58	0.733
641.78	0.732
641.97	0.727
642.16	0.742
642.35	0.744
642.54	0.742
642.73	0.736
642.92	0.735
643.11	0.739
643.30	0.739
643.49	0.733
643.68	0.735
643.87	0.738
644.06	0.738
644.25	0.716
644.45	0.718
644.64	0.720
644.83	0.720
645.02	0.717
645.21	0.716
645.40	0.718
645.59	0.718
645.78	0.712
645.97	0.713
646.16	0.715
646.35	0.715
646.54	0.713
646.73	0.713
646.92	0.716
647.11	0.715
647.30	0.710
647.49	0.712
647.68	0.713
647.88	0.711
648.07	0.704
648.26	0.707
648.45	0.709
648.64	0.706
648.83	0.703
649.02	0.706
649.21	0.716
649.40	0.715
649.59	0.710
649.78	0.711
649.97	0.727
650.16	0.726
650.35	0.719
650.54	0.721
650.73	0.731
650.92	0.727
651.11	0.720
651.30	0.717
651.49	0.722
651.68	0.722
651.87	0.718
652.06	0.707
652.25	0.711
652.44	0.714
652.63	0.709
652.82	0.707
653.01	0.708
653.20	0.705
653.39	0.692
653.58	0.690
653.77	0.689
653.96	0.685
654.15	0.677
654.34	0.675
654.53	0.670
654.72	0.665
654.91	0.656
655.10	0.652
655.29	0.651
655.48	0.649
655.67	0.644
655.86	0.642
656.05	0.640
656.24	0.640
656.43	0.635
656.62	0.634
656.81	0.634
657.00	0.633
657.19	0.630
657.38	0.630
657.57	0.629
657.76	0.631
657.95	0.629
658.14	0.632
658.33	0.636
658.51	0.641
658.70	0.642
658.89	0.643
659.08	0.652
659.27	0.659
659.46	0.659
659.65	0.666
659.84	0.670
660.03	0.673
660.22	0.674
660.41	0.679
660.60	0.677
660.79	0.679
660.98	0.685
661.17	0.684
661.36	0.683
661.55	0.685
661.74	0.682
661.92	0.685
662.11	0.687
662.30	0.686
662.49	0.678
662.68	0.678
662.87	0.682
663.06	0.676
663.25	0.677
663.44	0.678
663.63	0.679
663.82	0.676
664.01	0.672
664.20	0.670
664.38	0.672
664.57	0.672
664.76	0.671
664.95	0.672
665.14	0.677
665.33	0.671
665.52	0.678
665.71	0.682
665.90	0.682
666.09	0.684
666.28	0.681
666.46	0.679
666.65	0.681
666.84	0.680
667.03	0.673
667.22	0.670
667.41	0.674
667.60	0.664
667.79	0.658
667.98	0.659
668.16	0.660
668.35	0.660
668.54	0.656
668.73	0.657
668.92	0.658
669.11	0.658
669.30	0.652
669.49	0.648
669.67	0.650
669.86	0.652
670.05	0.648
670.24	0.646
670.43	0.644
670.62	0.643
670.81	0.637
671.00	0.638
671.18	0.638
671.37	0.637
671.56	0.635
671.75	0.633
671.94	0.631
672.13	0.629
672.32	0.624
672.50	0.623
672.69	0.623
672.88	0.623
673.07	0.618
673.26	0.621
673.45	0.622
673.63	0.622
673.82	0.619
674.01	0.619
674.20	0.619
674.39	0.618
674.58	0.618
674.76	0.617
674.95	0.616
675.14	0.617
675.33	0.612
675.52	0.610
675.71	0.611
675.89	0.610
676.08	0.606
676.27	0.606
676.46	0.608
676.65	0.607
676.84	0.607
677.02	0.608
677.21	0.610
677.40	0.610
677.59	0.607
677.78	0.608
677.96	0.610
678.15	0.609
678.34	0.606
678.53	0.607
678.72	0.607
678.90	0.604
679.09	0.600
679.28	0.596
679.47	0.597
679.66	0.596
679.84	0.592
680.03	0.590
680.22	0.590
680.41	0.591
680.60	0.587
680.78	0.587
680.97	0.589
681.16	0.589
681.35	0.588
681.53	0.587
681.72	0.588
681.91	0.591
682.10	0.589
682.29	0.592
682.47	0.589
682.66	0.589
682.85	0.587
683.04	0.585
683.22	0.586
683.41	0.587
683.60	0.587
683.79	0.587
683.97	0.586
684.16	0.585
684.35	0.580
684.54	0.582
684.72	0.582
684.91	0.582
685.10	0.580
685.29	0.581
685.47	0.579
685.66	0.577
685.85	0.574
686.04	0.573
686.22	0.576
686.41	0.579
686.60	0.576
686.79	0.579
686.97	0.580
687.16	0.582
687.35	0.578
687.54	0.582
687.72	0.586
687.91	0.586
688.10	0.588
688.29	0.587
688.47	0.585
688.66	0.584
688.85	0.580
689.03	0.577
689.22	0.582
689.41	0.583
689.60	0.578
689.78	0.575
689.97	0.577
690.16	0.574
690.34	0.569
690.53	0.570
690.72	0.571
690.91	0.569
691.09	0.567
691.28	0.561
691.47	0.558
691.65	0.558
691.84	0.555
692.03	0.553
692.21	0.551
692.40	0.551
692.59	0.548
692.77	0.547
692.96	0.549
693.15	0.550
693.34	0.548
693.52	0.548
693.71	0.549
693.90	0.550
694.08	0.551
694.27	0.553
694.46	0.563
694.64	0.564
694.83	0.563
695.02	0.561
695.20	0.561
695.39	0.561
695.58	0.560
695.76	0.562
695.95	0.562
696.14	0.561
696.32	0.558
696.51	0.548
696.70	0.548
696.88	0.549
697.07	0.547
697.26	0.549
697.44	0.550
697.63	0.549
697.81	0.546
698.00	0.545
698.19	0.544
698.37	0.545
698.56	0.544
698.75	0.545
698.93	0.545
699.12	0.544
699.31	0.542
699.49	0.541
699.68	0.542
699.87	0.545
700.05	0.545
700.24	0.544
700.42	0.546
700.61	0.545
700.80	0.543
700.98	0.543
701.17	0.545
701.36	0.545
701.54	0.544
701.73	0.545
701.91	0.542
702.10	0.542
702.29	0.539
702.47	0.538
702.66	0.541
702.84	0.542
703.03	0.540
703.22	0.541
703.40	0.541
703.59	0.542
703.77	0.541
703.96	0.542
704.15	0.543
704.33	0.543
704.52	0.542
704.70	0.541
704.89	0.541
705.08	0.539
705.26	0.535
705.45	0.535
705.63	0.535
705.82	0.532
706.00	0.530
706.19	0.530
706.38	0.530
706.56	0.531
706.75	0.528
706.93	0.527
707.12	0.529
707.30	0.529
707.49	0.527
707.68	0.524
707.86	0.525
708.05	0.524
708.23	0.522
708.42	0.522
708.60	0.524
708.79	0.524
708.98	0.523
709.16	0.522
709.35	0.524
709.53	0.528
709.72	0.527
709.90	0.529
710.09	0.532
710.27	0.533
710.46	0.537
710.64	0.535
710.83	0.537
711.02	0.538
711.20	0.536
711.39	0.534
711.57	0.532
711.76	0.532
711.94	0.530
712.13	0.530
712.31	0.530
712.50	0.525
712.68	0.523
712.87	0.524
713.05	0.525
713.24	0.525
713.42	0.524
713.61	0.525
713.79	0.527
713.98	0.527
714.16	0.528
714.35	0.527
714.54	0.529
714.72	0.528
714.91	0.526
715.09	0.532
715.28	0.536
715.46	0.536
715.65	0.533
715.83	0.533
716.02	0.535
716.20	0.532
716.39	0.531
716.57	0.533
716.76	0.535
716.94	0.535
717.12	0.527
717.31	0.528
717.49	0.531
717.68	0.533
717.86	0.532
718.05	0.533
718.23	0.536
718.42	0.539
718.60	0.540
718.79	0.548
718.97	0.551
719.16	0.551
719.34	0.549
719.53	0.549
719.71	0.550
719.90	0.552
720.08	0.550
720.27	0.550
720.45	0.551
720.63	0.549
720.82	0.543
721.00	0.546
721.19	0.550
721.37	0.550
721.56	0.549
721.74	0.552
721.93	0.560
722.11	0.568
722.30	0.566
722.48	0.570
722.66	0.571
722.85	0.570
723.03	0.570
723.22	0.568
723.40	0.572
723.59	0.572
723.77	0.575
723.95	0.569
724.14	0.570
724.32	0.572
724.51	0.571
724.69	0.574
724.88	0.575
725.06	0.572
725.24	0.573
725.43	0.575
725.61	0.579
725.80	0.573
725.98	0.570
726.16	0.566
726.35	0.574
726.53	0.571
726.72	0.569
726.90	0.580
727.09	0.582
727.27	0.588
727.45	0.584
727.64	0.593
727.82	0.603
728.01	0.607
728.19	0.605
728.37	0.611
728.56	0.617
728.74	0.623
728.92	0.610
729.11	0.612
729.29	0.611
729.48	0.614
729.66	0.604
729.84	0.603
730.03	0.607
730.21	0.610
730.40	0.598
730.58	0.600
730.76	0.600
730.95	0.602
731.13	0.602
731.31	0.616
731.50	0.625
731.68	0.628
731.86	0.623
732.05	0.637
732.23	0.640
732.42	0.643
732.60	0.647
732.78	0.651
732.97	0.673
733.15	0.679
733.33	0.666
733.52	0.673
733.70	0.686
733.88	0.695
734.07	0.680
734.25	0.708
734.43	0.719
734.62	0.721
734.80	0.715
734.98	0.705
735.17	0.713
735.35	0.721
735.53	0.707
735.72	0.711
735.90	0.732
736.08	0.755
736.27	0.729
736.45	0.738
736.63	0.752
736.82	0.766
737.00	0.766
737.18	0.778
737.37	0.813
737.55	0.841
737.73	0.835
737.92	0.841
738.10	0.839
738.28	0.862
738.46	0.846
738.65	0.859
738.83	0.884
739.01	0.942
739.20	0.929
739.38	0.910
739.56	0.903
739.75	0.906
739.93	0.868
740.11	0.896
740.29	0.897
740.48	0.908
740.66	0.886
740.84	0.879
741.03	0.845
741.21	0.859
741.39	0.837
741.57	0.851
741.76	0.875
741.94	0.882
742.12	0.840
742.31	0.849
742.49	0.871
742.67	0.898
742.85	0.915
743.04	0.913
743.22	0.928
743.40	0.990
743.58	0.968
743.77	0.988
743.95	1.033
744.13	1.096
744.31	1.072
744.50	1.066
744.68	1.066
744.86	1.033
745.04	1.053
745.23	1.133
745.41	1.115
745.59	1.120
745.77	1.069
745.96	1.056
746.14	1.072
746.32	1.069
746.50	1.055
746.69	1.038
746.87	1.058
747.05	1.036
747.23	0.949
747.42	0.935
747.60	0.970
747.78	0.974
747.96	1.006
748.14	0.945
748.33	0.982
748.51	0.974
748.69	0.961
748.87	0.994
749.06	0.999
749.24	0.994
749.42	0.968
749.60	0.947
749.78	0.961
749.97	0.907
750.15	0.902
750.33	0.903
750.51	0.937
750.69	0.945
750.88	0.942
751.06	0.953
751.24	0.986
751.42	0.981
751.60	0.964
751.79	1.047
751.97	1.115
752.15	1.114
752.33	1.065
752.51	1.145
752.69	1.170
752.88	1.126
753.06	1.175
753.24	1.142
753.42	1.198
753.60	1.456
753.78	1.236
753.97	1.255
754.15	1.293
754.33	1.343
754.51	1.158
754.69	1.132
754.87	1.169
755.06	1.077
755.24	1.074
755.42	1.078
755.60	0.961
755.78	0.970
755.96	0.907
756.15	0.904
756.33	0.914
756.51	0.934
756.69	0.917
756.87	0.882
757.05	0.904
757.23	0.884
757.42	0.846
757.60	0.844
757.78	0.832
757.96	0.828
758.14	0.808
758.32	0.790
758.50	0.806
758.69	0.806
758.87	0.797
759.05	0.804
759.23	0.820
759.41	0.817
759.59	0.808
759.77	0.836
759.95	0.869
760.13	0.927
760.32	0.919
760.50	0.912
760.68	0.941
760.86	0.942
761.04	0.906
761.22	0.906
761.40	0.966
761.58	0.969
761.76	0.932
761.95	0.910
762.13	0.861
762.31	0.866
762.49	0.830
762.67	0.848
762.85	0.862
763.03	0.857
763.21	0.835
763.39	0.814
763.57	0.814
763.75	0.805
763.94	0.787
764.12	0.787
764.30	0.812
764.48	0.818
764.66	0.777
764.84	0.778
765.02	0.822
765.20	0.831
765.38	0.809
765.56	0.817
765.74	0.866
765.92	0.865
766.10	0.873
766.28	0.867
766.46	0.901
766.65	0.903
766.83	0.883
767.01	0.865
767.19	0.873
767.37	0.872
767.55	0.857
767.73	0.833
767.91	0.839
768.09	0.824
768.27	0.806
768.45	0.799
768.63	0.808
768.81	0.811
768.99	0.780
769.17	0.806
769.35	0.824
769.53	0.824
769.71	0.803
769.89	0.815
770.07	0.823
770.25	0.807
770.43	0.779
770.61	0.801
770.79	0.812
770.97	0.820
771.15	0.785
771.33	0.789
771.51	0.793
771.69	0.806
771.87	0.811
772.05	0.818
772.24	0.828
772.42	0.838
772.60	0.812
772.78	0.875
772.96	0.912
773.14	0.908
773.32	0.881
773.49	0.889
773.67	0.886
773.85	0.863
774.03	0.849
774.21	0.886
774.39	0.901
774.57	0.930
774.75	0.847
774.93	0.843
775.11	0.867
775.29	0.872
775.47	0.871
775.65	0.883
775.83	0.903
776.01	0.930
776.19	0.873
776.37	0.876
776.55	0.877
776.73	0.870
776.91	0.860
777.09	0.841
777.27	0.846
777.45	0.836
777.63	0.812
777.81	0.809
777.99	0.794
778.17	0.793
778.35	0.770
778.53	0.760
778.71	0.770
778.89	0.756
779.07	0.744
779.24	0.748
779.42	0.750
779.60	0.766
779.78	0.759
779.96	0.767
780.14	0.775
780.32	0.794
780.50	0.770
780.68	0.769
780.86	0.761
781.04	0.780
781.22	0.784
781.40	0.795
781.58	0.787
781.75	0.780
781.93	0.760
782.11	0.764
782.29	0.751
782.47	0.752
782.65	0.739
782.83	0.768
783.01	0.762
783.19	0.752
783.37	0.736
783.55	0.739
783.72	0.759
783.90	0.770
784.08	0.756
784.26	0.770
784.44	0.792
784.62	0.794
784.80	0.759
784.98	0.767
785.16	0.774
785.33	0.791
785.51	0.776
785.69	0.763
785.87	0.764
786.05	0.777
786.23	0.769
786.41	0.768
786.59	0.777
786.77	0.776
786.94	0.757
787.12	0.761
787.30	0.763
787.48	0.760
787.66	0.746
787.84	0.745
788.02	0.737
788.19	0.734
788.37	0.716
788.55	0.718
788.73	0.718
788.91	0.713
789.09	0.694
789.27	0.681
789.44	0.693
789.62	0.700
789.80	0.707
789.98	0.733
790.16	0.720
790.34	0.719
790.51	0.704
790.69	0.727
790.87	0.736
791.05	0.734
791.23	0.727
791.41	0.728
791.58	0.736
791.76	0.716
791.94	0.683
792.12	0.692
792.30	0.692
792.48	0.689
792.65	0.681
792.83	0.687
793.01	0.696
793.19	0.695
793.37	0.678
793.54	0.676
793.72	0.688
793.90	0.687
794.08	0.675
794.26	0.679
794.43	0.692
794.61	0.674
794.79	0.660
794.97	0.658
795.15	0.663
795.32	0.667
795.50	0.655
795.68	0.650
795.86	0.655
796.04	0.658
796.21	0.648
796.39	0.645
796.57	0.662
796.75	0.671
796.92	0.671
797.10	0.676
797.28	0.679
797.46	0.680
797.64	0.681
797.81	0.686
797.99	0.689
798.17	0.695
798.35	0.688
798.52	0.689
798.70	0.686
798.88	0.694
799.06	0.692
799.23	0.696
799.41	0.705
799.59	0.698
799.77	0.688
799.94	0.697
800.12	0.709
800.30	0.726
800.48	0.726
800.65	0.727
800.83	0.718
801.01	0.709
801.19	0.707
801.36	0.703
801.54	0.706
801.72	0.716
801.90	0.702
802.07	0.696
802.25	0.682
802.43	0.664
802.60	0.658
802.78	0.666
802.96	0.673
803.14	0.669
803.31	0.668
803.49	0.669
803.67	0.663
803.84	0.669
804.02	0.660
804.20	0.662
804.38	0.671
804.55	0.671
804.73	0.654
804.91	0.653
805.08	0.665
805.26	0.659
805.44	0.730
805.61	0.736
805.79	0.737
805.97	0.738
806.15	0.727
806.32	0.719
806.50	0.726
806.68	0.727
806.85	0.716
807.03	0.706
807.21	0.724
807.38	0.648
807.56	0.636
807.74	0.645
807.91	0.653
808.09	0.656
808.27	0.674
808.44	0.702
808.62	0.714
808.80	0.718
808.97	0.712
809.15	0.707
809.33	0.726
809.50	0.733
809.68	0.716
809.86	0.723
810.03	0.759
810.21	0.739
810.39	0.717
810.56	0.722
810.74	0.747
810.91	0.827
811.09	0.815
811.27	0.838
811.44	0.849
811.62	0.853
811.80	0.831
811.97	0.798
812.15	0.797
812.33	0.791
812.50	0.776
812.68	0.763
812.85	0.702
813.03	0.705
813.21	0.671
813.38	0.665
813.56	0.670
813.74	0.683
813.91	0.690
814.09	0.722
814.26	0.718
814.44	0.721
814.62	0.711
814.79	0.713
814.97	0.720
815.14	0.727
815.32	0.729
815.50	0.749
815.67	0.752
815.85	0.742
816.02	0.726
816.20	0.734
816.38	0.752
816.55	0.758
816.73	0.759
816.90	0.770
817.08	0.803
817.26	0.812
817.43	0.783
817.61	0.808
817.78	0.831
817.96	0.813
818.13	0.799
818.31	0.798
818.49	0.814
818.66	0.803
818.84	0.785
819.01	0.762
819.19	0.769
819.36	0.775
819.54	0.741
819.71	0.788
819.89	0.800
820.07	0.814
820.24	0.806
820.42	0.808
820.59	0.830
820.77	0.856
820.94	0.843
821.12	0.865
821.29	0.881
821.47	0.884
821.64	0.811
821.82	0.828
822.00	0.828
822.17	0.824
822.35	0.815
822.52	0.818
822.70	0.810
822.87	0.825
823.05	0.803
823.22	0.819
823.40	0.855
823.57	0.886
823.75	0.866
823.92	0.898
824.10	0.929
824.27	0.983
824.45	0.963
824.62	1.043
824.80	1.066
824.97	1.079
825.15	1.062
825.32	1.079
825.50	1.078
825.67	1.096
825.85	1.061
826.02	1.098
826.20	1.137
826.37	1.352
826.55	1.209
826.72	1.574
826.90	1.835
827.07	2.057
827.25	1.801
827.42	-0.000
827.60	-0.000
827.77	-0.000
827.95	-0.000
828.12	-0.000
828.30	-0.000
828.47	-0.000
828.65	1.857
828.82	2.296
829.00	-0.000
829.17	-0.000
829.34	-0.000
829.52	-0.000
829.69	-0.000
829.87	-0.000
830.04	-0.000
830.22	-0.000
830.39	-0.000
830.57	-0.000
830.74	-0.000
830.92	-0.000
831.09	-0.000
831.26	-0.000
831.44	-0.000
831.61	-0.000
831.79	-0.000
831.96	-0.000
832.14	-0.000
832.31	-0.000
832.49	-0.000
832.66	-0.000
832.83	-0.000
833.01	-0.000
833.18	-0.000
833.36	-0.000
833.53	-0.000
833.70	-0.000
833.88	-0.000
834.05	-0.000
834.23	-0.000
834.40	-0.000
834.58	-0.000
834.75	-0.000
834.92	-0.000
835.10	-0.000
835.27	-0.000
835.45	-0.000
835.62	-0.000
835.79	-0.000
835.97	-0.000
836.14	-0.000
836.32	-0.000
836.49	-0.000
836.66	-0.000
836.84	-0.000
837.01	-0.000
837.18	-0.000
837.36	-0.000
837.53	-0.000
837.71	-0.000
837.88	-0.000
838.05	-0.000
838.23	-0.000
838.40	-0.000
838.58	-0.000
838.75	-0.000
838.92	-0.000
839.10	-0.000
839.27	-0.000
839.44	-0.000
839.62	-0.000
839.79	-0.000
839.96	-0.000
840.14	-0.000
840.31	-0.000
840.48	-0.000
840.66	-0.000
840.83	-0.000
841.01	-0.000
841.18	-0.000
841.35	-0.000
841.53	-0.000
841.70	-0.000
841.87	-0.000
842.05	-0.000
842.22	-0.000
842.39	-0.000
842.57	-0.000
842.74	-0.000
842.91	-0.000
843.09	-0.000
843.26	-0.000
843.43	-0.000
843.60	-0.000
843.78	-0.000
843.95	-0.000
844.12	-0.000
844.30	-0.000
844.47	-0.000
844.64	-0.000
844.82	-0.000
844.99	-0.000
845.16	-0.000
845.34	-0.000
845.51	-0.000
845.68	-0.000
845.85	-0.000
846.03	-0.000
846.20	-0.000
846.37	-0.000
846.55	-0.000
846.72	-0.000
846.89	-0.000
847.06	-0.000
847.24	-0.000
847.41	-0.000
847.58	-0.000
847.76	-0.000
847.93	-0.000
848.10	-0.000
848.27	-0.000
848.45	-0.000
848.62	-0.000
848.79	-0.000
848.97	-0.000
849.14	-0.000
849.31	-0.000
849.48	-0.000
849.66	-0.000
849.83	-0.000
850.00	-0.000
850.17	-0.000
850.35	-0.000
850.52	-0.000
850.69	-0.000
850.86	-0.000
851.04	-0.000
851.21	-0.000
851.38	-0.000
851.55	-0.000
851.72	-0.000
851.90	-0.000
852.07	-0.000
852.24	-0.000
852.41	-0.000
852.59	-0.000
852.76	-0.000
852.93	-0.000
853.10	-0.000
853.28	-0.000
853.45	-0.000
853.62	-0.000
853.79	-0.000
853.96	-0.000
854.14	-0.000
854.31	-0.000
854.48	-0.000
854.65	-0.000
854.82	-0.000
855.00	-0.000
855.17	-0.000
855.34	-0.000
855.51	-0.000
855.68	-0.000
855.86	-0.000
856.03	-0.000
856.20	-0.000
856.37	-0.000
856.54	-0.000
856.72	-0.000
856.89	-0.000
857.06	-0.000
857.23	-0.000
857.40	-0.000
857.57	-0.000
857.75	-0.000
857.92	-0.000
858.09	-0.000
858.26	-0.000
858.43	-0.000
858.60	-0.000
858.78	-0.000
858.95	-0.000
859.12	-0.000
859.29	-0.000
859.46	-0.000
859.63	-0.000
859.81	-0.000
859.98	-0.000
860.15	-0.000
860.32	-0.000
860.49	-0.000
860.66	-0.000
860.83	-0.000
861.01	-0.000
861.18	-0.000
861.35	-0.000
861.52	-0.000
861.69	-0.000
861.86	-0.000
862.03	-0.000
862.21	-0.000
862.38	-0.000
862.55	-0.000
862.72	-0.000
862.89	-0.000
863.06	-0.000
863.23	-0.000
863.40	-0.000
863.58	-0.000
863.75	-0.000
863.92	-0.000
864.09	-0.000
864.26	-0.000
864.43	-0.000
864.60	-0.000
864.77	-0.000
864.94	-0.000
865.11	-0.000
865.29	-0.000
865.46	-0.000
865.63	-0.000
865.80	-0.000
865.97	-0.000
866.14	-0.000
866.31	-0.000
866.48	-0.000
866.65	-0.000
866.82	-0.000
866.99	-0.000
867.16	-0.000
867.34	-0.000
867.51	-0.000
867.68	-0.000
867.85	-0.000
868.02	-0.000
868.19	-0.000
868.36	-0.000
868.53	-0.000
868.70	-0.000
868.87	-0.000
869.04	-0.000
869.21	-0.000
869.38	-0.000
869.55	-0.000
869.72	-0.000
869.89	-0.000
870.06	-0.000
870.24	-0.000
870.41	-0.000
870.58	-0.000
870.75	-0.000
870.92	-0.000
871.09	-0.000
871.26	-0.000
871.43	-0.000
871.60	-0.000
871.77	-0.000
871.94	-0.000
872.11	-0.000
872.28	-0.000
872.45	-0.000
872.62	-0.000
872.79	-0.000
872.96	-0.000
873.13	-0.000
873.30	-0.000
873.47	-0.000
873.64	-0.000
873.81	-0.000
873.98	-0.000
874.15	-0.000
874.32	-0.000
874.49	-0.000
874.66	-0.000
874.83	-0.000
875.00	-0.000
875.17	-0.000
875.34	-0.000
875.51	-0.000
875.68	-0.000
875.85	-0.000
876.02	-0.000
876.19	-0.000
876.36	-0.000
876.53	-0.000
876.70	-0.000
876.87	-0.000
877.04	-0.000
877.21	-0.000
877.38	-0.000
877.55	-0.000
877.72	-0.000
877.89	-0.000
878.06	-0.000
878.23	-0.000
878.39	-0.000
878.56	-0.000
878.73	-0.000
878.90	-0.000
879.07	-0.000
879.24	-0.000
879.41	-0.000
879.58	-0.000
879.75	-0.000
879.92	-0.000
880.09	-0.000
880.26	-0.000
880.43	-0.000
880.60	-0.000
880.77	-0.000
880.94	-0.000
881.11	-0.000
881.27	-0.000
881.44	-0.000
881.61	-0.000
881.78	-0.000
881.95	-0.000
882.12	-0.000
882.29	-0.000
882.46	-0.000
882.63	-0.000
882.80	-0.000
882.97	-0.000
883.14	-0.000
883.30	-0.000
883.47	-0.000
883.64	-0.000
883.81	-0.000
883.98	-0.000
884.15	-0.000
884.32	-0.000
884.49	-0.000
884.66	-0.000
884.82	-0.000
884.99	-0.000
885.16	-0.000
885.33	-0.000
885.50	-0.000
885.67	-0.000
885.84	-0.000
886.01	-0.000
886.17	-0.000
886.34	-0.000
886.51	-0.000
886.68	-0.000
886.85	-0.000
887.02	-0.000
887.19	-0.000
887.36	-0.000
887.52	-0.000
887.69	-0.000
887.86	-0.000
888.03	-0.000
888.20	-0.000
888.37	-0.000
888.54	-0.000
888.70	-0.000
888.87	-0.000
889.04	-0.000
889.21	-0.000
889.38	-0.000
889.55	-0.000
889.71	-0.000
889.88	-0.000
890.05	-0.000
890.22	-0.000
890.39	-0.000
>>>>>End Processed Spectral Data<<<<<
