SpectraSuite Data File
++++++++++++++++++++++++++++++++++++
Date: Fri Jun 19 13:17:01 CEST 2015
User: introlabs
Dark Spectrum Present: Yes
Reference Spectrum Present: Yes
Number of Sampled Component Spectra: 1
Spectrometers: USB4H08886
Integration Time (usec): 745692 (USB4H08886)
Spectra Averaged: 5 (USB4H08886)
Boxcar Smoothing: 5 (USB4H08886)
Correct for Electrical Dark: Yes (USB4H08886)
Strobe/Lamp Enabled: No (USB4H08886)
Correct for Detector Non-linearity: Yes (USB4H08886)
Correct for Stray Light: Yes (USB4H08886)
Number of Pixels in Processed Spectrum: 3648
>>>>>Begin Processed Spectral Data<<<<<
178.14	-0.000
178.36	-0.000
178.57	-0.000
178.79	-0.000
179.01	-0.000
179.22	-0.000
179.44	-0.000
179.65	-0.000
179.87	-0.000
180.08	-0.000
180.30	-0.000
180.52	-0.000
180.73	-0.000
180.95	-0.000
181.16	-0.000
181.38	-0.000
181.59	-0.000
181.81	-0.000
182.03	-0.000
182.24	-0.000
182.46	-0.000
182.67	-0.000
182.89	-0.000
183.10	-0.000
183.32	-0.000
183.54	-0.000
183.75	-0.000
183.97	-0.000
184.18	-0.000
184.40	-0.000
184.61	-0.000
184.83	-0.000
185.04	-0.000
185.26	-0.000
185.48	-0.000
185.69	-0.000
185.91	-0.000
186.12	-0.000
186.34	-0.000
186.55	-0.000
186.77	-0.000
186.98	-0.000
187.20	-0.000
187.42	-0.000
187.63	-0.000
187.85	-0.000
188.06	-0.000
188.28	-0.000
188.49	-0.000
188.71	-0.000
188.92	-0.000
189.14	-0.000
189.36	-0.000
189.57	-0.000
189.79	-0.000
190.00	-0.000
190.22	-0.000
190.43	-0.000
190.65	-0.000
190.86	-0.000
191.08	-0.000
191.29	-0.000
191.51	-0.000
191.72	-0.000
191.94	-0.000
192.16	-0.000
192.37	-0.000
192.59	-0.000
192.80	-0.000
193.02	-0.000
193.23	-0.000
193.45	-0.000
193.66	-0.000
193.88	-0.000
194.09	-0.000
194.31	-0.000
194.52	-0.000
194.74	-0.000
194.95	-0.000
195.17	-0.000
195.38	-0.000
195.60	-0.000
195.81	-0.000
196.03	-0.000
196.25	-0.000
196.46	-0.000
196.68	-0.000
196.89	-0.000
197.11	-0.000
197.32	-0.000
197.54	-0.000
197.75	-0.000
197.97	-0.000
198.18	-0.000
198.40	-0.000
198.61	-0.000
198.83	-0.000
199.04	-0.000
199.26	-0.000
199.47	-0.000
199.69	-0.000
199.90	-0.000
200.12	-0.000
200.33	-0.000
200.55	-0.000
200.76	-0.000
200.98	-0.000
201.19	-0.000
201.41	-0.000
201.62	-0.000
201.84	-0.000
202.05	-0.000
202.27	-0.000
202.48	-0.000
202.70	-0.000
202.91	-0.000
203.13	-0.000
203.34	-0.000
203.56	-0.000
203.77	-0.000
203.99	-0.000
204.20	-0.000
204.42	-0.000
204.63	-0.000
204.85	-0.000
205.06	-0.000
205.28	-0.000
205.49	-0.000
205.71	-0.000
205.92	-0.000
206.14	-0.000
206.35	-0.000
206.56	-0.000
206.78	-0.000
206.99	-0.000
207.21	-0.000
207.42	-0.000
207.64	-0.000
207.85	-0.000
208.07	-0.000
208.28	-0.000
208.50	-0.000
208.71	-0.000
208.93	-0.000
209.14	-0.000
209.36	-0.000
209.57	-0.000
209.79	-0.000
210.00	-0.000
210.22	-0.000
210.43	-0.000
210.64	-0.000
210.86	-0.000
211.07	-0.000
211.29	-0.000
211.50	-0.000
211.72	-0.000
211.93	-0.000
212.15	-0.000
212.36	-0.000
212.58	-0.000
212.79	-0.000
213.01	-0.000
213.22	-0.000
213.43	-0.000
213.65	-0.000
213.86	-0.000
214.08	-0.000
214.29	-0.000
214.51	-0.000
214.72	-0.000
214.94	-0.000
215.15	-0.000
215.36	-0.000
215.58	-0.000
215.79	-0.000
216.01	-0.000
216.22	-0.000
216.44	-0.000
216.65	-0.000
216.87	-0.000
217.08	-0.000
217.29	-0.000
217.51	-0.000
217.72	-0.000
217.94	-0.000
218.15	-0.000
218.37	-0.000
218.58	-0.000
218.80	-0.000
219.01	-0.000
219.22	-0.000
219.44	-0.000
219.65	-0.000
219.87	-0.000
220.08	-0.000
220.30	-0.000
220.51	-0.000
220.72	-0.000
220.94	-0.000
221.15	-0.000
221.37	-0.000
221.58	-0.000
221.79	-0.000
222.01	-0.000
222.22	-0.000
222.44	-0.000
222.65	-0.000
222.87	-0.000
223.08	-0.000
223.29	-0.000
223.51	-0.000
223.72	-0.000
223.94	-0.000
224.15	-0.000
224.36	-0.000
224.58	-0.000
224.79	-0.000
225.01	-0.000
225.22	-0.000
225.44	-0.000
225.65	-0.000
225.86	-0.000
226.08	-0.000
226.29	-0.000
226.51	-0.000
226.72	-0.000
226.93	-0.000
227.15	-0.000
227.36	-0.000
227.58	-0.000
227.79	-0.000
228.00	-0.000
228.22	-0.000
228.43	-0.000
228.65	-0.000
228.86	-0.000
229.07	-0.000
229.29	-0.000
229.50	-0.000
229.72	-0.000
229.93	-0.000
230.14	-0.000
230.36	-0.000
230.57	-0.000
230.78	-0.000
231.00	-0.000
231.21	-0.000
231.43	-0.000
231.64	-0.000
231.85	-0.000
232.07	-0.000
232.28	-0.000
232.50	-0.000
232.71	-0.000
232.92	-0.000
233.14	-0.000
233.35	-0.000
233.56	-0.000
233.78	-0.000
233.99	-0.000
234.21	-0.000
234.42	-0.000
234.63	-0.000
234.85	-0.000
235.06	-0.000
235.27	-0.000
235.49	-0.000
235.70	-0.000
235.91	-0.000
236.13	-0.000
236.34	-0.000
236.56	-0.000
236.77	-0.000
236.98	-0.000
237.20	-0.000
237.41	-0.000
237.62	-0.000
237.84	-0.000
238.05	-0.000
238.26	-0.000
238.48	-0.000
238.69	-0.000
238.91	-0.000
239.12	-0.000
239.33	-0.000
239.55	-0.000
239.76	-0.000
239.97	-0.000
240.19	-0.000
240.40	-0.000
240.61	-0.000
240.83	-0.000
241.04	-0.000
241.25	-0.000
241.47	-0.000
241.68	-0.000
241.89	-0.000
242.11	-0.000
242.32	-0.000
242.53	-0.000
242.75	-0.000
242.96	-0.000
243.17	-0.000
243.39	-0.000
243.60	-0.000
243.81	-0.000
244.03	-0.000
244.24	-0.000
244.45	-0.000
244.67	-0.000
244.88	-0.000
245.09	-0.000
245.31	-0.000
245.52	-0.000
245.73	-0.000
245.95	-0.000
246.16	-0.000
246.37	-0.000
246.59	-0.000
246.80	-0.000
247.01	-0.000
247.23	-0.000
247.44	-0.000
247.65	-0.000
247.87	-0.000
248.08	-0.000
248.29	-0.000
248.51	-0.000
248.72	-0.000
248.93	-0.000
249.15	-0.000
249.36	-0.000
249.57	-0.000
249.78	-0.000
250.00	-0.000
250.21	-0.000
250.42	-0.000
250.64	-0.000
250.85	-0.000
251.06	-0.000
251.28	-0.000
251.49	-0.000
251.70	-0.000
251.92	-0.000
252.13	-0.000
252.34	-0.000
252.55	-0.000
252.77	-0.000
252.98	-0.000
253.19	-0.000
253.41	-0.000
253.62	-0.000
253.83	-0.000
254.05	-0.000
254.26	-0.000
254.47	-0.000
254.68	-0.000
254.90	-0.000
255.11	-0.000
255.32	-0.000
255.54	-0.000
255.75	-0.000
255.96	-0.000
256.17	-0.000
256.39	-0.000
256.60	-0.000
256.81	-0.000
257.03	-0.000
257.24	-0.000
257.45	-0.000
257.66	-0.000
257.88	-0.000
258.09	-0.000
258.30	-0.000
258.51	-0.000
258.73	-0.000
258.94	-0.000
259.15	-0.000
259.37	-0.000
259.58	-0.000
259.79	-0.000
260.00	-0.000
260.22	-0.000
260.43	-0.000
260.64	-0.000
260.85	-0.000
261.07	-0.000
261.28	-0.000
261.49	-0.000
261.71	-0.000
261.92	-0.000
262.13	-0.000
262.34	-0.000
262.56	-0.000
262.77	-0.000
262.98	-0.000
263.19	-0.000
263.41	-0.000
263.62	-0.000
263.83	-0.000
264.04	-0.000
264.26	-0.000
264.47	-0.000
264.68	-0.000
264.89	-0.000
265.11	-0.000
265.32	-0.000
265.53	-0.000
265.74	-0.000
265.96	-0.000
266.17	-0.000
266.38	-0.000
266.59	-0.000
266.81	-0.000
267.02	-0.000
267.23	-0.000
267.44	-0.000
267.65	-0.000
267.87	-0.000
268.08	-0.000
268.29	-0.000
268.50	-0.000
268.72	-0.000
268.93	-0.000
269.14	-0.000
269.35	-0.000
269.57	-0.000
269.78	-0.000
269.99	-0.000
270.20	-0.000
270.41	-0.000
270.63	-0.000
270.84	-0.000
271.05	-0.000
271.26	-0.000
271.48	-0.000
271.69	-0.000
271.90	-0.000
272.11	-0.000
272.32	-0.000
272.54	-0.000
272.75	-0.000
272.96	-0.000
273.17	-0.000
273.39	-0.000
273.60	-0.000
273.81	-0.000
274.02	-0.000
274.23	-0.000
274.45	-0.000
274.66	-0.000
274.87	-0.000
275.08	-0.000
275.29	-0.000
275.51	-0.000
275.72	-0.000
275.93	-0.000
276.14	-0.000
276.35	-0.000
276.57	-0.000
276.78	-0.000
276.99	-0.000
277.20	-0.000
277.41	-0.000
277.63	-0.000
277.84	-0.000
278.05	-0.000
278.26	-0.000
278.47	-0.000
278.69	-0.000
278.90	-0.000
279.11	-0.000
279.32	-0.000
279.53	-0.000
279.74	-0.000
279.96	-0.000
280.17	-0.000
280.38	-0.000
280.59	-0.000
280.80	-0.000
281.02	-0.000
281.23	-0.000
281.44	-0.000
281.65	-0.000
281.86	-0.000
282.07	-0.000
282.29	-0.000
282.50	-0.000
282.71	-0.000
282.92	-0.000
283.13	-0.000
283.35	-0.000
283.56	-0.000
283.77	-0.000
283.98	-0.000
284.19	-0.000
284.40	-0.000
284.62	-0.000
284.83	-0.000
285.04	-0.000
285.25	-0.000
285.46	-0.000
285.67	-0.000
285.88	-0.000
286.10	-0.000
286.31	-0.000
286.52	-0.000
286.73	-0.000
286.94	-0.000
287.15	-0.000
287.37	-0.000
287.58	-0.000
287.79	-0.000
288.00	-0.000
288.21	-0.000
288.42	-0.000
288.63	-0.000
288.85	-0.000
289.06	-0.000
289.27	-0.000
289.48	-0.000
289.69	-0.000
289.90	-0.000
290.11	-0.000
290.33	-0.000
290.54	-0.000
290.75	-0.000
290.96	-0.000
291.17	-0.000
291.38	-0.000
291.59	-0.000
291.81	-0.000
292.02	-0.000
292.23	-0.000
292.44	-0.000
292.65	-0.000
292.86	-0.000
293.07	-0.000
293.28	-0.000
293.50	-0.000
293.71	-0.000
293.92	-0.000
294.13	-0.000
294.34	-0.000
294.55	-0.000
294.76	-0.000
294.97	-0.000
295.19	-0.000
295.40	-0.000
295.61	-0.000
295.82	-0.000
296.03	-0.000
296.24	-0.000
296.45	-0.000
296.66	-0.000
296.87	-0.000
297.09	-0.000
297.30	-0.000
297.51	4.481
297.72	2.643
297.93	-0.000
298.14	-0.000
298.35	2.650
298.56	2.473
298.77	-0.000
298.99	-0.000
299.20	3.169
299.41	2.615
299.62	2.322
299.83	2.277
300.04	2.029
300.25	2.004
300.46	2.160
300.67	2.076
300.88	1.911
301.10	1.918
301.31	2.120
301.52	1.942
301.73	1.815
301.94	1.828
302.15	1.881
302.36	1.783
302.57	1.654
302.78	1.670
302.99	1.751
303.20	1.790
303.41	1.619
303.63	1.590
303.84	1.599
304.05	1.586
304.26	1.486
304.47	1.484
304.68	1.492
304.89	1.474
305.10	1.410
305.31	1.391
305.52	1.448
305.73	1.429
305.94	1.373
306.15	1.363
306.37	1.393
306.58	1.404
306.79	1.360
307.00	1.384
307.21	1.440
307.42	1.425
307.63	1.376
307.84	1.336
308.05	1.386
308.26	1.390
308.47	1.357
308.68	1.351
308.89	1.352
309.10	1.352
309.31	1.305
309.52	1.294
309.73	1.314
309.95	1.306
310.16	1.267
310.37	1.252
310.58	1.273
310.79	1.271
311.00	1.266
311.21	1.267
311.42	1.266
311.63	1.256
311.84	1.233
312.05	1.231
312.26	1.257
312.47	1.270
312.68	1.241
312.89	1.219
313.10	1.229
313.31	1.195
313.52	1.195
313.73	1.199
313.94	1.203
314.15	1.180
314.36	1.158
314.57	1.149
314.78	1.135
314.99	1.128
315.21	1.115
315.42	1.122
315.63	1.136
315.84	1.110
316.05	1.093
316.26	1.102
316.47	1.124
316.68	1.116
316.89	1.093
317.10	1.116
317.31	1.123
317.52	1.121
317.73	1.096
317.94	1.099
318.15	1.156
318.36	1.154
318.57	1.132
318.78	1.118
318.99	1.159
319.20	1.157
319.41	1.119
319.62	1.123
319.83	1.141
320.04	1.135
320.25	1.113
320.46	1.070
320.67	1.077
320.88	1.073
321.09	1.056
321.30	1.040
321.51	1.057
321.72	1.055
321.93	1.034
322.14	1.023
322.35	1.054
322.56	1.058
322.77	1.042
322.98	1.052
323.19	1.061
323.40	1.067
323.61	1.044
323.82	1.038
324.03	1.045
324.24	1.043
324.45	1.028
324.66	1.005
324.87	0.999
325.08	0.998
325.29	0.976
325.50	0.968
325.71	0.975
325.92	0.983
326.13	0.968
326.34	0.968
326.55	0.977
326.76	0.977
326.97	0.966
327.18	0.961
327.39	0.987
327.60	0.988
327.80	0.987
328.01	0.984
328.22	0.982
328.43	0.984
328.64	0.972
328.85	0.975
329.06	0.977
329.27	0.977
329.48	0.973
329.69	0.954
329.90	0.966
330.11	0.960
330.32	0.952
330.53	0.946
330.74	0.947
330.95	0.945
331.16	0.930
331.37	0.938
331.58	0.938
331.79	0.936
332.00	0.927
332.21	0.920
332.42	0.924
332.63	0.915
332.83	0.910
333.04	0.913
333.25	0.927
333.46	0.924
333.67	0.909
333.88	0.912
334.09	0.922
334.30	0.918
334.51	0.908
334.72	0.904
334.93	0.908
335.14	0.906
335.35	0.896
335.56	0.890
335.77	0.899
335.98	0.897
336.18	0.891
336.39	0.883
336.60	0.889
336.81	0.886
337.02	0.884
337.23	0.889
337.44	0.893
337.65	0.897
337.86	0.887
338.07	0.883
338.28	0.889
338.49	0.886
338.70	0.878
338.91	0.886
339.11	0.895
339.32	0.891
339.53	0.878
339.74	0.874
339.95	0.870
340.16	0.867
340.37	0.858
340.58	0.856
340.79	0.861
341.00	0.861
341.21	0.848
341.41	0.848
341.62	0.850
341.83	0.851
342.04	0.846
342.25	0.858
342.46	0.863
342.67	0.862
342.88	0.855
343.09	0.854
343.30	0.862
343.50	0.866
343.71	0.855
343.92	0.854
344.13	0.859
344.34	0.858
344.55	0.840
344.76	0.838
344.97	0.843
345.18	0.842
345.38	0.839
345.59	0.834
345.80	0.833
346.01	0.830
346.22	0.826
346.43	0.821
346.64	0.830
346.85	0.830
347.06	0.822
347.26	0.822
347.47	0.827
347.68	0.821
347.89	0.817
348.10	0.812
348.31	0.821
348.52	0.820
348.73	0.815
348.93	0.812
349.14	0.815
349.35	0.815
349.56	0.809
349.77	0.803
349.98	0.810
350.19	0.806
350.39	0.801
350.60	0.798
350.81	0.814
351.02	0.812
351.23	0.807
351.44	0.810
351.65	0.814
351.86	0.811
352.06	0.811
352.27	0.811
352.48	0.813
352.69	0.812
352.90	0.805
353.11	0.791
353.31	0.799
353.52	0.795
353.73	0.785
353.94	0.786
354.15	0.793
354.36	0.791
354.57	0.782
354.77	0.785
354.98	0.785
355.19	0.784
355.40	0.784
355.61	0.790
355.82	0.796
356.02	0.795
356.23	0.788
356.44	0.789
356.65	0.793
356.86	0.794
357.07	0.787
357.27	0.791
357.48	0.795
357.69	0.789
357.90	0.774
358.11	0.769
358.32	0.773
358.52	0.776
358.73	0.766
358.94	0.768
359.15	0.773
359.36	0.773
359.56	0.766
359.77	0.763
359.98	0.770
360.19	0.770
360.40	0.767
360.61	0.767
360.81	0.766
361.02	0.767
361.23	0.759
361.44	0.757
361.65	0.758
361.85	0.757
362.06	0.755
362.27	0.757
362.48	0.758
362.69	0.759
362.89	0.753
363.10	0.754
363.31	0.758
363.52	0.761
363.73	0.756
363.93	0.757
364.14	0.759
364.35	0.761
364.56	0.751
364.77	0.752
364.97	0.755
365.18	0.756
365.39	0.750
365.60	0.748
365.81	0.749
366.01	0.748
366.22	0.744
366.43	0.743
366.64	0.746
366.84	0.751
367.05	0.748
367.26	0.748
367.47	0.750
367.68	0.751
367.88	0.747
368.09	0.746
368.30	0.749
368.51	0.749
368.71	0.748
368.92	0.752
369.13	0.751
369.34	0.750
369.55	0.748
369.75	0.749
369.96	0.756
370.17	0.756
370.38	0.752
370.58	0.751
370.79	0.757
371.00	0.756
371.21	0.746
371.41	0.751
371.62	0.755
371.83	0.750
372.04	0.748
372.24	0.740
372.45	0.741
372.66	0.741
372.87	0.737
373.07	0.733
373.28	0.734
373.49	0.737
373.70	0.728
373.90	0.726
374.11	0.736
374.32	0.736
374.53	0.735
374.73	0.736
374.94	0.738
375.15	0.739
375.36	0.736
375.56	0.745
375.77	0.744
375.98	0.745
376.19	0.742
376.39	0.735
376.60	0.739
376.81	0.740
377.02	0.737
377.22	0.735
377.43	0.735
377.64	0.735
377.84	0.726
378.05	0.731
378.26	0.738
378.47	0.736
378.67	0.733
378.88	0.730
379.09	0.730
379.30	0.731
379.50	0.728
379.71	0.730
379.92	0.734
380.12	0.733
380.33	0.723
380.54	0.719
380.75	0.727
380.95	0.727
381.16	0.724
381.37	0.725
381.57	0.727
381.78	0.728
381.99	0.727
382.20	0.726
382.40	0.729
382.61	0.730
382.82	0.725
383.02	0.719
383.23	0.722
383.44	0.723
383.64	0.721
383.85	0.723
384.06	0.726
384.27	0.724
384.47	0.721
384.68	0.721
384.89	0.726
385.09	0.727
385.30	0.726
385.51	0.725
385.71	0.728
385.92	0.728
386.13	0.726
386.33	0.727
386.54	0.728
386.75	0.727
386.95	0.724
387.16	0.719
387.37	0.722
387.58	0.721
387.78	0.719
387.99	0.717
388.20	0.719
388.40	0.716
388.61	0.712
388.82	0.715
389.02	0.717
389.23	0.718
389.44	0.715
389.64	0.716
389.85	0.727
390.06	0.726
390.26	0.726
390.47	0.725
390.68	0.728
390.88	0.726
391.09	0.722
391.30	0.721
391.50	0.720
391.71	0.720
391.92	0.716
392.12	0.709
392.33	0.709
392.53	0.709
392.74	0.709
392.95	0.708
393.15	0.711
393.36	0.713
393.57	0.710
393.77	0.713
393.98	0.715
394.19	0.715
394.39	0.715
394.60	0.717
394.81	0.719
395.01	0.717
395.22	0.714
395.43	0.715
395.63	0.720
395.84	0.721
396.04	0.716
396.25	0.718
396.46	0.720
396.66	0.718
396.87	0.715
397.08	0.712
397.28	0.714
397.49	0.715
397.69	0.710
397.90	0.705
398.11	0.706
398.31	0.706
398.52	0.702
398.73	0.703
398.93	0.702
399.14	0.701
399.34	0.700
399.55	0.701
399.76	0.700
399.96	0.702
400.17	0.701
400.37	0.700
400.58	0.707
400.79	0.708
400.99	0.705
401.20	0.711
401.41	0.714
401.61	0.714
401.82	0.719
402.02	0.718
402.23	0.719
402.44	0.718
402.64	0.718
402.85	0.712
403.05	0.711
403.26	0.710
403.47	0.703
403.67	0.702
403.88	0.703
404.08	0.697
404.29	0.695
404.50	0.694
404.70	0.696
404.91	0.694
405.11	0.691
405.32	0.692
405.52	0.693
405.73	0.692
405.94	0.691
406.14	0.693
406.35	0.696
406.55	0.695
406.76	0.692
406.97	0.693
407.17	0.696
407.38	0.696
407.58	0.694
407.79	0.696
407.99	0.699
408.20	0.700
408.41	0.695
408.61	0.693
408.82	0.694
409.02	0.695
409.23	0.692
409.43	0.690
409.64	0.691
409.84	0.691
410.05	0.687
410.26	0.686
410.46	0.685
410.67	0.685
410.87	0.686
411.08	0.688
411.28	0.690
411.49	0.692
411.69	0.689
411.90	0.691
412.11	0.693
412.31	0.694
412.52	0.692
412.72	0.693
412.93	0.694
413.13	0.693
413.34	0.688
413.54	0.689
413.75	0.690
413.95	0.690
414.16	0.686
414.37	0.688
414.57	0.689
414.78	0.691
414.98	0.689
415.19	0.690
415.39	0.688
415.60	0.690
415.80	0.689
416.01	0.687
416.21	0.690
416.42	0.690
416.62	0.685
416.83	0.685
417.03	0.685
417.24	0.685
417.44	0.683
417.65	0.682
417.86	0.683
418.06	0.681
418.27	0.679
418.47	0.681
418.68	0.682
418.88	0.682
419.09	0.681
419.29	0.681
419.50	0.682
419.70	0.681
419.91	0.679
420.11	0.677
420.32	0.680
420.52	0.679
420.73	0.678
420.93	0.679
421.14	0.681
421.34	0.679
421.55	0.676
421.75	0.677
421.96	0.678
422.16	0.679
422.37	0.677
422.57	0.674
422.78	0.676
422.98	0.673
423.19	0.671
423.39	0.669
423.60	0.673
423.80	0.675
424.01	0.673
424.21	0.676
424.42	0.677
424.62	0.677
424.83	0.676
425.03	0.676
425.23	0.679
425.44	0.678
425.64	0.679
425.85	0.678
426.05	0.679
426.26	0.679
426.46	0.675
426.67	0.674
426.87	0.679
427.08	0.680
427.28	0.677
427.49	0.679
427.69	0.680
427.90	0.678
428.10	0.675
428.31	0.675
428.51	0.676
428.71	0.675
428.92	0.677
429.12	0.673
429.33	0.674
429.53	0.677
429.74	0.681
429.94	0.681
430.15	0.681
430.35	0.681
430.56	0.678
430.76	0.678
430.96	0.679
431.17	0.677
431.37	0.674
431.58	0.673
431.78	0.670
431.99	0.664
432.19	0.666
432.40	0.668
432.60	0.669
432.80	0.671
433.01	0.669
433.21	0.669
433.42	0.671
433.62	0.672
433.83	0.671
434.03	0.673
434.23	0.676
434.44	0.675
434.64	0.672
434.85	0.677
435.05	0.679
435.26	0.680
435.46	0.677
435.66	0.677
435.87	0.677
436.07	0.677
436.28	0.673
436.48	0.671
436.69	0.670
436.89	0.670
437.09	0.664
437.30	0.662
437.50	0.663
437.71	0.675
437.91	0.674
438.11	0.676
438.32	0.680
438.52	0.681
438.73	0.680
438.93	0.679
439.13	0.679
439.34	0.682
439.54	0.680
439.75	0.679
439.95	0.670
440.15	0.674
440.36	0.673
440.56	0.670
440.77	0.671
440.97	0.671
441.17	0.670
441.38	0.671
441.58	0.669
441.79	0.669
441.99	0.668
442.19	0.667
442.40	0.665
442.60	0.664
442.81	0.662
443.01	0.663
443.21	0.664
443.42	0.663
443.62	0.662
443.82	0.661
444.03	0.662
444.23	0.662
444.44	0.662
444.64	0.662
444.84	0.663
445.05	0.663
445.25	0.660
445.45	0.661
445.66	0.663
445.86	0.662
446.06	0.664
446.27	0.663
446.47	0.667
446.68	0.665
446.88	0.663
447.08	0.663
447.29	0.665
447.49	0.665
447.69	0.664
447.90	0.663
448.10	0.667
448.30	0.664
448.51	0.665
448.71	0.663
448.91	0.666
449.12	0.665
449.32	0.666
449.52	0.665
449.73	0.669
449.93	0.668
450.14	0.669
450.34	0.668
450.54	0.670
450.75	0.667
450.95	0.666
451.15	0.666
451.36	0.668
451.56	0.665
451.76	0.664
451.97	0.661
452.17	0.661
452.37	0.659
452.58	0.656
452.78	0.656
452.98	0.658
453.19	0.658
453.39	0.658
453.59	0.657
453.79	0.659
454.00	0.659
454.20	0.658
454.40	0.659
454.61	0.661
454.81	0.662
455.01	0.660
455.22	0.661
455.42	0.663
455.62	0.661
455.83	0.661
456.03	0.664
456.23	0.665
456.44	0.666
456.64	0.664
456.84	0.664
457.04	0.666
457.25	0.665
457.45	0.661
457.65	0.659
457.86	0.661
458.06	0.659
458.26	0.654
458.47	0.653
458.67	0.654
458.87	0.655
459.07	0.653
459.28	0.654
459.48	0.657
459.68	0.658
459.89	0.657
460.09	0.656
460.29	0.657
460.49	0.659
460.70	0.658
460.90	0.657
461.10	0.658
461.31	0.658
461.51	0.655
461.71	0.657
461.91	0.658
462.12	0.658
462.32	0.657
462.52	0.658
462.72	0.661
462.93	0.662
463.13	0.661
463.33	0.662
463.53	0.664
463.74	0.663
463.94	0.658
464.14	0.658
464.35	0.660
464.55	0.660
464.75	0.658
464.95	0.655
465.16	0.658
465.36	0.656
465.56	0.655
465.76	0.654
465.97	0.654
466.17	0.655
466.37	0.653
466.57	0.654
466.78	0.655
466.98	0.655
467.18	0.653
467.38	0.652
467.59	0.653
467.79	0.655
467.99	0.654
468.19	0.656
468.39	0.659
468.60	0.659
468.80	0.657
469.00	0.658
469.20	0.659
469.41	0.660
469.61	0.659
469.81	0.659
470.01	0.659
470.22	0.659
470.42	0.657
470.62	0.656
470.82	0.657
471.02	0.656
471.23	0.654
471.43	0.655
471.63	0.658
471.83	0.657
472.04	0.656
472.24	0.654
472.44	0.659
472.64	0.659
472.84	0.657
473.05	0.656
473.25	0.659
473.45	0.659
473.65	0.657
473.85	0.657
474.06	0.659
474.26	0.659
474.46	0.660
474.66	0.657
474.86	0.658
475.07	0.658
475.27	0.655
475.47	0.652
475.67	0.653
475.87	0.655
476.08	0.651
476.28	0.652
476.48	0.654
476.68	0.651
476.88	0.649
477.09	0.651
477.29	0.653
477.49	0.653
477.69	0.652
477.89	0.652
478.09	0.651
478.30	0.654
478.50	0.650
478.70	0.650
478.90	0.651
479.10	0.654
479.31	0.654
479.51	0.652
479.71	0.654
479.91	0.654
480.11	0.652
480.31	0.654
480.52	0.653
480.72	0.653
480.92	0.652
481.12	0.650
481.32	0.647
481.52	0.645
481.72	0.645
481.93	0.648
482.13	0.649
482.33	0.649
482.53	0.646
482.73	0.647
482.93	0.648
483.14	0.647
483.34	0.647
483.54	0.648
483.74	0.647
483.94	0.646
484.14	0.642
484.34	0.642
484.55	0.643
484.75	0.642
484.95	0.640
485.15	0.639
485.35	0.640
485.55	0.640
485.75	0.638
485.96	0.638
486.16	0.639
486.36	0.638
486.56	0.637
486.76	0.637
486.96	0.637
487.16	0.637
487.36	0.635
487.57	0.635
487.77	0.636
487.97	0.636
488.17	0.635
488.37	0.634
488.57	0.635
488.77	0.636
488.97	0.634
489.18	0.634
489.38	0.636
489.58	0.637
489.78	0.636
489.98	0.636
490.18	0.635
490.38	0.636
490.58	0.634
490.78	0.635
490.98	0.636
491.19	0.637
491.39	0.636
491.59	0.635
491.79	0.638
491.99	0.638
492.19	0.638
492.39	0.641
492.59	0.641
492.79	0.643
492.99	0.643
493.20	0.643
493.40	0.644
493.60	0.645
493.80	0.643
494.00	0.641
494.20	0.642
494.40	0.641
494.60	0.638
494.80	0.643
495.00	0.642
495.20	0.640
495.40	0.639
495.61	0.641
495.81	0.641
496.01	0.645
496.21	0.646
496.41	0.645
496.61	0.646
496.81	0.645
497.01	0.640
497.21	0.639
497.41	0.640
497.61	0.640
497.81	0.638
498.01	0.638
498.21	0.636
498.41	0.634
498.61	0.634
498.82	0.635
499.02	0.637
499.22	0.638
499.42	0.636
499.62	0.638
499.82	0.638
500.02	0.639
500.22	0.637
500.42	0.639
500.62	0.640
500.82	0.640
501.02	0.638
501.22	0.638
501.42	0.638
501.62	0.641
501.82	0.640
502.02	0.640
502.22	0.640
502.42	0.642
502.62	0.639
502.82	0.640
503.02	0.641
503.22	0.641
503.42	0.639
503.63	0.638
503.83	0.636
504.03	0.635
504.23	0.633
504.43	0.634
504.63	0.635
504.83	0.635
505.03	0.633
505.23	0.635
505.43	0.637
505.63	0.637
505.83	0.637
506.03	0.639
506.23	0.641
506.43	0.642
506.63	0.641
506.83	0.640
507.03	0.642
507.23	0.643
507.43	0.640
507.63	0.641
507.83	0.641
508.03	0.641
508.23	0.640
508.43	0.638
508.63	0.640
508.83	0.641
509.03	0.642
509.23	0.640
509.43	0.641
509.63	0.641
509.83	0.640
510.03	0.642
510.23	0.644
510.43	0.645
510.63	0.645
510.83	0.645
511.03	0.647
511.23	0.644
511.43	0.643
511.63	0.645
511.83	0.647
512.03	0.647
512.22	0.644
512.42	0.644
512.62	0.645
512.82	0.645
513.02	0.644
513.22	0.643
513.42	0.646
513.62	0.649
513.82	0.647
514.02	0.647
514.22	0.648
514.42	0.648
514.62	0.648
514.82	0.648
515.02	0.650
515.22	0.653
515.42	0.652
515.62	0.655
515.82	0.654
516.02	0.655
516.22	0.654
516.42	0.655
516.62	0.658
516.82	0.658
517.01	0.656
517.21	0.656
517.41	0.659
517.61	0.659
517.81	0.655
518.01	0.655
518.21	0.654
518.41	0.653
518.61	0.653
518.81	0.653
519.01	0.654
519.21	0.655
519.41	0.654
519.61	0.649
519.81	0.651
520.00	0.651
520.20	0.651
520.40	0.655
520.60	0.656
520.80	0.655
521.00	0.655
521.20	0.656
521.40	0.661
521.60	0.661
521.80	0.660
522.00	0.660
522.20	0.663
522.39	0.662
522.59	0.659
522.79	0.661
522.99	0.663
523.19	0.661
523.39	0.658
523.59	0.656
523.79	0.659
523.99	0.661
524.19	0.660
524.38	0.659
524.58	0.661
524.78	0.661
524.98	0.659
525.18	0.661
525.38	0.662
525.58	0.664
525.78	0.661
525.98	0.660
526.18	0.660
526.37	0.659
526.57	0.661
526.77	0.660
526.97	0.661
527.17	0.661
527.37	0.657
527.57	0.659
527.77	0.661
527.96	0.661
528.16	0.660
528.36	0.661
528.56	0.663
528.76	0.661
528.96	0.660
529.16	0.661
529.36	0.665
529.55	0.665
529.75	0.661
529.95	0.662
530.15	0.663
530.35	0.666
530.55	0.663
530.75	0.664
530.94	0.666
531.14	0.666
531.34	0.664
531.54	0.661
531.74	0.665
531.94	0.668
532.13	0.666
532.33	0.668
532.53	0.667
532.73	0.667
532.93	0.665
533.13	0.665
533.33	0.666
533.52	0.666
533.72	0.669
533.92	0.667
534.12	0.665
534.32	0.664
534.52	0.662
534.71	0.664
534.91	0.667
535.11	0.669
535.31	0.667
535.51	0.670
535.71	0.672
535.90	0.669
536.10	0.670
536.30	0.672
536.50	0.673
536.70	0.673
536.89	0.670
537.09	0.670
537.29	0.671
537.49	0.672
537.69	0.670
537.89	0.671
538.08	0.670
538.28	0.669
538.48	0.670
538.68	0.671
538.88	0.673
539.07	0.673
539.27	0.671
539.47	0.670
539.67	0.670
539.87	0.672
540.06	0.670
540.26	0.671
540.46	0.673
540.66	0.670
540.86	0.667
541.05	0.668
541.25	0.670
541.45	0.669
541.65	0.668
541.84	0.669
542.04	0.670
542.24	0.670
542.44	0.669
542.64	0.670
542.83	0.673
543.03	0.674
543.23	0.671
543.43	0.672
543.62	0.673
543.82	0.673
544.02	0.672
544.22	0.672
544.42	0.676
544.61	0.676
544.81	0.673
545.01	0.672
545.21	0.674
545.40	0.675
545.60	0.672
545.80	0.676
546.00	0.677
546.19	0.676
546.39	0.675
546.59	0.672
546.79	0.674
546.98	0.675
547.18	0.674
547.38	0.675
547.58	0.678
547.77	0.678
547.97	0.673
548.17	0.675
548.37	0.676
548.56	0.676
548.76	0.675
548.96	0.677
549.16	0.680
549.35	0.680
549.55	0.678
549.75	0.678
549.95	0.682
550.14	0.682
550.34	0.680
550.54	0.685
550.73	0.688
550.93	0.689
551.13	0.685
551.33	0.683
551.52	0.683
551.72	0.684
551.92	0.681
552.12	0.682
552.31	0.684
552.51	0.684
552.71	0.678
552.90	0.678
553.10	0.680
553.30	0.680
553.50	0.680
553.69	0.681
553.89	0.682
554.09	0.683
554.28	0.679
554.48	0.681
554.68	0.683
554.87	0.683
555.07	0.679
555.27	0.679
555.47	0.681
555.66	0.682
555.86	0.680
556.06	0.682
556.25	0.683
556.45	0.691
556.65	0.689
556.84	0.692
557.04	0.695
557.24	0.697
557.43	0.696
557.63	0.699
557.83	0.701
558.02	0.702
558.22	0.705
558.42	0.705
558.61	0.698
558.81	0.698
559.01	0.694
559.21	0.693
559.40	0.696
559.60	0.696
559.80	0.691
559.99	0.692
560.19	0.695
560.39	0.689
560.58	0.686
560.78	0.687
560.97	0.691
561.17	0.690
561.37	0.687
561.56	0.688
561.76	0.690
561.96	0.689
562.15	0.686
562.35	0.687
562.55	0.689
562.74	0.689
562.94	0.688
563.14	0.686
563.33	0.687
563.53	0.686
563.73	0.684
563.92	0.685
564.12	0.688
564.31	0.691
564.51	0.689
564.71	0.691
564.90	0.693
565.10	0.694
565.30	0.696
565.49	0.698
565.69	0.701
565.89	0.701
566.08	0.699
566.28	0.700
566.47	0.702
566.67	0.700
566.87	0.697
567.06	0.699
567.26	0.706
567.46	0.702
567.65	0.701
567.85	0.702
568.04	0.705
568.24	0.704
568.44	0.701
568.63	0.700
568.83	0.702
569.02	0.701
569.22	0.695
569.42	0.691
569.61	0.693
569.81	0.692
570.00	0.689
570.20	0.690
570.40	0.692
570.59	0.691
570.79	0.689
570.98	0.687
571.18	0.689
571.38	0.689
571.57	0.685
571.77	0.683
571.96	0.687
572.16	0.685
572.35	0.679
572.55	0.680
572.75	0.678
572.94	0.678
573.14	0.676
573.33	0.676
573.53	0.676
573.73	0.676
573.92	0.674
574.12	0.672
574.31	0.674
574.51	0.675
574.70	0.672
574.90	0.673
575.09	0.676
575.29	0.676
575.49	0.673
575.68	0.674
575.88	0.676
576.07	0.677
576.27	0.675
576.46	0.673
576.66	0.672
576.86	0.672
577.05	0.669
577.25	0.667
577.44	0.669
577.64	0.669
577.83	0.667
578.03	0.668
578.22	0.667
578.42	0.666
578.61	0.664
578.81	0.665
579.00	0.666
579.20	0.666
579.40	0.665
579.59	0.663
579.79	0.664
579.98	0.663
580.18	0.663
580.37	0.663
580.57	0.665
580.76	0.670
580.96	0.668
581.15	0.669
581.35	0.670
581.54	0.670
581.74	0.670
581.93	0.671
582.13	0.673
582.32	0.670
582.52	0.668
582.71	0.667
582.91	0.663
583.10	0.663
583.30	0.662
583.49	0.661
583.69	0.666
583.88	0.667
584.08	0.666
584.27	0.668
584.47	0.671
584.66	0.672
584.86	0.671
585.05	0.673
585.25	0.676
585.44	0.676
585.64	0.674
585.83	0.670
586.03	0.671
586.22	0.669
586.42	0.665
586.61	0.667
586.81	0.669
587.00	0.669
587.20	0.667
587.39	0.667
587.59	0.669
587.78	0.671
587.98	0.672
588.17	0.672
588.37	0.675
588.56	0.677
588.76	0.672
588.95	0.672
589.15	0.676
589.34	0.679
589.54	0.677
589.73	0.678
589.92	0.681
590.12	0.680
590.31	0.677
590.51	0.682
590.70	0.684
590.90	0.685
591.09	0.683
591.29	0.681
591.48	0.681
591.68	0.682
591.87	0.680
592.06	0.679
592.26	0.682
592.45	0.681
592.65	0.675
592.84	0.675
593.04	0.677
593.23	0.679
593.43	0.677
593.62	0.677
593.81	0.678
594.01	0.677
594.20	0.675
594.40	0.674
594.59	0.677
594.79	0.678
594.98	0.677
595.17	0.676
595.37	0.677
595.56	0.679
595.76	0.678
595.95	0.680
596.14	0.683
596.34	0.685
596.53	0.683
596.73	0.684
596.92	0.685
597.12	0.688
597.31	0.687
597.50	0.687
597.70	0.689
597.89	0.688
598.09	0.684
598.28	0.686
598.47	0.688
598.67	0.686
598.86	0.682
599.06	0.684
599.25	0.685
599.44	0.682
599.64	0.679
599.83	0.676
600.03	0.679
600.22	0.680
600.41	0.680
600.61	0.678
600.80	0.681
601.00	0.681
601.19	0.677
601.38	0.675
601.58	0.678
601.77	0.679
601.96	0.682
602.16	0.682
602.35	0.691
602.55	0.687
602.74	0.689
602.93	0.690
603.13	0.696
603.32	0.697
603.51	0.697
603.71	0.700
603.90	0.701
604.09	0.702
604.29	0.700
604.48	0.694
604.68	0.696
604.87	0.693
605.06	0.690
605.26	0.686
605.45	0.687
605.64	0.687
605.84	0.681
606.03	0.681
606.22	0.680
606.42	0.679
606.61	0.675
606.80	0.676
607.00	0.678
607.19	0.678
607.38	0.677
607.58	0.678
607.77	0.681
607.96	0.682
608.16	0.680
608.35	0.684
608.54	0.688
608.74	0.691
608.93	0.695
609.12	0.698
609.32	0.701
609.51	0.705
609.70	0.703
609.90	0.705
610.09	0.710
610.28	0.715
610.48	0.709
610.67	0.710
610.86	0.711
611.06	0.705
611.25	0.702
611.44	0.703
611.64	0.703
611.83	0.706
612.02	0.702
612.21	0.700
612.41	0.699
612.60	0.698
612.79	0.694
612.99	0.694
613.18	0.697
613.37	0.694
613.57	0.691
613.76	0.694
613.95	0.691
614.14	0.691
614.34	0.688
614.53	0.689
614.72	0.692
614.92	0.693
615.11	0.690
615.30	0.686
615.49	0.688
615.69	0.691
615.88	0.687
616.07	0.688
616.26	0.691
616.46	0.693
616.65	0.690
616.84	0.689
617.04	0.690
617.23	0.694
617.42	0.694
617.61	0.697
617.81	0.698
618.00	0.699
618.19	0.698
618.38	0.702
618.58	0.705
618.77	0.706
618.96	0.705
619.15	0.707
619.35	0.709
619.54	0.710
619.73	0.705
619.92	0.707
620.12	0.712
620.31	0.713
620.50	0.707
620.69	0.707
620.89	0.711
621.08	0.711
621.27	0.711
621.46	0.710
621.66	0.715
621.85	0.714
622.04	0.710
622.23	0.710
622.43	0.711
622.62	0.710
622.81	0.709
623.00	0.709
623.19	0.712
623.39	0.710
623.58	0.706
623.77	0.705
623.96	0.709
624.16	0.710
624.35	0.704
624.54	0.708
624.73	0.713
624.92	0.710
625.12	0.707
625.31	0.708
625.50	0.712
625.69	0.713
625.88	0.709
626.08	0.708
626.27	0.710
626.46	0.711
626.65	0.707
626.84	0.707
627.04	0.713
627.23	0.713
627.42	0.709
627.61	0.711
627.80	0.714
628.00	0.715
628.19	0.713
628.38	0.717
628.57	0.720
628.76	0.719
628.96	0.715
629.15	0.716
629.34	0.719
629.53	0.718
629.72	0.712
629.91	0.713
630.11	0.718
630.30	0.719
630.49	0.721
630.68	0.722
630.87	0.725
631.06	0.727
631.26	0.721
631.45	0.723
631.64	0.732
631.83	0.734
632.02	0.731
632.21	0.729
632.41	0.737
632.60	0.732
632.79	0.729
632.98	0.730
633.17	0.733
633.36	0.734
633.55	0.730
633.75	0.725
633.94	0.727
634.13	0.727
634.32	0.725
634.51	0.719
634.70	0.722
634.89	0.722
635.09	0.718
635.28	0.718
635.47	0.720
635.66	0.723
635.85	0.719
636.04	0.721
636.23	0.726
636.43	0.728
636.62	0.726
636.81	0.725
637.00	0.728
637.19	0.731
637.38	0.728
637.57	0.728
637.76	0.729
637.95	0.731
638.15	0.726
638.34	0.723
638.53	0.726
638.72	0.727
638.91	0.724
639.10	0.721
639.29	0.722
639.48	0.723
639.67	0.722
639.87	0.721
640.06	0.725
640.25	0.726
640.44	0.727
640.63	0.728
640.82	0.731
641.01	0.731
641.20	0.730
641.39	0.732
641.58	0.735
641.78	0.732
641.97	0.728
642.16	0.744
642.35	0.745
642.54	0.743
642.73	0.736
642.92	0.734
643.11	0.738
643.30	0.738
643.49	0.733
643.68	0.736
643.87	0.739
644.06	0.738
644.25	0.717
644.45	0.720
644.64	0.721
644.83	0.722
645.02	0.719
645.21	0.719
645.40	0.720
645.59	0.720
645.78	0.714
645.97	0.715
646.16	0.718
646.35	0.717
646.54	0.713
646.73	0.715
646.92	0.718
647.11	0.716
647.30	0.711
647.49	0.713
647.68	0.713
647.88	0.710
648.07	0.703
648.26	0.708
648.45	0.710
648.64	0.707
648.83	0.705
649.02	0.706
649.21	0.718
649.40	0.718
649.59	0.713
649.78	0.714
649.97	0.729
650.16	0.729
650.35	0.721
650.54	0.723
650.73	0.732
650.92	0.728
651.11	0.721
651.30	0.717
651.49	0.722
651.68	0.722
651.87	0.719
652.06	0.708
652.25	0.712
652.44	0.714
652.63	0.710
652.82	0.709
653.01	0.709
653.20	0.707
653.39	0.695
653.58	0.692
653.77	0.691
653.96	0.686
654.15	0.678
654.34	0.676
654.53	0.672
654.72	0.666
654.91	0.656
655.10	0.652
655.29	0.651
655.48	0.649
655.67	0.644
655.86	0.641
656.05	0.640
656.24	0.640
656.43	0.635
656.62	0.633
656.81	0.634
657.00	0.633
657.19	0.631
657.38	0.630
657.57	0.630
657.76	0.632
657.95	0.630
658.14	0.633
658.33	0.637
658.51	0.642
658.70	0.642
658.89	0.643
659.08	0.652
659.27	0.660
659.46	0.660
659.65	0.667
659.84	0.670
660.03	0.674
660.22	0.675
660.41	0.679
660.60	0.679
660.79	0.679
660.98	0.685
661.17	0.685
661.36	0.684
661.55	0.685
661.74	0.683
661.92	0.686
662.11	0.688
662.30	0.687
662.49	0.681
662.68	0.681
662.87	0.685
663.06	0.679
663.25	0.679
663.44	0.679
663.63	0.680
663.82	0.679
664.01	0.673
664.20	0.671
664.38	0.673
664.57	0.673
664.76	0.672
664.95	0.672
665.14	0.676
665.33	0.671
665.52	0.679
665.71	0.683
665.90	0.682
666.09	0.684
666.28	0.682
666.46	0.681
666.65	0.683
666.84	0.681
667.03	0.676
667.22	0.674
667.41	0.677
667.60	0.665
667.79	0.658
667.98	0.660
668.16	0.662
668.35	0.661
668.54	0.656
668.73	0.656
668.92	0.657
669.11	0.656
669.30	0.650
669.49	0.647
669.67	0.649
669.86	0.652
670.05	0.648
670.24	0.645
670.43	0.644
670.62	0.644
670.81	0.638
671.00	0.639
671.18	0.638
671.37	0.638
671.56	0.635
671.75	0.634
671.94	0.631
672.13	0.630
672.32	0.625
672.50	0.624
672.69	0.624
672.88	0.625
673.07	0.620
673.26	0.623
673.45	0.624
673.63	0.624
673.82	0.620
674.01	0.622
674.20	0.621
674.39	0.620
674.58	0.620
674.76	0.620
674.95	0.619
675.14	0.619
675.33	0.615
675.52	0.613
675.71	0.613
675.89	0.613
676.08	0.608
676.27	0.608
676.46	0.609
676.65	0.608
676.84	0.607
677.02	0.608
677.21	0.610
677.40	0.609
677.59	0.607
677.78	0.608
677.96	0.610
678.15	0.609
678.34	0.607
678.53	0.608
678.72	0.608
678.90	0.605
679.09	0.600
679.28	0.597
679.47	0.597
679.66	0.596
679.84	0.593
680.03	0.590
680.22	0.590
680.41	0.591
680.60	0.588
680.78	0.587
680.97	0.590
681.16	0.591
681.35	0.591
681.53	0.590
681.72	0.591
681.91	0.593
682.10	0.591
682.29	0.594
682.47	0.591
682.66	0.590
682.85	0.588
683.04	0.587
683.22	0.586
683.41	0.588
683.60	0.587
683.79	0.588
683.97	0.587
684.16	0.586
684.35	0.582
684.54	0.584
684.72	0.585
684.91	0.586
685.10	0.583
685.29	0.584
685.47	0.581
685.66	0.580
685.85	0.576
686.04	0.576
686.22	0.579
686.41	0.581
686.60	0.577
686.79	0.580
686.97	0.581
687.16	0.583
687.35	0.580
687.54	0.583
687.72	0.587
687.91	0.586
688.10	0.588
688.29	0.587
688.47	0.586
688.66	0.586
688.85	0.582
689.03	0.580
689.22	0.585
689.41	0.586
689.60	0.581
689.78	0.578
689.97	0.579
690.16	0.577
690.34	0.573
690.53	0.572
690.72	0.572
690.91	0.570
691.09	0.567
691.28	0.561
691.47	0.558
691.65	0.557
691.84	0.554
692.03	0.553
692.21	0.551
692.40	0.551
692.59	0.548
692.77	0.547
692.96	0.549
693.15	0.549
693.34	0.547
693.52	0.547
693.71	0.548
693.90	0.550
694.08	0.550
694.27	0.551
694.46	0.562
694.64	0.563
694.83	0.562
695.02	0.562
695.20	0.562
695.39	0.562
695.58	0.561
695.76	0.562
695.95	0.561
696.14	0.561
696.32	0.558
696.51	0.548
696.70	0.548
696.88	0.549
697.07	0.547
697.26	0.549
697.44	0.550
697.63	0.548
697.81	0.546
698.00	0.545
698.19	0.545
698.37	0.545
698.56	0.544
698.75	0.544
698.93	0.544
699.12	0.544
699.31	0.542
699.49	0.542
699.68	0.544
699.87	0.547
700.05	0.547
700.24	0.546
700.42	0.548
700.61	0.547
700.80	0.545
700.98	0.545
701.17	0.546
701.36	0.546
701.54	0.545
701.73	0.546
701.91	0.543
702.10	0.543
702.29	0.540
702.47	0.539
702.66	0.541
702.84	0.543
703.03	0.541
703.22	0.542
703.40	0.542
703.59	0.543
703.77	0.543
703.96	0.543
704.15	0.544
704.33	0.544
704.52	0.542
704.70	0.542
704.89	0.542
705.08	0.541
705.26	0.537
705.45	0.537
705.63	0.537
705.82	0.533
706.00	0.531
706.19	0.531
706.38	0.531
706.56	0.531
706.75	0.529
706.93	0.528
707.12	0.529
707.30	0.530
707.49	0.527
707.68	0.525
707.86	0.525
708.05	0.525
708.23	0.522
708.42	0.523
708.60	0.526
708.79	0.526
708.98	0.524
709.16	0.523
709.35	0.525
709.53	0.529
709.72	0.529
709.90	0.530
710.09	0.532
710.27	0.534
710.46	0.537
710.64	0.535
710.83	0.537
711.02	0.539
711.20	0.537
711.39	0.536
711.57	0.533
711.76	0.533
711.94	0.531
712.13	0.532
712.31	0.532
712.50	0.528
712.68	0.525
712.87	0.526
713.05	0.527
713.24	0.527
713.42	0.525
713.61	0.526
713.79	0.527
713.98	0.526
714.16	0.527
714.35	0.527
714.54	0.528
714.72	0.528
714.91	0.526
715.09	0.533
715.28	0.537
715.46	0.536
715.65	0.534
715.83	0.533
716.02	0.537
716.20	0.533
716.39	0.533
716.57	0.534
716.76	0.536
716.94	0.536
717.12	0.528
717.31	0.529
717.49	0.533
717.68	0.534
717.86	0.534
718.05	0.536
718.23	0.539
718.42	0.541
718.60	0.542
718.79	0.550
718.97	0.553
719.16	0.553
719.34	0.551
719.53	0.550
719.71	0.551
719.90	0.553
720.08	0.550
720.27	0.550
720.45	0.551
720.63	0.549
720.82	0.543
721.00	0.545
721.19	0.549
721.37	0.549
721.56	0.549
721.74	0.552
721.93	0.561
722.11	0.568
722.30	0.567
722.48	0.571
722.66	0.573
722.85	0.573
723.03	0.573
723.22	0.571
723.40	0.574
723.59	0.574
723.77	0.578
723.95	0.571
724.14	0.572
724.32	0.574
724.51	0.574
724.69	0.575
724.88	0.575
725.06	0.572
725.24	0.574
725.43	0.576
725.61	0.579
725.80	0.573
725.98	0.571
726.16	0.568
726.35	0.574
726.53	0.573
726.72	0.571
726.90	0.581
727.09	0.583
727.27	0.588
727.45	0.584
727.64	0.593
727.82	0.604
728.01	0.608
728.19	0.605
728.37	0.610
728.56	0.613
728.74	0.620
728.92	0.608
729.11	0.611
729.29	0.610
729.48	0.613
729.66	0.602
729.84	0.601
730.03	0.607
730.21	0.609
730.40	0.599
730.58	0.600
730.76	0.602
730.95	0.604
731.13	0.603
731.31	0.617
731.50	0.628
731.68	0.633
731.86	0.628
732.05	0.642
732.23	0.645
732.42	0.650
732.60	0.654
732.78	0.661
732.97	0.682
733.15	0.689
733.33	0.675
733.52	0.684
733.70	0.696
733.88	0.704
734.07	0.690
734.25	0.718
734.43	0.727
734.62	0.730
734.80	0.722
734.98	0.712
735.17	0.721
735.35	0.730
735.53	0.717
735.72	0.720
735.90	0.749
736.08	0.770
736.27	0.744
736.45	0.755
736.63	0.769
736.82	0.780
737.00	0.780
737.18	0.793
737.37	0.830
737.55	0.856
737.73	0.848
737.92	0.846
738.10	0.844
738.28	0.868
738.46	0.852
738.65	0.871
738.83	0.897
739.01	0.960
739.20	0.946
739.38	0.924
739.56	0.916
739.75	0.924
739.93	0.887
740.11	0.919
740.29	0.922
740.48	0.931
740.66	0.900
740.84	0.895
741.03	0.859
741.21	0.873
741.39	0.851
741.57	0.867
741.76	0.889
741.94	0.895
742.12	0.852
742.31	0.855
742.49	0.882
742.67	0.913
742.85	0.930
743.04	0.935
743.22	0.946
743.40	1.013
743.58	0.991
743.77	1.008
743.95	1.053
744.13	1.116
744.31	1.089
744.50	1.078
744.68	1.079
744.86	1.042
745.04	1.052
745.23	1.137
745.41	1.116
745.59	1.114
745.77	1.067
745.96	1.048
746.14	1.065
746.32	1.061
746.50	1.051
746.69	1.030
746.87	1.051
747.05	1.033
747.23	0.946
747.42	0.925
747.60	0.960
747.78	0.964
747.96	1.003
748.14	0.945
748.33	0.985
748.51	0.977
748.69	0.970
748.87	1.004
749.06	0.999
749.24	0.993
749.42	0.978
749.60	0.960
749.78	0.975
749.97	0.917
750.15	0.909
750.33	0.911
750.51	0.945
750.69	0.948
750.88	0.947
751.06	0.962
751.24	0.998
751.42	0.985
751.60	0.972
751.79	1.057
751.97	1.129
752.15	1.129
752.33	1.084
752.51	1.170
752.69	1.195
752.88	1.148
753.06	1.200
753.24	1.167
753.42	1.222
753.60	1.500
753.78	1.261
753.97	1.281
754.15	1.311
754.33	1.355
754.51	1.164
754.69	1.142
754.87	1.188
755.06	1.092
755.24	1.091
755.42	1.102
755.60	0.979
755.78	0.986
755.96	0.915
756.15	0.915
756.33	0.922
756.51	0.945
756.69	0.927
756.87	0.889
757.05	0.914
757.23	0.892
757.42	0.852
757.60	0.849
757.78	0.841
757.96	0.842
758.14	0.822
758.32	0.805
758.50	0.821
758.69	0.818
758.87	0.806
759.05	0.809
759.23	0.824
759.41	0.827
759.59	0.817
759.77	0.844
759.95	0.878
760.13	0.933
760.32	0.928
760.50	0.920
760.68	0.950
760.86	0.955
761.04	0.923
761.22	0.925
761.40	0.979
761.58	0.980
761.76	0.940
761.95	0.918
762.13	0.869
762.31	0.873
762.49	0.835
762.67	0.854
762.85	0.868
763.03	0.863
763.21	0.839
763.39	0.816
763.57	0.823
763.75	0.819
763.94	0.800
764.12	0.802
764.30	0.828
764.48	0.832
764.66	0.793
764.84	0.789
765.02	0.833
765.20	0.840
765.38	0.816
765.56	0.820
765.74	0.863
765.92	0.866
766.10	0.872
766.28	0.864
766.46	0.898
766.65	0.898
766.83	0.882
767.01	0.859
767.19	0.871
767.37	0.875
767.55	0.860
767.73	0.838
767.91	0.842
768.09	0.831
768.27	0.818
768.45	0.808
768.63	0.815
768.81	0.818
768.99	0.790
769.17	0.817
769.35	0.832
769.53	0.832
769.71	0.809
769.89	0.823
770.07	0.832
770.25	0.812
770.43	0.787
770.61	0.814
770.79	0.819
770.97	0.832
771.15	0.798
771.33	0.805
771.51	0.808
771.69	0.820
771.87	0.824
772.05	0.829
772.24	0.842
772.42	0.855
772.60	0.828
772.78	0.898
772.96	0.931
773.14	0.923
773.32	0.893
773.49	0.898
773.67	0.897
773.85	0.873
774.03	0.859
774.21	0.892
774.39	0.911
774.57	0.938
774.75	0.852
774.93	0.844
775.11	0.872
775.29	0.881
775.47	0.883
775.65	0.894
775.83	0.917
776.01	0.941
776.19	0.888
776.37	0.883
776.55	0.883
776.73	0.881
776.91	0.880
777.09	0.858
777.27	0.861
777.45	0.848
777.63	0.823
777.81	0.815
777.99	0.804
778.17	0.802
778.35	0.777
778.53	0.765
778.71	0.776
778.89	0.759
779.07	0.748
779.24	0.754
779.42	0.758
779.60	0.776
779.78	0.775
779.96	0.779
780.14	0.788
780.32	0.813
780.50	0.792
780.68	0.787
780.86	0.780
781.04	0.798
781.22	0.800
781.40	0.810
781.58	0.802
781.75	0.790
781.93	0.772
782.11	0.771
782.29	0.754
782.47	0.754
782.65	0.741
782.83	0.771
783.01	0.765
783.19	0.755
783.37	0.737
783.55	0.737
783.72	0.760
783.90	0.770
784.08	0.762
784.26	0.776
784.44	0.799
784.62	0.799
784.80	0.761
784.98	0.767
785.16	0.775
785.33	0.794
785.51	0.777
785.69	0.762
785.87	0.764
786.05	0.774
786.23	0.767
786.41	0.764
786.59	0.772
786.77	0.773
786.94	0.756
787.12	0.760
787.30	0.759
787.48	0.758
787.66	0.743
787.84	0.743
788.02	0.733
788.19	0.730
788.37	0.715
788.55	0.718
788.73	0.718
788.91	0.714
789.09	0.696
789.27	0.686
789.44	0.700
789.62	0.707
789.80	0.715
789.98	0.744
790.16	0.732
790.34	0.726
790.51	0.709
790.69	0.732
790.87	0.739
791.05	0.734
791.23	0.727
791.41	0.725
791.58	0.733
791.76	0.713
791.94	0.678
792.12	0.690
792.30	0.693
792.48	0.691
792.65	0.682
792.83	0.690
793.01	0.699
793.19	0.697
793.37	0.680
793.54	0.677
793.72	0.690
793.90	0.688
794.08	0.676
794.26	0.677
794.43	0.689
794.61	0.673
794.79	0.659
794.97	0.657
795.15	0.663
795.32	0.668
795.50	0.655
795.68	0.649
795.86	0.656
796.04	0.656
796.21	0.650
796.39	0.649
796.57	0.663
796.75	0.673
796.92	0.676
797.10	0.682
797.28	0.685
797.46	0.688
797.64	0.689
797.81	0.697
797.99	0.701
798.17	0.705
798.35	0.698
798.52	0.702
798.70	0.698
798.88	0.708
799.06	0.706
799.23	0.709
799.41	0.719
799.59	0.709
799.77	0.695
799.94	0.704
800.12	0.714
800.30	0.732
800.48	0.731
800.65	0.731
800.83	0.718
801.01	0.709
801.19	0.709
801.36	0.704
801.54	0.709
801.72	0.720
801.90	0.705
802.07	0.702
802.25	0.686
802.43	0.668
802.60	0.661
802.78	0.671
802.96	0.678
803.14	0.671
803.31	0.667
803.49	0.668
803.67	0.665
803.84	0.668
804.02	0.658
804.20	0.661
804.38	0.668
804.55	0.668
804.73	0.651
804.91	0.651
805.08	0.662
805.26	0.660
805.44	0.728
805.61	0.731
805.79	0.730
805.97	0.730
806.15	0.718
806.32	0.712
806.50	0.720
806.68	0.719
806.85	0.710
807.03	0.702
807.21	0.721
807.38	0.648
807.56	0.636
807.74	0.649
807.91	0.656
808.09	0.660
808.27	0.680
808.44	0.709
808.62	0.720
808.80	0.721
808.97	0.715
809.15	0.709
809.33	0.730
809.50	0.740
809.68	0.724
809.86	0.734
810.03	0.771
810.21	0.749
810.39	0.728
810.56	0.736
810.74	0.765
810.91	0.847
811.09	0.832
811.27	0.853
811.44	0.859
811.62	0.860
811.80	0.837
811.97	0.803
812.15	0.802
812.33	0.795
812.50	0.777
812.68	0.765
812.85	0.706
813.03	0.710
813.21	0.677
813.38	0.672
813.56	0.677
813.74	0.688
813.91	0.694
814.09	0.726
814.26	0.719
814.44	0.720
814.62	0.708
814.79	0.710
814.97	0.716
815.14	0.720
815.32	0.723
815.50	0.742
815.67	0.747
815.85	0.737
816.02	0.724
816.20	0.733
816.38	0.753
816.55	0.758
816.73	0.759
816.90	0.770
817.08	0.806
817.26	0.812
817.43	0.791
817.61	0.819
817.78	0.847
817.96	0.824
818.13	0.814
818.31	0.814
818.49	0.832
818.66	0.821
818.84	0.806
819.01	0.781
819.19	0.788
819.36	0.789
819.54	0.754
819.71	0.803
819.89	0.821
820.07	0.836
820.24	0.827
820.42	0.826
820.59	0.849
820.77	0.874
820.94	0.861
821.12	0.885
821.29	0.905
821.47	0.909
821.64	0.827
821.82	0.841
822.00	0.837
822.17	0.832
822.35	0.825
822.52	0.830
822.70	0.820
822.87	0.831
823.05	0.806
823.22	0.818
823.40	0.852
823.57	0.883
823.75	0.860
823.92	0.891
824.10	0.916
824.27	0.965
824.45	0.951
824.62	1.033
824.80	1.062
824.97	1.083
825.15	1.073
825.32	1.089
825.50	1.093
825.67	1.111
825.85	1.076
826.02	1.116
826.20	1.163
826.37	1.377
826.55	1.231
826.72	1.657
826.90	1.976
827.07	2.414
827.25	1.988
827.42	-0.000
827.60	-0.000
827.77	-0.000
827.95	-0.000
828.12	-0.000
828.30	-0.000
828.47	-0.000
828.65	2.076
828.82	-0.000
829.00	-0.000
829.17	-0.000
829.34	-0.000
829.52	-0.000
829.69	-0.000
829.87	-0.000
830.04	-0.000
830.22	-0.000
830.39	-0.000
830.57	-0.000
830.74	-0.000
830.92	-0.000
831.09	-0.000
831.26	-0.000
831.44	-0.000
831.61	-0.000
831.79	-0.000
831.96	-0.000
832.14	-0.000
832.31	-0.000
832.49	-0.000
832.66	-0.000
832.83	-0.000
833.01	-0.000
833.18	-0.000
833.36	-0.000
833.53	-0.000
833.70	-0.000
833.88	-0.000
834.05	-0.000
834.23	-0.000
834.40	-0.000
834.58	-0.000
834.75	-0.000
834.92	-0.000
835.10	-0.000
835.27	-0.000
835.45	-0.000
835.62	-0.000
835.79	-0.000
835.97	-0.000
836.14	-0.000
836.32	-0.000
836.49	-0.000
836.66	-0.000
836.84	-0.000
837.01	-0.000
837.18	-0.000
837.36	-0.000
837.53	-0.000
837.71	-0.000
837.88	-0.000
838.05	-0.000
838.23	-0.000
838.40	-0.000
838.58	-0.000
838.75	-0.000
838.92	-0.000
839.10	-0.000
839.27	-0.000
839.44	-0.000
839.62	-0.000
839.79	-0.000
839.96	-0.000
840.14	-0.000
840.31	-0.000
840.48	-0.000
840.66	-0.000
840.83	-0.000
841.01	-0.000
841.18	-0.000
841.35	-0.000
841.53	-0.000
841.70	-0.000
841.87	-0.000
842.05	-0.000
842.22	-0.000
842.39	-0.000
842.57	-0.000
842.74	-0.000
842.91	-0.000
843.09	-0.000
843.26	-0.000
843.43	-0.000
843.60	-0.000
843.78	-0.000
843.95	-0.000
844.12	-0.000
844.30	-0.000
844.47	-0.000
844.64	-0.000
844.82	-0.000
844.99	-0.000
845.16	-0.000
845.34	-0.000
845.51	-0.000
845.68	-0.000
845.85	-0.000
846.03	-0.000
846.20	-0.000
846.37	-0.000
846.55	-0.000
846.72	-0.000
846.89	-0.000
847.06	-0.000
847.24	-0.000
847.41	-0.000
847.58	-0.000
847.76	-0.000
847.93	-0.000
848.10	-0.000
848.27	-0.000
848.45	-0.000
848.62	-0.000
848.79	-0.000
848.97	-0.000
849.14	-0.000
849.31	-0.000
849.48	-0.000
849.66	-0.000
849.83	-0.000
850.00	-0.000
850.17	-0.000
850.35	-0.000
850.52	-0.000
850.69	-0.000
850.86	-0.000
851.04	-0.000
851.21	-0.000
851.38	-0.000
851.55	-0.000
851.72	-0.000
851.90	-0.000
852.07	-0.000
852.24	-0.000
852.41	-0.000
852.59	-0.000
852.76	-0.000
852.93	-0.000
853.10	-0.000
853.28	-0.000
853.45	-0.000
853.62	-0.000
853.79	-0.000
853.96	-0.000
854.14	-0.000
854.31	-0.000
854.48	-0.000
854.65	-0.000
854.82	-0.000
855.00	-0.000
855.17	-0.000
855.34	-0.000
855.51	-0.000
855.68	-0.000
855.86	-0.000
856.03	-0.000
856.20	-0.000
856.37	-0.000
856.54	-0.000
856.72	-0.000
856.89	-0.000
857.06	-0.000
857.23	-0.000
857.40	-0.000
857.57	-0.000
857.75	-0.000
857.92	-0.000
858.09	-0.000
858.26	-0.000
858.43	-0.000
858.60	-0.000
858.78	-0.000
858.95	-0.000
859.12	-0.000
859.29	-0.000
859.46	-0.000
859.63	-0.000
859.81	-0.000
859.98	-0.000
860.15	-0.000
860.32	-0.000
860.49	-0.000
860.66	-0.000
860.83	-0.000
861.01	-0.000
861.18	-0.000
861.35	-0.000
861.52	-0.000
861.69	-0.000
861.86	-0.000
862.03	-0.000
862.21	-0.000
862.38	-0.000
862.55	-0.000
862.72	-0.000
862.89	-0.000
863.06	-0.000
863.23	-0.000
863.40	-0.000
863.58	-0.000
863.75	-0.000
863.92	-0.000
864.09	-0.000
864.26	-0.000
864.43	-0.000
864.60	-0.000
864.77	-0.000
864.94	-0.000
865.11	-0.000
865.29	-0.000
865.46	-0.000
865.63	-0.000
865.80	-0.000
865.97	-0.000
866.14	-0.000
866.31	-0.000
866.48	-0.000
866.65	-0.000
866.82	-0.000
866.99	-0.000
867.16	-0.000
867.34	-0.000
867.51	-0.000
867.68	-0.000
867.85	-0.000
868.02	-0.000
868.19	-0.000
868.36	-0.000
868.53	-0.000
868.70	-0.000
868.87	-0.000
869.04	-0.000
869.21	-0.000
869.38	-0.000
869.55	-0.000
869.72	-0.000
869.89	-0.000
870.06	-0.000
870.24	-0.000
870.41	-0.000
870.58	-0.000
870.75	-0.000
870.92	-0.000
871.09	-0.000
871.26	-0.000
871.43	-0.000
871.60	-0.000
871.77	-0.000
871.94	-0.000
872.11	-0.000
872.28	-0.000
872.45	-0.000
872.62	-0.000
872.79	-0.000
872.96	-0.000
873.13	-0.000
873.30	-0.000
873.47	-0.000
873.64	-0.000
873.81	-0.000
873.98	-0.000
874.15	-0.000
874.32	-0.000
874.49	-0.000
874.66	-0.000
874.83	-0.000
875.00	-0.000
875.17	-0.000
875.34	-0.000
875.51	-0.000
875.68	-0.000
875.85	-0.000
876.02	-0.000
876.19	-0.000
876.36	-0.000
876.53	-0.000
876.70	-0.000
876.87	-0.000
877.04	-0.000
877.21	-0.000
877.38	-0.000
877.55	-0.000
877.72	-0.000
877.89	-0.000
878.06	-0.000
878.23	-0.000
878.39	-0.000
878.56	-0.000
878.73	-0.000
878.90	-0.000
879.07	-0.000
879.24	-0.000
879.41	-0.000
879.58	-0.000
879.75	-0.000
879.92	-0.000
880.09	-0.000
880.26	-0.000
880.43	-0.000
880.60	-0.000
880.77	-0.000
880.94	-0.000
881.11	-0.000
881.27	-0.000
881.44	-0.000
881.61	-0.000
881.78	-0.000
881.95	-0.000
882.12	-0.000
882.29	-0.000
882.46	-0.000
882.63	-0.000
882.80	-0.000
882.97	-0.000
883.14	-0.000
883.30	-0.000
883.47	-0.000
883.64	-0.000
883.81	-0.000
883.98	-0.000
884.15	-0.000
884.32	-0.000
884.49	-0.000
884.66	-0.000
884.82	-0.000
884.99	-0.000
885.16	-0.000
885.33	-0.000
885.50	-0.000
885.67	-0.000
885.84	-0.000
886.01	-0.000
886.17	-0.000
886.34	-0.000
886.51	-0.000
886.68	-0.000
886.85	-0.000
887.02	-0.000
887.19	-0.000
887.36	-0.000
887.52	-0.000
887.69	-0.000
887.86	-0.000
888.03	-0.000
888.20	-0.000
888.37	-0.000
888.54	-0.000
888.70	-0.000
888.87	-0.000
889.04	-0.000
889.21	-0.000
889.38	-0.000
889.55	-0.000
889.71	-0.000
889.88	-0.000
890.05	-0.000
890.22	-0.000
890.39	-0.000
>>>>>End Processed Spectral Data<<<<<
