SpectraSuite Data File
++++++++++++++++++++++++++++++++++++
Date: Fri Jun 19 13:30:01 CEST 2015
User: introlabs
Dark Spectrum Present: Yes
Reference Spectrum Present: Yes
Number of Sampled Component Spectra: 1
Spectrometers: USB4H08886
Integration Time (usec): 745692 (USB4H08886)
Spectra Averaged: 5 (USB4H08886)
Boxcar Smoothing: 5 (USB4H08886)
Correct for Electrical Dark: Yes (USB4H08886)
Strobe/Lamp Enabled: No (USB4H08886)
Correct for Detector Non-linearity: Yes (USB4H08886)
Correct for Stray Light: Yes (USB4H08886)
Number of Pixels in Processed Spectrum: 3648
>>>>>Begin Processed Spectral Data<<<<<
178.14	-0.000
178.36	-0.000
178.57	-0.000
178.79	-0.000
179.01	-0.000
179.22	-0.000
179.44	-0.000
179.65	-0.000
179.87	-0.000
180.08	-0.000
180.30	-0.000
180.52	-0.000
180.73	-0.000
180.95	-0.000
181.16	-0.000
181.38	-0.000
181.59	-0.000
181.81	-0.000
182.03	-0.000
182.24	-0.000
182.46	-0.000
182.67	-0.000
182.89	-0.000
183.10	-0.000
183.32	-0.000
183.54	-0.000
183.75	-0.000
183.97	-0.000
184.18	-0.000
184.40	-0.000
184.61	-0.000
184.83	-0.000
185.04	-0.000
185.26	-0.000
185.48	-0.000
185.69	-0.000
185.91	-0.000
186.12	-0.000
186.34	-0.000
186.55	-0.000
186.77	-0.000
186.98	-0.000
187.20	-0.000
187.42	-0.000
187.63	-0.000
187.85	-0.000
188.06	-0.000
188.28	-0.000
188.49	-0.000
188.71	-0.000
188.92	-0.000
189.14	-0.000
189.36	-0.000
189.57	-0.000
189.79	-0.000
190.00	-0.000
190.22	-0.000
190.43	-0.000
190.65	-0.000
190.86	-0.000
191.08	-0.000
191.29	-0.000
191.51	-0.000
191.72	-0.000
191.94	-0.000
192.16	-0.000
192.37	-0.000
192.59	-0.000
192.80	-0.000
193.02	-0.000
193.23	-0.000
193.45	-0.000
193.66	-0.000
193.88	-0.000
194.09	-0.000
194.31	-0.000
194.52	-0.000
194.74	-0.000
194.95	-0.000
195.17	-0.000
195.38	-0.000
195.60	-0.000
195.81	-0.000
196.03	-0.000
196.25	-0.000
196.46	-0.000
196.68	-0.000
196.89	-0.000
197.11	-0.000
197.32	-0.000
197.54	-0.000
197.75	-0.000
197.97	-0.000
198.18	-0.000
198.40	-0.000
198.61	-0.000
198.83	-0.000
199.04	-0.000
199.26	-0.000
199.47	-0.000
199.69	-0.000
199.90	-0.000
200.12	-0.000
200.33	-0.000
200.55	-0.000
200.76	-0.000
200.98	-0.000
201.19	-0.000
201.41	-0.000
201.62	-0.000
201.84	-0.000
202.05	-0.000
202.27	-0.000
202.48	-0.000
202.70	-0.000
202.91	-0.000
203.13	-0.000
203.34	-0.000
203.56	-0.000
203.77	-0.000
203.99	-0.000
204.20	-0.000
204.42	-0.000
204.63	-0.000
204.85	-0.000
205.06	-0.000
205.28	-0.000
205.49	-0.000
205.71	-0.000
205.92	-0.000
206.14	-0.000
206.35	-0.000
206.56	-0.000
206.78	-0.000
206.99	-0.000
207.21	-0.000
207.42	-0.000
207.64	-0.000
207.85	-0.000
208.07	-0.000
208.28	-0.000
208.50	-0.000
208.71	-0.000
208.93	-0.000
209.14	-0.000
209.36	-0.000
209.57	-0.000
209.79	-0.000
210.00	-0.000
210.22	-0.000
210.43	-0.000
210.64	-0.000
210.86	-0.000
211.07	-0.000
211.29	-0.000
211.50	-0.000
211.72	-0.000
211.93	-0.000
212.15	-0.000
212.36	-0.000
212.58	-0.000
212.79	-0.000
213.01	-0.000
213.22	-0.000
213.43	-0.000
213.65	-0.000
213.86	-0.000
214.08	-0.000
214.29	-0.000
214.51	-0.000
214.72	-0.000
214.94	-0.000
215.15	-0.000
215.36	-0.000
215.58	-0.000
215.79	-0.000
216.01	-0.000
216.22	-0.000
216.44	-0.000
216.65	-0.000
216.87	-0.000
217.08	-0.000
217.29	-0.000
217.51	-0.000
217.72	-0.000
217.94	-0.000
218.15	-0.000
218.37	-0.000
218.58	-0.000
218.80	-0.000
219.01	-0.000
219.22	-0.000
219.44	-0.000
219.65	-0.000
219.87	-0.000
220.08	-0.000
220.30	-0.000
220.51	-0.000
220.72	-0.000
220.94	-0.000
221.15	-0.000
221.37	-0.000
221.58	-0.000
221.79	-0.000
222.01	-0.000
222.22	-0.000
222.44	-0.000
222.65	-0.000
222.87	-0.000
223.08	-0.000
223.29	-0.000
223.51	-0.000
223.72	-0.000
223.94	-0.000
224.15	-0.000
224.36	-0.000
224.58	-0.000
224.79	-0.000
225.01	-0.000
225.22	-0.000
225.44	-0.000
225.65	-0.000
225.86	-0.000
226.08	-0.000
226.29	-0.000
226.51	-0.000
226.72	-0.000
226.93	-0.000
227.15	-0.000
227.36	-0.000
227.58	-0.000
227.79	-0.000
228.00	-0.000
228.22	-0.000
228.43	-0.000
228.65	-0.000
228.86	-0.000
229.07	-0.000
229.29	-0.000
229.50	-0.000
229.72	-0.000
229.93	-0.000
230.14	-0.000
230.36	-0.000
230.57	-0.000
230.78	-0.000
231.00	-0.000
231.21	-0.000
231.43	-0.000
231.64	-0.000
231.85	-0.000
232.07	-0.000
232.28	-0.000
232.50	-0.000
232.71	-0.000
232.92	-0.000
233.14	-0.000
233.35	-0.000
233.56	-0.000
233.78	-0.000
233.99	-0.000
234.21	-0.000
234.42	-0.000
234.63	-0.000
234.85	-0.000
235.06	-0.000
235.27	-0.000
235.49	-0.000
235.70	-0.000
235.91	-0.000
236.13	-0.000
236.34	-0.000
236.56	-0.000
236.77	-0.000
236.98	-0.000
237.20	-0.000
237.41	-0.000
237.62	-0.000
237.84	-0.000
238.05	-0.000
238.26	-0.000
238.48	-0.000
238.69	-0.000
238.91	-0.000
239.12	-0.000
239.33	-0.000
239.55	-0.000
239.76	-0.000
239.97	-0.000
240.19	-0.000
240.40	-0.000
240.61	-0.000
240.83	-0.000
241.04	-0.000
241.25	-0.000
241.47	-0.000
241.68	-0.000
241.89	-0.000
242.11	-0.000
242.32	-0.000
242.53	-0.000
242.75	-0.000
242.96	-0.000
243.17	-0.000
243.39	-0.000
243.60	-0.000
243.81	-0.000
244.03	-0.000
244.24	-0.000
244.45	-0.000
244.67	-0.000
244.88	-0.000
245.09	-0.000
245.31	-0.000
245.52	-0.000
245.73	-0.000
245.95	-0.000
246.16	-0.000
246.37	-0.000
246.59	-0.000
246.80	-0.000
247.01	-0.000
247.23	-0.000
247.44	-0.000
247.65	-0.000
247.87	-0.000
248.08	-0.000
248.29	-0.000
248.51	-0.000
248.72	-0.000
248.93	-0.000
249.15	-0.000
249.36	-0.000
249.57	-0.000
249.78	-0.000
250.00	-0.000
250.21	-0.000
250.42	-0.000
250.64	-0.000
250.85	-0.000
251.06	-0.000
251.28	-0.000
251.49	-0.000
251.70	-0.000
251.92	-0.000
252.13	-0.000
252.34	-0.000
252.55	-0.000
252.77	-0.000
252.98	-0.000
253.19	-0.000
253.41	-0.000
253.62	-0.000
253.83	-0.000
254.05	-0.000
254.26	-0.000
254.47	-0.000
254.68	-0.000
254.90	-0.000
255.11	-0.000
255.32	-0.000
255.54	-0.000
255.75	-0.000
255.96	-0.000
256.17	-0.000
256.39	-0.000
256.60	-0.000
256.81	-0.000
257.03	-0.000
257.24	-0.000
257.45	-0.000
257.66	-0.000
257.88	-0.000
258.09	-0.000
258.30	-0.000
258.51	-0.000
258.73	-0.000
258.94	-0.000
259.15	-0.000
259.37	-0.000
259.58	-0.000
259.79	-0.000
260.00	-0.000
260.22	-0.000
260.43	-0.000
260.64	-0.000
260.85	-0.000
261.07	-0.000
261.28	-0.000
261.49	-0.000
261.71	-0.000
261.92	-0.000
262.13	-0.000
262.34	-0.000
262.56	-0.000
262.77	-0.000
262.98	-0.000
263.19	-0.000
263.41	-0.000
263.62	-0.000
263.83	-0.000
264.04	-0.000
264.26	-0.000
264.47	-0.000
264.68	-0.000
264.89	-0.000
265.11	-0.000
265.32	-0.000
265.53	-0.000
265.74	-0.000
265.96	-0.000
266.17	-0.000
266.38	-0.000
266.59	-0.000
266.81	-0.000
267.02	-0.000
267.23	-0.000
267.44	-0.000
267.65	-0.000
267.87	-0.000
268.08	-0.000
268.29	-0.000
268.50	-0.000
268.72	-0.000
268.93	-0.000
269.14	-0.000
269.35	-0.000
269.57	-0.000
269.78	-0.000
269.99	-0.000
270.20	-0.000
270.41	-0.000
270.63	-0.000
270.84	-0.000
271.05	-0.000
271.26	-0.000
271.48	-0.000
271.69	-0.000
271.90	-0.000
272.11	-0.000
272.32	-0.000
272.54	-0.000
272.75	-0.000
272.96	-0.000
273.17	-0.000
273.39	-0.000
273.60	-0.000
273.81	-0.000
274.02	-0.000
274.23	-0.000
274.45	-0.000
274.66	-0.000
274.87	-0.000
275.08	-0.000
275.29	-0.000
275.51	-0.000
275.72	-0.000
275.93	-0.000
276.14	-0.000
276.35	-0.000
276.57	-0.000
276.78	-0.000
276.99	-0.000
277.20	-0.000
277.41	-0.000
277.63	-0.000
277.84	-0.000
278.05	-0.000
278.26	-0.000
278.47	-0.000
278.69	-0.000
278.90	-0.000
279.11	-0.000
279.32	-0.000
279.53	-0.000
279.74	-0.000
279.96	-0.000
280.17	-0.000
280.38	-0.000
280.59	-0.000
280.80	-0.000
281.02	-0.000
281.23	-0.000
281.44	-0.000
281.65	-0.000
281.86	-0.000
282.07	-0.000
282.29	-0.000
282.50	-0.000
282.71	-0.000
282.92	-0.000
283.13	-0.000
283.35	-0.000
283.56	-0.000
283.77	-0.000
283.98	-0.000
284.19	-0.000
284.40	-0.000
284.62	-0.000
284.83	-0.000
285.04	-0.000
285.25	-0.000
285.46	-0.000
285.67	-0.000
285.88	-0.000
286.10	-0.000
286.31	-0.000
286.52	-0.000
286.73	-0.000
286.94	-0.000
287.15	-0.000
287.37	-0.000
287.58	-0.000
287.79	-0.000
288.00	-0.000
288.21	-0.000
288.42	-0.000
288.63	-0.000
288.85	-0.000
289.06	-0.000
289.27	-0.000
289.48	-0.000
289.69	-0.000
289.90	-0.000
290.11	-0.000
290.33	-0.000
290.54	-0.000
290.75	-0.000
290.96	-0.000
291.17	-0.000
291.38	-0.000
291.59	-0.000
291.81	-0.000
292.02	-0.000
292.23	-0.000
292.44	-0.000
292.65	-0.000
292.86	-0.000
293.07	-0.000
293.28	-0.000
293.50	-0.000
293.71	-0.000
293.92	-0.000
294.13	-0.000
294.34	-0.000
294.55	-0.000
294.76	-0.000
294.97	-0.000
295.19	-0.000
295.40	-0.000
295.61	-0.000
295.82	-0.000
296.03	-0.000
296.24	-0.000
296.45	-0.000
296.66	-0.000
296.87	-0.000
297.09	-0.000
297.30	-0.000
297.51	2.868
297.72	2.416
297.93	-0.000
298.14	2.844
298.35	2.412
298.56	2.221
298.77	-0.000
298.99	3.054
299.20	2.525
299.41	2.341
299.62	2.157
299.83	2.120
300.04	1.941
300.25	1.913
300.46	2.013
300.67	1.937
300.88	1.818
301.10	1.808
301.31	1.955
301.52	1.836
301.73	1.729
301.94	1.728
302.15	1.765
302.36	1.687
302.57	1.585
302.78	1.593
302.99	1.664
303.20	1.692
303.41	1.549
303.63	1.516
303.84	1.523
304.05	1.510
304.26	1.430
304.47	1.436
304.68	1.435
304.89	1.421
305.10	1.365
305.31	1.343
305.52	1.394
305.73	1.382
305.94	1.337
306.15	1.330
306.37	1.359
306.58	1.364
306.79	1.321
307.00	1.347
307.21	1.394
307.42	1.387
307.63	1.347
307.84	1.306
308.05	1.352
308.26	1.351
308.47	1.322
308.68	1.318
308.89	1.319
309.10	1.317
309.31	1.273
309.52	1.263
309.73	1.282
309.95	1.273
310.16	1.241
310.37	1.226
310.58	1.248
310.79	1.247
311.00	1.240
311.21	1.239
311.42	1.241
311.63	1.234
311.84	1.212
312.05	1.210
312.26	1.236
312.47	1.249
312.68	1.221
312.89	1.200
313.10	1.208
313.31	1.176
313.52	1.179
313.73	1.181
313.94	1.183
314.15	1.164
314.36	1.139
314.57	1.130
314.78	1.115
314.99	1.109
315.21	1.093
315.42	1.096
315.63	1.112
315.84	1.087
316.05	1.072
316.26	1.079
316.47	1.099
316.68	1.094
316.89	1.074
317.10	1.097
317.31	1.105
317.52	1.110
317.73	1.085
317.94	1.085
318.15	1.134
318.36	1.130
318.57	1.111
318.78	1.096
318.99	1.133
319.20	1.129
319.41	1.089
319.62	1.090
319.83	1.102
320.04	1.097
320.25	1.082
320.46	1.047
320.67	1.051
320.88	1.047
321.09	1.034
321.30	1.018
321.51	1.035
321.72	1.034
321.93	1.016
322.14	1.009
322.35	1.036
322.56	1.037
322.77	1.023
322.98	1.036
323.19	1.045
323.40	1.051
323.61	1.029
323.82	1.023
324.03	1.028
324.24	1.025
324.45	1.012
324.66	0.992
324.87	0.990
325.08	0.989
325.29	0.967
325.50	0.965
325.71	0.970
325.92	0.977
326.13	0.964
326.34	0.965
326.55	0.976
326.76	0.973
326.97	0.962
327.18	0.955
327.39	0.982
327.60	0.981
327.80	0.978
328.01	0.975
328.22	0.976
328.43	0.979
328.64	0.966
328.85	0.969
329.06	0.973
329.27	0.971
329.48	0.966
329.69	0.947
329.90	0.958
330.11	0.950
330.32	0.944
330.53	0.937
330.74	0.936
330.95	0.936
331.16	0.920
331.37	0.928
331.58	0.929
331.79	0.929
332.00	0.919
332.21	0.913
332.42	0.917
332.63	0.907
332.83	0.902
333.04	0.904
333.25	0.916
333.46	0.915
333.67	0.899
333.88	0.902
334.09	0.912
334.30	0.909
334.51	0.899
334.72	0.894
334.93	0.899
335.14	0.898
335.35	0.889
335.56	0.885
335.77	0.895
335.98	0.894
336.18	0.888
336.39	0.881
336.60	0.885
336.81	0.883
337.02	0.881
337.23	0.885
337.44	0.890
337.65	0.891
337.86	0.880
338.07	0.874
338.28	0.880
338.49	0.876
338.70	0.867
338.91	0.874
339.11	0.882
339.32	0.878
339.53	0.866
339.74	0.864
339.95	0.860
340.16	0.859
340.37	0.851
340.58	0.849
340.79	0.854
341.00	0.855
341.21	0.843
341.41	0.845
341.62	0.848
341.83	0.849
342.04	0.842
342.25	0.854
342.46	0.858
342.67	0.857
342.88	0.849
343.09	0.849
343.30	0.857
343.50	0.860
343.71	0.849
343.92	0.846
344.13	0.851
344.34	0.851
344.55	0.834
344.76	0.833
344.97	0.837
345.18	0.836
345.38	0.832
345.59	0.825
345.80	0.825
346.01	0.823
346.22	0.819
346.43	0.813
346.64	0.823
346.85	0.822
347.06	0.814
347.26	0.815
347.47	0.820
347.68	0.816
347.89	0.812
348.10	0.806
348.31	0.813
348.52	0.812
348.73	0.809
348.93	0.806
349.14	0.809
349.35	0.808
349.56	0.801
349.77	0.795
349.98	0.802
350.19	0.799
350.39	0.795
350.60	0.790
350.81	0.805
351.02	0.804
351.23	0.799
351.44	0.802
351.65	0.807
351.86	0.805
352.06	0.803
352.27	0.802
352.48	0.804
352.69	0.803
352.90	0.799
353.11	0.785
353.31	0.793
353.52	0.788
353.73	0.779
353.94	0.779
354.15	0.787
354.36	0.787
354.57	0.777
354.77	0.779
354.98	0.779
355.19	0.778
355.40	0.779
355.61	0.784
355.82	0.788
356.02	0.788
356.23	0.780
356.44	0.782
356.65	0.785
356.86	0.787
357.07	0.781
357.27	0.785
357.48	0.787
357.69	0.782
357.90	0.766
358.11	0.763
358.32	0.768
358.52	0.770
358.73	0.760
358.94	0.762
359.15	0.767
359.36	0.767
359.56	0.761
359.77	0.757
359.98	0.764
360.19	0.764
360.40	0.761
360.61	0.761
360.81	0.760
361.02	0.761
361.23	0.753
361.44	0.751
361.65	0.752
361.85	0.751
362.06	0.750
362.27	0.753
362.48	0.754
362.69	0.756
362.89	0.749
363.10	0.751
363.31	0.756
363.52	0.759
363.73	0.754
363.93	0.754
364.14	0.757
364.35	0.758
364.56	0.749
364.77	0.750
364.97	0.751
365.18	0.752
365.39	0.747
365.60	0.744
365.81	0.745
366.01	0.744
366.22	0.741
366.43	0.740
366.64	0.742
366.84	0.747
367.05	0.743
367.26	0.743
367.47	0.745
367.68	0.745
367.88	0.742
368.09	0.740
368.30	0.742
368.51	0.742
368.71	0.741
368.92	0.745
369.13	0.743
369.34	0.743
369.55	0.742
369.75	0.741
369.96	0.749
370.17	0.748
370.38	0.746
370.58	0.746
370.79	0.751
371.00	0.750
371.21	0.741
371.41	0.746
371.62	0.749
371.83	0.745
372.04	0.742
372.24	0.735
372.45	0.736
372.66	0.736
372.87	0.733
373.07	0.730
373.28	0.730
373.49	0.733
373.70	0.724
373.90	0.723
374.11	0.733
374.32	0.732
374.53	0.731
374.73	0.732
374.94	0.734
375.15	0.734
375.36	0.732
375.56	0.741
375.77	0.741
375.98	0.741
376.19	0.739
376.39	0.732
376.60	0.736
376.81	0.736
377.02	0.733
377.22	0.731
377.43	0.731
377.64	0.731
377.84	0.722
378.05	0.726
378.26	0.733
378.47	0.731
378.67	0.727
378.88	0.725
379.09	0.726
379.30	0.726
379.50	0.724
379.71	0.727
379.92	0.729
380.12	0.728
380.33	0.719
380.54	0.716
380.75	0.723
380.95	0.723
381.16	0.721
381.37	0.722
381.57	0.724
381.78	0.724
381.99	0.723
382.20	0.722
382.40	0.725
382.61	0.726
382.82	0.722
383.02	0.716
383.23	0.719
383.44	0.719
383.64	0.716
383.85	0.719
384.06	0.722
384.27	0.720
384.47	0.717
384.68	0.719
384.89	0.724
385.09	0.724
385.30	0.723
385.51	0.723
385.71	0.726
385.92	0.727
386.13	0.724
386.33	0.727
386.54	0.727
386.75	0.727
386.95	0.722
387.16	0.717
387.37	0.719
387.58	0.719
387.78	0.716
387.99	0.715
388.20	0.716
388.40	0.713
388.61	0.708
388.82	0.711
389.02	0.714
389.23	0.714
389.44	0.712
389.64	0.712
389.85	0.723
390.06	0.723
390.26	0.723
390.47	0.722
390.68	0.725
390.88	0.724
391.09	0.719
391.30	0.718
391.50	0.718
391.71	0.718
391.92	0.715
392.12	0.707
392.33	0.708
392.53	0.708
392.74	0.708
392.95	0.706
393.15	0.709
393.36	0.711
393.57	0.708
393.77	0.711
393.98	0.713
394.19	0.713
394.39	0.713
394.60	0.714
394.81	0.715
395.01	0.713
395.22	0.711
395.43	0.712
395.63	0.716
395.84	0.717
396.04	0.713
396.25	0.715
396.46	0.717
396.66	0.715
396.87	0.712
397.08	0.709
397.28	0.712
397.49	0.713
397.69	0.709
397.90	0.704
398.11	0.705
398.31	0.706
398.52	0.702
398.73	0.703
398.93	0.702
399.14	0.702
399.34	0.701
399.55	0.701
399.76	0.702
399.96	0.702
400.17	0.701
400.37	0.699
400.58	0.706
400.79	0.707
400.99	0.703
401.20	0.709
401.41	0.711
401.61	0.711
401.82	0.716
402.02	0.716
402.23	0.717
402.44	0.716
402.64	0.717
402.85	0.712
403.05	0.711
403.26	0.710
403.47	0.704
403.67	0.703
403.88	0.704
404.08	0.698
404.29	0.696
404.50	0.696
404.70	0.696
404.91	0.695
405.11	0.692
405.32	0.693
405.52	0.693
405.73	0.693
405.94	0.691
406.14	0.694
406.35	0.696
406.55	0.696
406.76	0.694
406.97	0.694
407.17	0.697
407.38	0.697
407.58	0.694
407.79	0.697
407.99	0.699
408.20	0.700
408.41	0.695
408.61	0.693
408.82	0.694
409.02	0.694
409.23	0.691
409.43	0.691
409.64	0.692
409.84	0.692
410.05	0.688
410.26	0.687
410.46	0.686
410.67	0.686
410.87	0.688
411.08	0.689
411.28	0.690
411.49	0.692
411.69	0.689
411.90	0.691
412.11	0.692
412.31	0.693
412.52	0.691
412.72	0.692
412.93	0.693
413.13	0.692
413.34	0.688
413.54	0.690
413.75	0.691
413.95	0.690
414.16	0.687
414.37	0.690
414.57	0.690
414.78	0.692
414.98	0.690
415.19	0.691
415.39	0.689
415.60	0.690
415.80	0.689
416.01	0.688
416.21	0.691
416.42	0.691
416.62	0.685
416.83	0.685
417.03	0.684
417.24	0.684
417.44	0.682
417.65	0.681
417.86	0.682
418.06	0.680
418.27	0.678
418.47	0.679
418.68	0.681
418.88	0.681
419.09	0.680
419.29	0.681
419.50	0.681
419.70	0.681
419.91	0.679
420.11	0.677
420.32	0.680
420.52	0.679
420.73	0.678
420.93	0.679
421.14	0.682
421.34	0.681
421.55	0.678
421.75	0.678
421.96	0.680
422.16	0.680
422.37	0.679
422.57	0.677
422.78	0.679
422.98	0.676
423.19	0.674
423.39	0.672
423.60	0.676
423.80	0.676
424.01	0.674
424.21	0.677
424.42	0.678
424.62	0.678
424.83	0.677
425.03	0.677
425.23	0.680
425.44	0.679
425.64	0.679
425.85	0.678
426.05	0.679
426.26	0.679
426.46	0.675
426.67	0.674
426.87	0.679
427.08	0.680
427.28	0.678
427.49	0.679
427.69	0.680
427.90	0.679
428.10	0.676
428.31	0.676
428.51	0.678
428.71	0.677
428.92	0.678
429.12	0.675
429.33	0.676
429.53	0.680
429.74	0.684
429.94	0.685
430.15	0.684
430.35	0.684
430.56	0.681
430.76	0.681
430.96	0.682
431.17	0.679
431.37	0.676
431.58	0.674
431.78	0.670
431.99	0.663
432.19	0.665
432.40	0.667
432.60	0.667
432.80	0.670
433.01	0.668
433.21	0.668
433.42	0.671
433.62	0.671
433.83	0.670
434.03	0.673
434.23	0.676
434.44	0.676
434.64	0.673
434.85	0.678
435.05	0.679
435.26	0.680
435.46	0.678
435.66	0.677
435.87	0.677
436.07	0.678
436.28	0.673
436.48	0.670
436.69	0.670
436.89	0.671
437.09	0.664
437.30	0.663
437.50	0.664
437.71	0.676
437.91	0.675
438.11	0.677
438.32	0.681
438.52	0.681
438.73	0.680
438.93	0.678
439.13	0.678
439.34	0.682
439.54	0.679
439.75	0.679
439.95	0.669
440.15	0.673
440.36	0.672
440.56	0.669
440.77	0.670
440.97	0.670
441.17	0.669
441.38	0.670
441.58	0.668
441.79	0.668
441.99	0.666
442.19	0.665
442.40	0.663
442.60	0.663
442.81	0.660
443.01	0.661
443.21	0.662
443.42	0.662
443.62	0.660
443.82	0.660
444.03	0.662
444.23	0.661
444.44	0.662
444.64	0.661
444.84	0.662
445.05	0.662
445.25	0.660
445.45	0.660
445.66	0.662
445.86	0.662
446.06	0.663
446.27	0.662
446.47	0.666
446.68	0.664
446.88	0.662
447.08	0.662
447.29	0.664
447.49	0.665
447.69	0.665
447.90	0.663
448.10	0.667
448.30	0.663
448.51	0.664
448.71	0.662
448.91	0.664
449.12	0.663
449.32	0.665
449.52	0.664
449.73	0.667
449.93	0.666
450.14	0.667
450.34	0.666
450.54	0.669
450.75	0.667
450.95	0.666
451.15	0.665
451.36	0.668
451.56	0.664
451.76	0.663
451.97	0.660
452.17	0.661
452.37	0.659
452.58	0.655
452.78	0.655
452.98	0.657
453.19	0.656
453.39	0.657
453.59	0.656
453.79	0.658
454.00	0.658
454.20	0.657
454.40	0.658
454.61	0.661
454.81	0.662
455.01	0.661
455.22	0.661
455.42	0.664
455.62	0.662
455.83	0.661
456.03	0.664
456.23	0.664
456.44	0.665
456.64	0.664
456.84	0.663
457.04	0.663
457.25	0.663
457.45	0.659
457.65	0.658
457.86	0.658
458.06	0.658
458.26	0.653
458.47	0.653
458.67	0.654
458.87	0.655
459.07	0.653
459.28	0.655
459.48	0.658
459.68	0.658
459.89	0.657
460.09	0.655
460.29	0.657
460.49	0.658
460.70	0.657
460.90	0.657
461.10	0.657
461.31	0.656
461.51	0.653
461.71	0.655
461.91	0.656
462.12	0.657
462.32	0.656
462.52	0.656
462.72	0.660
462.93	0.660
463.13	0.659
463.33	0.659
463.53	0.662
463.74	0.661
463.94	0.656
464.14	0.657
464.35	0.659
464.55	0.658
464.75	0.657
464.95	0.654
465.16	0.656
465.36	0.654
465.56	0.654
465.76	0.653
465.97	0.654
466.17	0.655
466.37	0.653
466.57	0.654
466.78	0.655
466.98	0.655
467.18	0.654
467.38	0.652
467.59	0.654
467.79	0.655
467.99	0.654
468.19	0.655
468.39	0.659
468.60	0.659
468.80	0.656
469.00	0.657
469.20	0.658
469.41	0.658
469.61	0.658
469.81	0.659
470.01	0.658
470.22	0.658
470.42	0.655
470.62	0.653
470.82	0.654
471.02	0.654
471.23	0.651
471.43	0.652
471.63	0.655
471.83	0.654
472.04	0.652
472.24	0.651
472.44	0.657
472.64	0.657
472.84	0.655
473.05	0.654
473.25	0.657
473.45	0.656
473.65	0.654
473.85	0.655
474.06	0.656
474.26	0.656
474.46	0.657
474.66	0.654
474.86	0.655
475.07	0.656
475.27	0.654
475.47	0.651
475.67	0.651
475.87	0.654
476.08	0.650
476.28	0.650
476.48	0.652
476.68	0.650
476.88	0.647
477.09	0.648
477.29	0.651
477.49	0.651
477.69	0.650
477.89	0.651
478.09	0.650
478.30	0.653
478.50	0.650
478.70	0.650
478.90	0.650
479.10	0.653
479.31	0.654
479.51	0.651
479.71	0.651
479.91	0.651
480.11	0.650
480.31	0.650
480.52	0.648
480.72	0.648
480.92	0.647
481.12	0.645
481.32	0.644
481.52	0.641
481.72	0.642
481.93	0.645
482.13	0.646
482.33	0.645
482.53	0.644
482.73	0.644
482.93	0.646
483.14	0.645
483.34	0.644
483.54	0.645
483.74	0.644
483.94	0.643
484.14	0.639
484.34	0.639
484.55	0.639
484.75	0.640
484.95	0.638
485.15	0.638
485.35	0.638
485.55	0.637
485.75	0.635
485.96	0.636
486.16	0.637
486.36	0.637
486.56	0.636
486.76	0.636
486.96	0.636
487.16	0.635
487.36	0.633
487.57	0.633
487.77	0.634
487.97	0.635
488.17	0.633
488.37	0.633
488.57	0.634
488.77	0.635
488.97	0.633
489.18	0.632
489.38	0.635
489.58	0.636
489.78	0.635
489.98	0.634
490.18	0.634
490.38	0.635
490.58	0.633
490.78	0.633
490.98	0.635
491.19	0.635
491.39	0.634
491.59	0.633
491.79	0.636
491.99	0.636
492.19	0.635
492.39	0.639
492.59	0.639
492.79	0.641
492.99	0.640
493.20	0.641
493.40	0.641
493.60	0.643
493.80	0.641
494.00	0.639
494.20	0.640
494.40	0.639
494.60	0.636
494.80	0.641
495.00	0.641
495.20	0.639
495.40	0.638
495.61	0.640
495.81	0.640
496.01	0.643
496.21	0.644
496.41	0.643
496.61	0.644
496.81	0.643
497.01	0.638
497.21	0.637
497.41	0.638
497.61	0.638
497.81	0.635
498.01	0.635
498.21	0.633
498.41	0.631
498.61	0.631
498.82	0.633
499.02	0.635
499.22	0.635
499.42	0.634
499.62	0.636
499.82	0.637
500.02	0.638
500.22	0.637
500.42	0.639
500.62	0.640
500.82	0.640
501.02	0.638
501.22	0.638
501.42	0.638
501.62	0.640
501.82	0.639
502.02	0.639
502.22	0.639
502.42	0.640
502.62	0.637
502.82	0.638
503.02	0.639
503.22	0.638
503.42	0.637
503.63	0.636
503.83	0.634
504.03	0.633
504.23	0.632
504.43	0.633
504.63	0.635
504.83	0.634
505.03	0.633
505.23	0.634
505.43	0.636
505.63	0.637
505.83	0.636
506.03	0.638
506.23	0.640
506.43	0.640
506.63	0.639
506.83	0.637
507.03	0.639
507.23	0.639
507.43	0.637
507.63	0.637
507.83	0.637
508.03	0.638
508.23	0.637
508.43	0.636
508.63	0.638
508.83	0.638
509.03	0.639
509.23	0.638
509.43	0.639
509.63	0.640
509.83	0.638
510.03	0.641
510.23	0.643
510.43	0.644
510.63	0.644
510.83	0.644
511.03	0.646
511.23	0.643
511.43	0.643
511.63	0.645
511.83	0.647
512.03	0.647
512.22	0.644
512.42	0.643
512.62	0.644
512.82	0.644
513.02	0.643
513.22	0.642
513.42	0.644
513.62	0.647
513.82	0.645
514.02	0.644
514.22	0.645
514.42	0.646
514.62	0.645
514.82	0.646
515.02	0.648
515.22	0.652
515.42	0.650
515.62	0.653
515.82	0.652
516.02	0.654
516.22	0.654
516.42	0.655
516.62	0.657
516.82	0.658
517.01	0.656
517.21	0.655
517.41	0.659
517.61	0.659
517.81	0.655
518.01	0.654
518.21	0.653
518.41	0.652
518.61	0.650
518.81	0.651
519.01	0.652
519.21	0.652
519.41	0.651
519.61	0.645
519.81	0.648
520.00	0.648
520.20	0.649
520.40	0.653
520.60	0.654
520.80	0.653
521.00	0.653
521.20	0.654
521.40	0.659
521.60	0.659
521.80	0.658
522.00	0.658
522.20	0.661
522.39	0.659
522.59	0.656
522.79	0.658
522.99	0.660
523.19	0.659
523.39	0.656
523.59	0.655
523.79	0.658
523.99	0.660
524.19	0.659
524.38	0.657
524.58	0.659
524.78	0.660
524.98	0.658
525.18	0.661
525.38	0.662
525.58	0.662
525.78	0.659
525.98	0.658
526.18	0.659
526.37	0.658
526.57	0.660
526.77	0.660
526.97	0.661
527.17	0.661
527.37	0.656
527.57	0.659
527.77	0.660
527.96	0.661
528.16	0.659
528.36	0.660
528.56	0.662
528.76	0.660
528.96	0.658
529.16	0.659
529.36	0.662
529.55	0.663
529.75	0.659
529.95	0.659
530.15	0.661
530.35	0.663
530.55	0.660
530.75	0.662
530.94	0.663
531.14	0.664
531.34	0.662
531.54	0.659
531.74	0.662
531.94	0.666
532.13	0.664
532.33	0.665
532.53	0.665
532.73	0.665
532.93	0.662
533.13	0.663
533.33	0.664
533.52	0.664
533.72	0.667
533.92	0.666
534.12	0.664
534.32	0.664
534.52	0.662
534.71	0.663
534.91	0.666
535.11	0.668
535.31	0.666
535.51	0.668
535.71	0.670
535.90	0.667
536.10	0.668
536.30	0.670
536.50	0.672
536.70	0.672
536.89	0.670
537.09	0.669
537.29	0.670
537.49	0.670
537.69	0.668
537.89	0.669
538.08	0.668
538.28	0.666
538.48	0.667
538.68	0.668
538.88	0.670
539.07	0.670
539.27	0.668
539.47	0.668
539.67	0.668
539.87	0.670
540.06	0.667
540.26	0.669
540.46	0.671
540.66	0.668
540.86	0.666
541.05	0.666
541.25	0.667
541.45	0.668
541.65	0.666
541.84	0.668
542.04	0.669
542.24	0.670
542.44	0.669
542.64	0.670
542.83	0.674
543.03	0.674
543.23	0.672
543.43	0.672
543.62	0.674
543.82	0.674
544.02	0.671
544.22	0.671
544.42	0.675
544.61	0.675
544.81	0.672
545.01	0.670
545.21	0.672
545.40	0.673
545.60	0.671
545.80	0.675
546.00	0.675
546.19	0.675
546.39	0.674
546.59	0.671
546.79	0.672
546.98	0.672
547.18	0.672
547.38	0.673
547.58	0.675
547.77	0.676
547.97	0.671
548.17	0.673
548.37	0.673
548.56	0.674
548.76	0.672
548.96	0.674
549.16	0.677
549.35	0.678
549.55	0.675
549.75	0.675
549.95	0.678
550.14	0.679
550.34	0.677
550.54	0.682
550.73	0.686
550.93	0.686
551.13	0.682
551.33	0.680
551.52	0.681
551.72	0.681
551.92	0.679
552.12	0.680
552.31	0.681
552.51	0.681
552.71	0.676
552.90	0.676
553.10	0.678
553.30	0.679
553.50	0.678
553.69	0.679
553.89	0.680
554.09	0.681
554.28	0.678
554.48	0.680
554.68	0.682
554.87	0.682
555.07	0.678
555.27	0.678
555.47	0.680
555.66	0.681
555.86	0.679
556.06	0.681
556.25	0.682
556.45	0.690
556.65	0.688
556.84	0.692
557.04	0.695
557.24	0.696
557.43	0.695
557.63	0.698
557.83	0.700
558.02	0.701
558.22	0.704
558.42	0.705
558.61	0.697
558.81	0.698
559.01	0.693
559.21	0.694
559.40	0.695
559.60	0.695
559.80	0.691
559.99	0.692
560.19	0.695
560.39	0.689
560.58	0.687
560.78	0.687
560.97	0.690
561.17	0.688
561.37	0.686
561.56	0.687
561.76	0.688
561.96	0.688
562.15	0.686
562.35	0.688
562.55	0.689
562.74	0.688
562.94	0.686
563.14	0.684
563.33	0.686
563.53	0.686
563.73	0.683
563.92	0.685
564.12	0.688
564.31	0.689
564.51	0.687
564.71	0.689
564.90	0.693
565.10	0.694
565.30	0.697
565.49	0.698
565.69	0.700
565.89	0.700
566.08	0.698
566.28	0.699
566.47	0.701
566.67	0.699
566.87	0.694
567.06	0.696
567.26	0.703
567.46	0.698
567.65	0.697
567.85	0.699
568.04	0.702
568.24	0.701
568.44	0.698
568.63	0.697
568.83	0.698
569.02	0.698
569.22	0.693
569.42	0.689
569.61	0.691
569.81	0.690
570.00	0.687
570.20	0.688
570.40	0.689
570.59	0.689
570.79	0.686
570.98	0.685
571.18	0.686
571.38	0.686
571.57	0.683
571.77	0.680
571.96	0.684
572.16	0.682
572.35	0.676
572.55	0.678
572.75	0.676
572.94	0.676
573.14	0.674
573.33	0.674
573.53	0.675
573.73	0.674
573.92	0.672
574.12	0.670
574.31	0.673
574.51	0.674
574.70	0.670
574.90	0.672
575.09	0.674
575.29	0.674
575.49	0.671
575.68	0.672
575.88	0.674
576.07	0.675
576.27	0.673
576.46	0.671
576.66	0.671
576.86	0.670
577.05	0.668
577.25	0.666
577.44	0.668
577.64	0.667
577.83	0.665
578.03	0.666
578.22	0.666
578.42	0.665
578.61	0.663
578.81	0.664
579.00	0.665
579.20	0.664
579.40	0.663
579.59	0.662
579.79	0.663
579.98	0.662
580.18	0.661
580.37	0.662
580.57	0.664
580.76	0.669
580.96	0.667
581.15	0.668
581.35	0.670
581.54	0.669
581.74	0.669
581.93	0.670
582.13	0.671
582.32	0.668
582.52	0.667
582.71	0.665
582.91	0.661
583.10	0.662
583.30	0.660
583.49	0.660
583.69	0.664
583.88	0.666
584.08	0.665
584.27	0.667
584.47	0.671
584.66	0.672
584.86	0.671
585.05	0.673
585.25	0.675
585.44	0.674
585.64	0.672
585.83	0.669
586.03	0.669
586.22	0.668
586.42	0.664
586.61	0.666
586.81	0.668
587.00	0.668
587.20	0.665
587.39	0.666
587.59	0.668
587.78	0.670
587.98	0.670
588.17	0.672
588.37	0.674
588.56	0.676
588.76	0.671
588.95	0.672
589.15	0.675
589.34	0.678
589.54	0.677
589.73	0.677
589.92	0.680
590.12	0.680
590.31	0.677
590.51	0.681
590.70	0.683
590.90	0.684
591.09	0.682
591.29	0.681
591.48	0.680
591.68	0.681
591.87	0.679
592.06	0.678
592.26	0.682
592.45	0.682
592.65	0.675
592.84	0.675
593.04	0.678
593.23	0.680
593.43	0.677
593.62	0.676
593.81	0.677
594.01	0.677
594.20	0.674
594.40	0.674
594.59	0.676
594.79	0.677
594.98	0.675
595.17	0.675
595.37	0.675
595.56	0.678
595.76	0.677
595.95	0.678
596.14	0.681
596.34	0.682
596.53	0.680
596.73	0.681
596.92	0.682
597.12	0.685
597.31	0.684
597.50	0.684
597.70	0.686
597.89	0.686
598.09	0.682
598.28	0.683
598.47	0.686
598.67	0.685
598.86	0.680
599.06	0.682
599.25	0.682
599.44	0.680
599.64	0.678
599.83	0.675
600.03	0.678
600.22	0.679
600.41	0.679
600.61	0.677
600.80	0.679
601.00	0.680
601.19	0.676
601.38	0.674
601.58	0.677
601.77	0.679
601.96	0.681
602.16	0.681
602.35	0.690
602.55	0.687
602.74	0.688
602.93	0.690
603.13	0.695
603.32	0.697
603.51	0.697
603.71	0.700
603.90	0.701
604.09	0.702
604.29	0.698
604.48	0.693
604.68	0.695
604.87	0.693
605.06	0.689
605.26	0.685
605.45	0.686
605.64	0.685
605.84	0.680
606.03	0.679
606.22	0.678
606.42	0.678
606.61	0.674
606.80	0.674
607.00	0.676
607.19	0.677
607.38	0.675
607.58	0.676
607.77	0.679
607.96	0.678
608.16	0.677
608.35	0.681
608.54	0.685
608.74	0.688
608.93	0.693
609.12	0.696
609.32	0.699
609.51	0.702
609.70	0.701
609.90	0.703
610.09	0.708
610.28	0.713
610.48	0.706
610.67	0.707
610.86	0.709
611.06	0.703
611.25	0.700
611.44	0.701
611.64	0.701
611.83	0.704
612.02	0.700
612.21	0.698
612.41	0.697
612.60	0.696
612.79	0.692
612.99	0.692
613.18	0.695
613.37	0.692
613.57	0.689
613.76	0.691
613.95	0.689
614.14	0.689
614.34	0.686
614.53	0.687
614.72	0.690
614.92	0.690
615.11	0.687
615.30	0.684
615.49	0.686
615.69	0.689
615.88	0.685
616.07	0.686
616.26	0.689
616.46	0.690
616.65	0.687
616.84	0.686
617.04	0.687
617.23	0.691
617.42	0.692
617.61	0.695
617.81	0.696
618.00	0.698
618.19	0.696
618.38	0.700
618.58	0.704
618.77	0.705
618.96	0.704
619.15	0.706
619.35	0.708
619.54	0.708
619.73	0.704
619.92	0.707
620.12	0.711
620.31	0.710
620.50	0.705
620.69	0.705
620.89	0.709
621.08	0.708
621.27	0.708
621.46	0.706
621.66	0.711
621.85	0.710
622.04	0.706
622.23	0.706
622.43	0.707
622.62	0.707
622.81	0.705
623.00	0.704
623.19	0.708
623.39	0.707
623.58	0.705
623.77	0.703
623.96	0.708
624.16	0.709
624.35	0.703
624.54	0.707
624.73	0.711
624.92	0.709
625.12	0.707
625.31	0.708
625.50	0.711
625.69	0.712
625.88	0.708
626.08	0.707
626.27	0.708
626.46	0.708
626.65	0.704
626.84	0.705
627.04	0.711
627.23	0.711
627.42	0.705
627.61	0.707
627.80	0.710
628.00	0.711
628.19	0.708
628.38	0.712
628.57	0.715
628.76	0.715
628.96	0.712
629.15	0.712
629.34	0.716
629.53	0.717
629.72	0.711
629.91	0.711
630.11	0.716
630.30	0.716
630.49	0.718
630.68	0.719
630.87	0.723
631.06	0.726
631.26	0.720
631.45	0.721
631.64	0.729
631.83	0.733
632.02	0.730
632.21	0.728
632.41	0.737
632.60	0.731
632.79	0.729
632.98	0.730
633.17	0.730
633.36	0.732
633.55	0.728
633.75	0.725
633.94	0.727
634.13	0.727
634.32	0.724
634.51	0.718
634.70	0.721
634.89	0.720
635.09	0.716
635.28	0.717
635.47	0.719
635.66	0.721
635.85	0.716
636.04	0.717
636.23	0.723
636.43	0.725
636.62	0.724
636.81	0.723
637.00	0.726
637.19	0.729
637.38	0.725
637.57	0.724
637.76	0.725
637.95	0.728
638.15	0.723
638.34	0.719
638.53	0.724
638.72	0.725
638.91	0.722
639.10	0.720
639.29	0.721
639.48	0.722
639.67	0.722
639.87	0.722
640.06	0.727
640.25	0.727
640.44	0.727
640.63	0.727
640.82	0.729
641.01	0.729
641.20	0.728
641.39	0.730
641.58	0.733
641.78	0.732
641.97	0.726
642.16	0.741
642.35	0.742
642.54	0.740
642.73	0.735
642.92	0.733
643.11	0.737
643.30	0.737
643.49	0.731
643.68	0.734
643.87	0.736
644.06	0.737
644.25	0.714
644.45	0.717
644.64	0.720
644.83	0.720
645.02	0.717
645.21	0.717
645.40	0.719
645.59	0.719
645.78	0.712
645.97	0.714
646.16	0.715
646.35	0.716
646.54	0.713
646.73	0.714
646.92	0.716
647.11	0.717
647.30	0.713
647.49	0.714
647.68	0.714
647.88	0.713
648.07	0.706
648.26	0.710
648.45	0.712
648.64	0.709
648.83	0.706
649.02	0.707
649.21	0.717
649.40	0.716
649.59	0.711
649.78	0.712
649.97	0.727
650.16	0.726
650.35	0.719
650.54	0.721
650.73	0.730
650.92	0.726
651.11	0.720
651.30	0.716
651.49	0.721
651.68	0.722
651.87	0.718
652.06	0.707
652.25	0.710
652.44	0.713
652.63	0.709
652.82	0.709
653.01	0.708
653.20	0.705
653.39	0.693
653.58	0.691
653.77	0.690
653.96	0.685
654.15	0.676
654.34	0.674
654.53	0.670
654.72	0.664
654.91	0.655
655.10	0.652
655.29	0.650
655.48	0.648
655.67	0.642
655.86	0.640
656.05	0.638
656.24	0.638
656.43	0.634
656.62	0.632
656.81	0.633
657.00	0.631
657.19	0.628
657.38	0.627
657.57	0.627
657.76	0.630
657.95	0.628
658.14	0.631
658.33	0.635
658.51	0.640
658.70	0.640
658.89	0.642
659.08	0.653
659.27	0.660
659.46	0.660
659.65	0.668
659.84	0.672
660.03	0.675
660.22	0.676
660.41	0.680
660.60	0.680
660.79	0.681
660.98	0.687
661.17	0.686
661.36	0.687
661.55	0.688
661.74	0.684
661.92	0.686
662.11	0.688
662.30	0.685
662.49	0.678
662.68	0.677
662.87	0.681
663.06	0.674
663.25	0.675
663.44	0.675
663.63	0.675
663.82	0.675
664.01	0.670
664.20	0.668
664.38	0.670
664.57	0.671
664.76	0.671
664.95	0.671
665.14	0.676
665.33	0.670
665.52	0.678
665.71	0.682
665.90	0.682
666.09	0.684
666.28	0.682
666.46	0.683
666.65	0.684
666.84	0.682
667.03	0.677
667.22	0.675
667.41	0.678
667.60	0.667
667.79	0.659
667.98	0.660
668.16	0.661
668.35	0.660
668.54	0.655
668.73	0.655
668.92	0.655
669.11	0.654
669.30	0.647
669.49	0.643
669.67	0.645
669.86	0.647
670.05	0.645
670.24	0.642
670.43	0.640
670.62	0.639
670.81	0.635
671.00	0.636
671.18	0.636
671.37	0.635
671.56	0.634
671.75	0.633
671.94	0.630
672.13	0.628
672.32	0.623
672.50	0.623
672.69	0.623
672.88	0.623
673.07	0.618
673.26	0.620
673.45	0.621
673.63	0.621
673.82	0.617
674.01	0.619
674.20	0.619
674.39	0.619
674.58	0.618
674.76	0.618
674.95	0.618
675.14	0.618
675.33	0.613
675.52	0.612
675.71	0.611
675.89	0.611
676.08	0.606
676.27	0.606
676.46	0.607
676.65	0.606
676.84	0.605
677.02	0.607
677.21	0.609
677.40	0.608
677.59	0.605
677.78	0.606
677.96	0.609
678.15	0.609
678.34	0.606
678.53	0.606
678.72	0.607
678.90	0.603
679.09	0.599
679.28	0.595
679.47	0.596
679.66	0.595
679.84	0.591
680.03	0.589
680.22	0.588
680.41	0.590
680.60	0.587
680.78	0.586
680.97	0.589
681.16	0.589
681.35	0.588
681.53	0.587
681.72	0.589
681.91	0.591
682.10	0.588
682.29	0.591
682.47	0.589
682.66	0.589
682.85	0.586
683.04	0.584
683.22	0.583
683.41	0.586
683.60	0.584
683.79	0.585
683.97	0.584
684.16	0.583
684.35	0.579
684.54	0.581
684.72	0.581
684.91	0.582
685.10	0.580
685.29	0.582
685.47	0.578
685.66	0.578
685.85	0.574
686.04	0.574
686.22	0.577
686.41	0.579
686.60	0.575
686.79	0.579
686.97	0.580
687.16	0.582
687.35	0.579
687.54	0.583
687.72	0.586
687.91	0.586
688.10	0.587
688.29	0.587
688.47	0.585
688.66	0.584
688.85	0.580
689.03	0.578
689.22	0.582
689.41	0.582
689.60	0.577
689.78	0.574
689.97	0.575
690.16	0.573
690.34	0.569
690.53	0.568
690.72	0.569
690.91	0.567
691.09	0.565
691.28	0.559
691.47	0.558
691.65	0.557
691.84	0.554
692.03	0.553
692.21	0.550
692.40	0.551
692.59	0.548
692.77	0.547
692.96	0.549
693.15	0.550
693.34	0.548
693.52	0.548
693.71	0.549
693.90	0.550
694.08	0.551
694.27	0.553
694.46	0.562
694.64	0.563
694.83	0.563
695.02	0.561
695.20	0.561
695.39	0.561
695.58	0.561
695.76	0.562
695.95	0.561
696.14	0.560
696.32	0.557
696.51	0.548
696.70	0.548
696.88	0.549
697.07	0.547
697.26	0.548
697.44	0.549
697.63	0.548
697.81	0.545
698.00	0.545
698.19	0.545
698.37	0.545
698.56	0.544
698.75	0.544
698.93	0.544
699.12	0.544
699.31	0.542
699.49	0.542
699.68	0.543
699.87	0.545
700.05	0.545
700.24	0.544
700.42	0.546
700.61	0.545
700.80	0.543
700.98	0.543
701.17	0.545
701.36	0.544
701.54	0.543
701.73	0.544
701.91	0.543
702.10	0.542
702.29	0.541
702.47	0.540
702.66	0.541
702.84	0.543
703.03	0.541
703.22	0.541
703.40	0.542
703.59	0.543
703.77	0.542
703.96	0.542
704.15	0.542
704.33	0.542
704.52	0.541
704.70	0.540
704.89	0.540
705.08	0.539
705.26	0.534
705.45	0.534
705.63	0.533
705.82	0.530
706.00	0.528
706.19	0.528
706.38	0.528
706.56	0.528
706.75	0.525
706.93	0.524
707.12	0.525
707.30	0.526
707.49	0.524
707.68	0.523
707.86	0.523
708.05	0.523
708.23	0.520
708.42	0.521
708.60	0.523
708.79	0.523
708.98	0.521
709.16	0.521
709.35	0.523
709.53	0.527
709.72	0.526
709.90	0.528
710.09	0.531
710.27	0.532
710.46	0.536
710.64	0.535
710.83	0.537
711.02	0.539
711.20	0.537
711.39	0.535
711.57	0.533
711.76	0.533
711.94	0.530
712.13	0.531
712.31	0.530
712.50	0.526
712.68	0.522
712.87	0.524
713.05	0.524
713.24	0.525
713.42	0.523
713.61	0.524
713.79	0.525
713.98	0.526
714.16	0.526
714.35	0.526
714.54	0.527
714.72	0.528
714.91	0.525
715.09	0.531
715.28	0.535
715.46	0.535
715.65	0.532
715.83	0.531
716.02	0.534
716.20	0.531
716.39	0.530
716.57	0.531
716.76	0.534
716.94	0.534
717.12	0.526
717.31	0.528
717.49	0.531
717.68	0.534
717.86	0.533
718.05	0.536
718.23	0.538
718.42	0.540
718.60	0.541
718.79	0.549
718.97	0.551
719.16	0.552
719.34	0.549
719.53	0.549
719.71	0.549
719.90	0.549
720.08	0.546
720.27	0.547
720.45	0.547
720.63	0.547
720.82	0.540
721.00	0.543
721.19	0.546
721.37	0.546
721.56	0.546
721.74	0.549
721.93	0.559
722.11	0.566
722.30	0.565
722.48	0.570
722.66	0.571
722.85	0.571
723.03	0.570
723.22	0.569
723.40	0.573
723.59	0.573
723.77	0.576
723.95	0.569
724.14	0.569
724.32	0.571
724.51	0.570
724.69	0.572
724.88	0.573
725.06	0.572
725.24	0.572
725.43	0.573
725.61	0.576
725.80	0.570
725.98	0.567
726.16	0.565
726.35	0.571
726.53	0.570
726.72	0.568
726.90	0.579
727.09	0.580
727.27	0.587
727.45	0.584
727.64	0.594
727.82	0.604
728.01	0.609
728.19	0.605
728.37	0.611
728.56	0.614
728.74	0.621
728.92	0.608
729.11	0.610
729.29	0.608
729.48	0.610
729.66	0.598
729.84	0.598
730.03	0.602
730.21	0.604
730.40	0.594
730.58	0.596
730.76	0.597
730.95	0.600
731.13	0.600
731.31	0.614
731.50	0.623
731.68	0.627
731.86	0.623
732.05	0.637
732.23	0.641
732.42	0.646
732.60	0.649
732.78	0.654
732.97	0.673
733.15	0.681
733.33	0.669
733.52	0.677
733.70	0.689
733.88	0.699
734.07	0.683
734.25	0.711
734.43	0.720
734.62	0.724
734.80	0.718
734.98	0.708
735.17	0.713
735.35	0.719
735.53	0.707
735.72	0.711
735.90	0.734
736.08	0.754
736.27	0.728
736.45	0.738
736.63	0.751
736.82	0.761
737.00	0.763
737.18	0.780
737.37	0.815
737.55	0.841
737.73	0.831
737.92	0.838
738.10	0.836
738.28	0.861
738.46	0.848
738.65	0.863
738.83	0.891
739.01	0.950
739.20	0.933
739.38	0.915
739.56	0.904
739.75	0.916
739.93	0.871
740.11	0.898
740.29	0.900
740.48	0.912
740.66	0.887
740.84	0.881
741.03	0.843
741.21	0.857
741.39	0.836
741.57	0.857
741.76	0.875
741.94	0.888
742.12	0.846
742.31	0.848
742.49	0.870
742.67	0.896
742.85	0.910
743.04	0.918
743.22	0.928
743.40	0.986
743.58	0.957
743.77	0.979
743.95	1.021
744.13	1.085
744.31	1.064
744.50	1.051
744.68	1.058
744.86	1.028
745.04	1.039
745.23	1.126
745.41	1.111
745.59	1.119
745.77	1.079
745.96	1.055
746.14	1.074
746.32	1.068
746.50	1.060
746.69	1.040
746.87	1.056
747.05	1.033
747.23	0.943
747.42	0.927
747.60	0.963
747.78	0.960
747.96	0.997
748.14	0.943
748.33	0.977
748.51	0.971
748.69	0.957
748.87	0.987
749.06	0.990
749.24	0.988
749.42	0.968
749.60	0.949
749.78	0.963
749.97	0.910
750.15	0.901
750.33	0.907
750.51	0.929
750.69	0.939
750.88	0.944
751.06	0.954
751.24	0.986
751.42	0.973
751.60	0.959
751.79	1.044
751.97	1.111
752.15	1.104
752.33	1.058
752.51	1.150
752.69	1.167
752.88	1.124
753.06	1.183
753.24	1.152
753.42	1.208
753.60	1.478
753.78	1.240
753.97	1.259
754.15	1.293
754.33	1.339
754.51	1.154
754.69	1.144
754.87	1.185
755.06	1.085
755.24	1.078
755.42	1.082
755.60	0.959
755.78	0.968
755.96	0.908
756.15	0.908
756.33	0.913
756.51	0.934
756.69	0.913
756.87	0.877
757.05	0.902
757.23	0.887
757.42	0.848
757.60	0.843
757.78	0.834
757.96	0.830
758.14	0.811
758.32	0.796
758.50	0.810
758.69	0.807
758.87	0.796
759.05	0.796
759.23	0.807
759.41	0.811
759.59	0.807
759.77	0.834
759.95	0.864
760.13	0.918
760.32	0.916
760.50	0.910
760.68	0.942
760.86	0.945
761.04	0.915
761.22	0.917
761.40	0.973
761.58	0.971
761.76	0.935
761.95	0.914
762.13	0.867
762.31	0.868
762.49	0.831
762.67	0.850
762.85	0.865
763.03	0.858
763.21	0.838
763.39	0.818
763.57	0.823
763.75	0.818
763.94	0.799
764.12	0.798
764.30	0.824
764.48	0.829
764.66	0.788
764.84	0.787
765.02	0.830
765.20	0.836
765.38	0.808
765.56	0.812
765.74	0.856
765.92	0.859
766.10	0.866
766.28	0.858
766.46	0.892
766.65	0.895
766.83	0.878
767.01	0.861
767.19	0.875
767.37	0.880
767.55	0.867
767.73	0.843
767.91	0.846
768.09	0.833
768.27	0.816
768.45	0.803
768.63	0.809
768.81	0.810
768.99	0.782
769.17	0.803
769.35	0.822
769.53	0.819
769.71	0.798
769.89	0.807
770.07	0.818
770.25	0.803
770.43	0.781
770.61	0.805
770.79	0.813
770.97	0.820
771.15	0.786
771.33	0.786
771.51	0.789
771.69	0.801
771.87	0.808
772.05	0.811
772.24	0.820
772.42	0.829
772.60	0.803
772.78	0.870
772.96	0.907
773.14	0.901
773.32	0.877
773.49	0.885
773.67	0.885
773.85	0.862
774.03	0.848
774.21	0.882
774.39	0.899
774.57	0.929
774.75	0.844
774.93	0.834
775.11	0.862
775.29	0.867
775.47	0.867
775.65	0.877
775.83	0.899
776.01	0.928
776.19	0.877
776.37	0.873
776.55	0.871
776.73	0.871
776.91	0.869
777.09	0.850
777.27	0.853
777.45	0.839
777.63	0.815
777.81	0.814
777.99	0.801
778.17	0.798
778.35	0.776
778.53	0.765
778.71	0.769
778.89	0.754
779.07	0.740
779.24	0.746
779.42	0.749
779.60	0.768
779.78	0.760
779.96	0.764
780.14	0.773
780.32	0.795
780.50	0.775
780.68	0.772
780.86	0.767
781.04	0.787
781.22	0.791
781.40	0.801
781.58	0.792
781.75	0.783
781.93	0.764
782.11	0.766
782.29	0.749
782.47	0.750
782.65	0.736
782.83	0.767
783.01	0.760
783.19	0.752
783.37	0.737
783.55	0.741
783.72	0.760
783.90	0.773
784.08	0.761
784.26	0.776
784.44	0.796
784.62	0.798
784.80	0.758
784.98	0.763
785.16	0.771
785.33	0.784
785.51	0.767
785.69	0.756
785.87	0.755
786.05	0.766
786.23	0.758
786.41	0.757
786.59	0.767
786.77	0.769
786.94	0.756
787.12	0.758
787.30	0.762
787.48	0.757
787.66	0.740
787.84	0.741
788.02	0.733
788.19	0.730
788.37	0.716
788.55	0.716
788.73	0.717
788.91	0.710
789.09	0.692
789.27	0.681
789.44	0.696
789.62	0.703
789.80	0.713
789.98	0.739
790.16	0.727
790.34	0.721
790.51	0.707
790.69	0.728
790.87	0.736
791.05	0.735
791.23	0.725
791.41	0.724
791.58	0.733
791.76	0.709
791.94	0.676
792.12	0.685
792.30	0.687
792.48	0.687
792.65	0.679
792.83	0.687
793.01	0.694
793.19	0.693
793.37	0.676
793.54	0.671
793.72	0.683
793.90	0.681
794.08	0.667
794.26	0.669
794.43	0.678
794.61	0.662
794.79	0.648
794.97	0.647
795.15	0.652
795.32	0.658
795.50	0.646
795.68	0.641
795.86	0.648
796.04	0.653
796.21	0.648
796.39	0.645
796.57	0.660
796.75	0.669
796.92	0.669
797.10	0.675
797.28	0.677
797.46	0.682
797.64	0.683
797.81	0.691
797.99	0.693
798.17	0.697
798.35	0.690
798.52	0.692
798.70	0.687
798.88	0.697
799.06	0.695
799.23	0.699
799.41	0.708
799.59	0.699
799.77	0.688
799.94	0.697
800.12	0.706
800.30	0.726
800.48	0.724
800.65	0.726
800.83	0.714
801.01	0.706
801.19	0.705
801.36	0.703
801.54	0.709
801.72	0.718
801.90	0.703
802.07	0.699
802.25	0.681
802.43	0.665
802.60	0.659
802.78	0.666
802.96	0.671
803.14	0.663
803.31	0.658
803.49	0.658
803.67	0.655
803.84	0.659
804.02	0.650
804.20	0.654
804.38	0.660
804.55	0.661
804.73	0.646
804.91	0.647
805.08	0.661
805.26	0.657
805.44	0.725
805.61	0.730
805.79	0.732
805.97	0.731
806.15	0.723
806.32	0.717
806.50	0.723
806.68	0.724
806.85	0.714
807.03	0.702
807.21	0.721
807.38	0.649
807.56	0.637
807.74	0.647
807.91	0.655
808.09	0.656
808.27	0.676
808.44	0.704
808.62	0.715
808.80	0.718
808.97	0.716
809.15	0.709
809.33	0.731
809.50	0.737
809.68	0.721
809.86	0.732
810.03	0.769
810.21	0.747
810.39	0.725
810.56	0.731
810.74	0.759
810.91	0.836
811.09	0.823
811.27	0.845
811.44	0.852
811.62	0.853
811.80	0.832
811.97	0.798
812.15	0.797
812.33	0.792
812.50	0.773
812.68	0.759
812.85	0.702
813.03	0.705
813.21	0.671
813.38	0.667
813.56	0.672
813.74	0.682
813.91	0.690
814.09	0.721
814.26	0.716
814.44	0.722
814.62	0.711
814.79	0.714
814.97	0.720
815.14	0.725
815.32	0.725
815.50	0.745
815.67	0.750
815.85	0.740
816.02	0.728
816.20	0.734
816.38	0.752
816.55	0.757
816.73	0.754
816.90	0.767
817.08	0.802
817.26	0.811
817.43	0.783
817.61	0.810
817.78	0.835
817.96	0.813
818.13	0.803
818.31	0.803
818.49	0.819
818.66	0.806
818.84	0.787
819.01	0.761
819.19	0.771
819.36	0.776
819.54	0.742
819.71	0.787
819.89	0.804
820.07	0.816
820.24	0.807
820.42	0.808
820.59	0.834
820.77	0.862
820.94	0.850
821.12	0.870
821.29	0.888
821.47	0.892
821.64	0.818
821.82	0.834
822.00	0.834
822.17	0.835
822.35	0.826
822.52	0.829
822.70	0.818
822.87	0.833
823.05	0.809
823.22	0.826
823.40	0.857
823.57	0.887
823.75	0.856
823.92	0.891
824.10	0.915
824.27	0.967
824.45	0.955
824.62	1.037
824.80	1.061
824.97	1.083
825.15	1.066
825.32	1.089
825.50	1.091
825.67	1.116
825.85	1.082
826.02	1.104
826.20	1.147
826.37	1.363
826.55	1.233
826.72	1.655
826.90	1.875
827.07	2.295
827.25	1.954
827.42	-0.000
827.60	-0.000
827.77	-0.000
827.95	-0.000
828.12	-0.000
828.30	-0.000
828.47	-0.000
828.65	1.851
828.82	2.576
829.00	-0.000
829.17	-0.000
829.34	-0.000
829.52	-0.000
829.69	-0.000
829.87	-0.000
830.04	-0.000
830.22	-0.000
830.39	-0.000
830.57	-0.000
830.74	-0.000
830.92	-0.000
831.09	-0.000
831.26	-0.000
831.44	-0.000
831.61	-0.000
831.79	-0.000
831.96	-0.000
832.14	-0.000
832.31	-0.000
832.49	-0.000
832.66	-0.000
832.83	-0.000
833.01	-0.000
833.18	-0.000
833.36	-0.000
833.53	-0.000
833.70	-0.000
833.88	-0.000
834.05	-0.000
834.23	-0.000
834.40	-0.000
834.58	-0.000
834.75	-0.000
834.92	-0.000
835.10	-0.000
835.27	-0.000
835.45	-0.000
835.62	-0.000
835.79	-0.000
835.97	-0.000
836.14	-0.000
836.32	-0.000
836.49	-0.000
836.66	-0.000
836.84	-0.000
837.01	-0.000
837.18	-0.000
837.36	-0.000
837.53	-0.000
837.71	-0.000
837.88	-0.000
838.05	-0.000
838.23	-0.000
838.40	-0.000
838.58	-0.000
838.75	-0.000
838.92	-0.000
839.10	-0.000
839.27	-0.000
839.44	-0.000
839.62	-0.000
839.79	-0.000
839.96	-0.000
840.14	-0.000
840.31	-0.000
840.48	-0.000
840.66	-0.000
840.83	-0.000
841.01	-0.000
841.18	-0.000
841.35	-0.000
841.53	-0.000
841.70	-0.000
841.87	-0.000
842.05	-0.000
842.22	-0.000
842.39	-0.000
842.57	-0.000
842.74	-0.000
842.91	-0.000
843.09	-0.000
843.26	-0.000
843.43	-0.000
843.60	-0.000
843.78	-0.000
843.95	-0.000
844.12	-0.000
844.30	-0.000
844.47	-0.000
844.64	-0.000
844.82	-0.000
844.99	-0.000
845.16	-0.000
845.34	-0.000
845.51	-0.000
845.68	-0.000
845.85	-0.000
846.03	-0.000
846.20	-0.000
846.37	-0.000
846.55	-0.000
846.72	-0.000
846.89	-0.000
847.06	-0.000
847.24	-0.000
847.41	-0.000
847.58	-0.000
847.76	-0.000
847.93	-0.000
848.10	-0.000
848.27	-0.000
848.45	-0.000
848.62	-0.000
848.79	-0.000
848.97	-0.000
849.14	-0.000
849.31	-0.000
849.48	-0.000
849.66	-0.000
849.83	-0.000
850.00	-0.000
850.17	-0.000
850.35	-0.000
850.52	-0.000
850.69	-0.000
850.86	-0.000
851.04	-0.000
851.21	-0.000
851.38	-0.000
851.55	-0.000
851.72	-0.000
851.90	-0.000
852.07	-0.000
852.24	-0.000
852.41	-0.000
852.59	-0.000
852.76	-0.000
852.93	-0.000
853.10	-0.000
853.28	-0.000
853.45	-0.000
853.62	-0.000
853.79	-0.000
853.96	-0.000
854.14	-0.000
854.31	-0.000
854.48	-0.000
854.65	-0.000
854.82	-0.000
855.00	-0.000
855.17	-0.000
855.34	-0.000
855.51	-0.000
855.68	-0.000
855.86	-0.000
856.03	-0.000
856.20	-0.000
856.37	-0.000
856.54	-0.000
856.72	-0.000
856.89	-0.000
857.06	-0.000
857.23	-0.000
857.40	-0.000
857.57	-0.000
857.75	-0.000
857.92	-0.000
858.09	-0.000
858.26	-0.000
858.43	-0.000
858.60	-0.000
858.78	-0.000
858.95	-0.000
859.12	-0.000
859.29	-0.000
859.46	-0.000
859.63	-0.000
859.81	-0.000
859.98	-0.000
860.15	-0.000
860.32	-0.000
860.49	-0.000
860.66	-0.000
860.83	-0.000
861.01	-0.000
861.18	-0.000
861.35	-0.000
861.52	-0.000
861.69	-0.000
861.86	-0.000
862.03	-0.000
862.21	-0.000
862.38	-0.000
862.55	-0.000
862.72	-0.000
862.89	-0.000
863.06	-0.000
863.23	-0.000
863.40	-0.000
863.58	-0.000
863.75	-0.000
863.92	-0.000
864.09	-0.000
864.26	-0.000
864.43	-0.000
864.60	-0.000
864.77	-0.000
864.94	-0.000
865.11	-0.000
865.29	-0.000
865.46	-0.000
865.63	-0.000
865.80	-0.000
865.97	-0.000
866.14	-0.000
866.31	-0.000
866.48	-0.000
866.65	-0.000
866.82	-0.000
866.99	-0.000
867.16	-0.000
867.34	-0.000
867.51	-0.000
867.68	-0.000
867.85	-0.000
868.02	-0.000
868.19	-0.000
868.36	-0.000
868.53	-0.000
868.70	-0.000
868.87	-0.000
869.04	-0.000
869.21	-0.000
869.38	-0.000
869.55	-0.000
869.72	-0.000
869.89	-0.000
870.06	-0.000
870.24	-0.000
870.41	-0.000
870.58	-0.000
870.75	-0.000
870.92	-0.000
871.09	-0.000
871.26	-0.000
871.43	-0.000
871.60	-0.000
871.77	-0.000
871.94	-0.000
872.11	-0.000
872.28	-0.000
872.45	-0.000
872.62	-0.000
872.79	-0.000
872.96	-0.000
873.13	-0.000
873.30	-0.000
873.47	-0.000
873.64	-0.000
873.81	-0.000
873.98	-0.000
874.15	-0.000
874.32	-0.000
874.49	-0.000
874.66	-0.000
874.83	-0.000
875.00	-0.000
875.17	-0.000
875.34	-0.000
875.51	-0.000
875.68	-0.000
875.85	-0.000
876.02	-0.000
876.19	-0.000
876.36	-0.000
876.53	-0.000
876.70	-0.000
876.87	-0.000
877.04	-0.000
877.21	-0.000
877.38	-0.000
877.55	-0.000
877.72	-0.000
877.89	-0.000
878.06	-0.000
878.23	-0.000
878.39	-0.000
878.56	-0.000
878.73	-0.000
878.90	-0.000
879.07	-0.000
879.24	-0.000
879.41	-0.000
879.58	-0.000
879.75	-0.000
879.92	-0.000
880.09	-0.000
880.26	-0.000
880.43	-0.000
880.60	-0.000
880.77	-0.000
880.94	-0.000
881.11	-0.000
881.27	-0.000
881.44	-0.000
881.61	-0.000
881.78	-0.000
881.95	-0.000
882.12	-0.000
882.29	-0.000
882.46	-0.000
882.63	-0.000
882.80	-0.000
882.97	-0.000
883.14	-0.000
883.30	-0.000
883.47	-0.000
883.64	-0.000
883.81	-0.000
883.98	-0.000
884.15	-0.000
884.32	-0.000
884.49	-0.000
884.66	-0.000
884.82	-0.000
884.99	-0.000
885.16	-0.000
885.33	-0.000
885.50	-0.000
885.67	-0.000
885.84	-0.000
886.01	-0.000
886.17	-0.000
886.34	-0.000
886.51	-0.000
886.68	-0.000
886.85	-0.000
887.02	-0.000
887.19	-0.000
887.36	-0.000
887.52	-0.000
887.69	-0.000
887.86	-0.000
888.03	-0.000
888.20	-0.000
888.37	-0.000
888.54	-0.000
888.70	-0.000
888.87	-0.000
889.04	-0.000
889.21	-0.000
889.38	-0.000
889.55	-0.000
889.71	-0.000
889.88	-0.000
890.05	-0.000
890.22	-0.000
890.39	-0.000
>>>>>End Processed Spectral Data<<<<<
