SpectraSuite Data File
++++++++++++++++++++++++++++++++++++
Date: Fri Jun 19 11:34:27 CEST 2015
User: introlabs
Dark Spectrum Present: Yes
Reference Spectrum Present: Yes
Number of Sampled Component Spectra: 1
Spectrometers: USB4H08886
Integration Time (usec): 5245692 (USB4H08886)
Spectra Averaged: 5 (USB4H08886)
Boxcar Smoothing: 5 (USB4H08886)
Correct for Electrical Dark: Yes (USB4H08886)
Strobe/Lamp Enabled: No (USB4H08886)
Correct for Detector Non-linearity: Yes (USB4H08886)
Correct for Stray Light: Yes (USB4H08886)
Number of Pixels in Processed Spectrum: 3648
>>>>>Begin Processed Spectral Data<<<<<
178.14	-0.000
178.36	-0.000
178.57	-0.000
178.79	-0.000
179.01	-0.000
179.22	-0.000
179.44	-0.000
179.65	-0.000
179.87	-0.000
180.08	-0.000
180.30	-0.000
180.52	-0.000
180.73	-0.000
180.95	-0.000
181.16	-0.000
181.38	-0.000
181.59	-0.000
181.81	-0.000
182.03	-0.000
182.24	-0.000
182.46	-0.000
182.67	-0.000
182.89	-0.000
183.10	-0.000
183.32	-0.000
183.54	-0.000
183.75	-0.000
183.97	-0.000
184.18	-0.000
184.40	-0.000
184.61	-0.000
184.83	-0.000
185.04	-0.000
185.26	-0.000
185.48	-0.000
185.69	-0.000
185.91	-0.000
186.12	-0.000
186.34	-0.000
186.55	-0.000
186.77	-0.000
186.98	-0.000
187.20	-0.000
187.42	-0.000
187.63	-0.000
187.85	-0.000
188.06	-0.000
188.28	-0.000
188.49	-0.000
188.71	-0.000
188.92	-0.000
189.14	-0.000
189.36	-0.000
189.57	-0.000
189.79	-0.000
190.00	-0.000
190.22	-0.000
190.43	-0.000
190.65	-0.000
190.86	-0.000
191.08	-0.000
191.29	-0.000
191.51	-0.000
191.72	-0.000
191.94	-0.000
192.16	-0.000
192.37	-0.000
192.59	-0.000
192.80	-0.000
193.02	-0.000
193.23	-0.000
193.45	-0.000
193.66	-0.000
193.88	-0.000
194.09	-0.000
194.31	-0.000
194.52	-0.000
194.74	-0.000
194.95	-0.000
195.17	-0.000
195.38	-0.000
195.60	-0.000
195.81	-0.000
196.03	-0.000
196.25	-0.000
196.46	-0.000
196.68	-0.000
196.89	-0.000
197.11	-0.000
197.32	-0.000
197.54	-0.000
197.75	-0.000
197.97	-0.000
198.18	-0.000
198.40	-0.000
198.61	-0.000
198.83	-0.000
199.04	-0.000
199.26	-0.000
199.47	-0.000
199.69	-0.000
199.90	-0.000
200.12	-0.000
200.33	-0.000
200.55	-0.000
200.76	-0.000
200.98	-0.000
201.19	-0.000
201.41	-0.000
201.62	-0.000
201.84	-0.000
202.05	-0.000
202.27	-0.000
202.48	-0.000
202.70	-0.000
202.91	-0.000
203.13	-0.000
203.34	-0.000
203.56	-0.000
203.77	-0.000
203.99	-0.000
204.20	-0.000
204.42	-0.000
204.63	-0.000
204.85	-0.000
205.06	-0.000
205.28	-0.000
205.49	-0.000
205.71	-0.000
205.92	-0.000
206.14	-0.000
206.35	-0.000
206.56	-0.000
206.78	-0.000
206.99	-0.000
207.21	-0.000
207.42	-0.000
207.64	-0.000
207.85	-0.000
208.07	-0.000
208.28	-0.000
208.50	-0.000
208.71	-0.000
208.93	-0.000
209.14	-0.000
209.36	-0.000
209.57	-0.000
209.79	-0.000
210.00	-0.000
210.22	-0.000
210.43	-0.000
210.64	-0.000
210.86	-0.000
211.07	-0.000
211.29	-0.000
211.50	-0.000
211.72	-0.000
211.93	-0.000
212.15	-0.000
212.36	-0.000
212.58	-0.000
212.79	-0.000
213.01	-0.000
213.22	-0.000
213.43	-0.000
213.65	-0.000
213.86	-0.000
214.08	-0.000
214.29	-0.000
214.51	-0.000
214.72	-0.000
214.94	-0.000
215.15	-0.000
215.36	-0.000
215.58	-0.000
215.79	-0.000
216.01	-0.000
216.22	-0.000
216.44	-0.000
216.65	-0.000
216.87	-0.000
217.08	-0.000
217.29	-0.000
217.51	-0.000
217.72	-0.000
217.94	-0.000
218.15	-0.000
218.37	-0.000
218.58	-0.000
218.80	-0.000
219.01	-0.000
219.22	-0.000
219.44	-0.000
219.65	-0.000
219.87	-0.000
220.08	-0.000
220.30	-0.000
220.51	-0.000
220.72	-0.000
220.94	-0.000
221.15	-0.000
221.37	-0.000
221.58	-0.000
221.79	-0.000
222.01	-0.000
222.22	-0.000
222.44	-0.000
222.65	-0.000
222.87	-0.000
223.08	-0.000
223.29	-0.000
223.51	-0.000
223.72	-0.000
223.94	-0.000
224.15	-0.000
224.36	-0.000
224.58	-0.000
224.79	-0.000
225.01	-0.000
225.22	-0.000
225.44	-0.000
225.65	-0.000
225.86	-0.000
226.08	-0.000
226.29	-0.000
226.51	-0.000
226.72	-0.000
226.93	-0.000
227.15	-0.000
227.36	-0.000
227.58	-0.000
227.79	-0.000
228.00	-0.000
228.22	-0.000
228.43	-0.000
228.65	-0.000
228.86	-0.000
229.07	-0.000
229.29	-0.000
229.50	-0.000
229.72	-0.000
229.93	-0.000
230.14	-0.000
230.36	-0.000
230.57	-0.000
230.78	-0.000
231.00	-0.000
231.21	-0.000
231.43	-0.000
231.64	-0.000
231.85	-0.000
232.07	-0.000
232.28	-0.000
232.50	-0.000
232.71	-0.000
232.92	-0.000
233.14	-0.000
233.35	-0.000
233.56	-0.000
233.78	-0.000
233.99	-0.000
234.21	-0.000
234.42	-0.000
234.63	-0.000
234.85	-0.000
235.06	-0.000
235.27	-0.000
235.49	-0.000
235.70	-0.000
235.91	-0.000
236.13	-0.000
236.34	-0.000
236.56	-0.000
236.77	-0.000
236.98	-0.000
237.20	-0.000
237.41	-0.000
237.62	-0.000
237.84	-0.000
238.05	-0.000
238.26	-0.000
238.48	-0.000
238.69	-0.000
238.91	-0.000
239.12	-0.000
239.33	-0.000
239.55	-0.000
239.76	-0.000
239.97	-0.000
240.19	-0.000
240.40	-0.000
240.61	-0.000
240.83	-0.000
241.04	-0.000
241.25	-0.000
241.47	-0.000
241.68	-0.000
241.89	-0.000
242.11	-0.000
242.32	-0.000
242.53	-0.000
242.75	-0.000
242.96	-0.000
243.17	-0.000
243.39	-0.000
243.60	-0.000
243.81	-0.000
244.03	-0.000
244.24	-0.000
244.45	-0.000
244.67	-0.000
244.88	-0.000
245.09	-0.000
245.31	-0.000
245.52	-0.000
245.73	-0.000
245.95	-0.000
246.16	-0.000
246.37	-0.000
246.59	-0.000
246.80	-0.000
247.01	-0.000
247.23	-0.000
247.44	-0.000
247.65	-0.000
247.87	-0.000
248.08	-0.000
248.29	-0.000
248.51	-0.000
248.72	1.426
248.93	1.255
249.15	0.959
249.36	0.835
249.57	0.736
249.78	0.726
250.00	0.765
250.21	0.660
250.42	0.727
250.64	0.821
250.85	0.744
251.06	0.705
251.28	0.663
251.49	0.644
251.70	0.657
251.92	0.615
252.13	0.598
252.34	0.496
252.55	0.503
252.77	0.482
252.98	0.424
253.19	0.422
253.41	0.400
253.62	0.421
253.83	0.430
254.05	0.406
254.26	0.395
254.47	0.374
254.68	0.383
254.90	0.347
255.11	0.313
255.32	0.317
255.54	0.316
255.75	0.324
255.96	0.302
256.17	0.283
256.39	0.281
256.60	0.289
256.81	0.285
257.03	0.286
257.24	0.301
257.45	0.311
257.66	0.302
257.88	0.294
258.09	0.279
258.30	0.278
258.51	0.275
258.73	0.269
258.94	0.252
259.15	0.244
259.37	0.241
259.58	0.224
259.79	0.225
260.00	0.234
260.22	0.244
260.43	0.249
260.64	0.242
260.85	0.246
261.07	0.231
261.28	0.242
261.49	0.242
261.71	0.243
261.92	0.264
262.13	0.249
262.34	0.241
262.56	0.234
262.77	0.228
262.98	0.228
263.19	0.230
263.41	0.249
263.62	0.247
263.83	0.248
264.04	0.245
264.26	0.228
264.47	0.234
264.68	0.236
264.89	0.240
265.11	0.241
265.32	0.246
265.53	0.239
265.74	0.235
265.96	0.234
266.17	0.236
266.38	0.228
266.59	0.237
266.81	0.234
267.02	0.223
267.23	0.213
267.44	0.217
267.65	0.208
267.87	0.210
268.08	0.200
268.29	0.188
268.50	0.185
268.72	0.185
268.93	0.177
269.14	0.174
269.35	0.176
269.57	0.172
269.78	0.167
269.99	0.167
270.20	0.161
270.41	0.163
270.63	0.166
270.84	0.163
271.05	0.159
271.26	0.159
271.48	0.161
271.69	0.164
271.90	0.165
272.11	0.164
272.32	0.168
272.54	0.166
272.75	0.162
272.96	0.163
273.17	0.154
273.39	0.159
273.60	0.157
273.81	0.159
274.02	0.156
274.23	0.158
274.45	0.157
274.66	0.152
274.87	0.153
275.08	0.148
275.29	0.150
275.51	0.155
275.72	0.149
275.93	0.147
276.14	0.138
276.35	0.137
276.57	0.135
276.78	0.137
276.99	0.137
277.20	0.139
277.41	0.139
277.63	0.132
277.84	0.129
278.05	0.132
278.26	0.129
278.47	0.133
278.69	0.126
278.90	0.124
279.11	0.118
279.32	0.116
279.53	0.110
279.74	0.114
279.96	0.114
280.17	0.112
280.38	0.113
280.59	0.113
280.80	0.112
281.02	0.114
281.23	0.114
281.44	0.115
281.65	0.115
281.86	0.116
282.07	0.111
282.29	0.112
282.50	0.112
282.71	0.108
282.92	0.105
283.13	0.102
283.35	0.101
283.56	0.098
283.77	0.098
283.98	0.098
284.19	0.096
284.40	0.096
284.62	0.094
284.83	0.092
285.04	0.090
285.25	0.089
285.46	0.087
285.67	0.084
285.88	0.085
286.10	0.083
286.31	0.084
286.52	0.085
286.73	0.084
286.94	0.082
287.15	0.082
287.37	0.083
287.58	0.083
287.79	0.083
288.00	0.084
288.21	0.083
288.42	0.081
288.63	0.078
288.85	0.076
289.06	0.073
289.27	0.073
289.48	0.071
289.69	0.070
289.90	0.068
290.11	0.067
290.33	0.065
290.54	0.065
290.75	0.065
290.96	0.066
291.17	0.066
291.38	0.067
291.59	0.067
291.81	0.068
292.02	0.067
292.23	0.068
292.44	0.068
292.65	0.069
292.86	0.068
293.07	0.067
293.28	0.067
293.50	0.067
293.71	0.067
293.92	0.067
294.13	0.065
294.34	0.066
294.55	0.065
294.76	0.065
294.97	0.064
295.19	0.065
295.40	0.064
295.61	0.064
295.82	0.064
296.03	0.064
296.24	0.064
296.45	0.065
296.66	0.065
296.87	0.066
297.09	0.066
297.30	0.066
297.51	0.066
297.72	0.067
297.93	0.067
298.14	0.067
298.35	0.067
298.56	0.067
298.77	0.066
298.99	0.066
299.20	0.066
299.41	0.067
299.62	0.067
299.83	0.068
300.04	0.067
300.25	0.067
300.46	0.067
300.67	0.067
300.88	0.067
301.10	0.068
301.31	0.067
301.52	0.067
301.73	0.066
301.94	0.066
302.15	0.066
302.36	0.067
302.57	0.066
302.78	0.067
302.99	0.066
303.20	0.066
303.41	0.066
303.63	0.067
303.84	0.067
304.05	0.067
304.26	0.067
304.47	0.067
304.68	0.067
304.89	0.067
305.10	0.067
305.31	0.067
305.52	0.067
305.73	0.067
305.94	0.066
306.15	0.067
306.37	0.066
306.58	0.066
306.79	0.066
307.00	0.066
307.21	0.065
307.42	0.066
307.63	0.065
307.84	0.066
308.05	0.066
308.26	0.066
308.47	0.065
308.68	0.065
308.89	0.066
309.10	0.065
309.31	0.066
309.52	0.066
309.73	0.066
309.95	0.067
310.16	0.066
310.37	0.067
310.58	0.067
310.79	0.067
311.00	0.067
311.21	0.067
311.42	0.067
311.63	0.067
311.84	0.066
312.05	0.066
312.26	0.066
312.47	0.066
312.68	0.065
312.89	0.066
313.10	0.065
313.31	0.066
313.52	0.065
313.73	0.065
313.94	0.065
314.15	0.066
314.36	0.065
314.57	0.065
314.78	0.065
314.99	0.066
315.21	0.065
315.42	0.065
315.63	0.065
315.84	0.066
316.05	0.065
316.26	0.065
316.47	0.065
316.68	0.065
316.89	0.065
317.10	0.065
317.31	0.064
317.52	0.065
317.73	0.064
317.94	0.064
318.15	0.064
318.36	0.064
318.57	0.064
318.78	0.064
318.99	0.063
319.20	0.064
319.41	0.064
319.62	0.064
319.83	0.064
320.04	0.064
320.25	0.064
320.46	0.064
320.67	0.063
320.88	0.064
321.09	0.063
321.30	0.063
321.51	0.063
321.72	0.063
321.93	0.063
322.14	0.062
322.35	0.062
322.56	0.062
322.77	0.062
322.98	0.062
323.19	0.062
323.40	0.062
323.61	0.062
323.82	0.062
324.03	0.062
324.24	0.062
324.45	0.063
324.66	0.063
324.87	0.063
325.08	0.064
325.29	0.064
325.50	0.064
325.71	0.064
325.92	0.065
326.13	0.065
326.34	0.065
326.55	0.065
326.76	0.065
326.97	0.064
327.18	0.064
327.39	0.064
327.60	0.064
327.80	0.063
328.01	0.063
328.22	0.062
328.43	0.063
328.64	0.062
328.85	0.062
329.06	0.061
329.27	0.062
329.48	0.062
329.69	0.062
329.90	0.062
330.11	0.062
330.32	0.062
330.53	0.062
330.74	0.061
330.95	0.062
331.16	0.062
331.37	0.062
331.58	0.062
331.79	0.062
332.00	0.061
332.21	0.062
332.42	0.062
332.63	0.062
332.83	0.062
333.04	0.062
333.25	0.062
333.46	0.061
333.67	0.061
333.88	0.062
334.09	0.061
334.30	0.062
334.51	0.061
334.72	0.061
334.93	0.061
335.14	0.061
335.35	0.060
335.56	0.061
335.77	0.061
335.98	0.061
336.18	0.060
336.39	0.060
336.60	0.060
336.81	0.060
337.02	0.060
337.23	0.060
337.44	0.060
337.65	0.060
337.86	0.060
338.07	0.060
338.28	0.060
338.49	0.061
338.70	0.061
338.91	0.061
339.11	0.060
339.32	0.060
339.53	0.060
339.74	0.060
339.95	0.060
340.16	0.060
340.37	0.060
340.58	0.060
340.79	0.060
341.00	0.060
341.21	0.060
341.41	0.060
341.62	0.060
341.83	0.060
342.04	0.059
342.25	0.059
342.46	0.059
342.67	0.059
342.88	0.059
343.09	0.058
343.30	0.058
343.50	0.059
343.71	0.058
343.92	0.059
344.13	0.059
344.34	0.059
344.55	0.059
344.76	0.059
344.97	0.059
345.18	0.059
345.38	0.059
345.59	0.059
345.80	0.059
346.01	0.060
346.22	0.060
346.43	0.060
346.64	0.060
346.85	0.060
347.06	0.059
347.26	0.059
347.47	0.058
347.68	0.059
347.89	0.058
348.10	0.058
348.31	0.058
348.52	0.058
348.73	0.057
348.93	0.057
349.14	0.058
349.35	0.058
349.56	0.058
349.77	0.059
349.98	0.059
350.19	0.059
350.39	0.058
350.60	0.058
350.81	0.058
351.02	0.058
351.23	0.058
351.44	0.058
351.65	0.058
351.86	0.058
352.06	0.057
352.27	0.057
352.48	0.058
352.69	0.058
352.90	0.058
353.11	0.058
353.31	0.058
353.52	0.058
353.73	0.057
353.94	0.057
354.15	0.057
354.36	0.057
354.57	0.057
354.77	0.057
354.98	0.056
355.19	0.056
355.40	0.056
355.61	0.056
355.82	0.056
356.02	0.056
356.23	0.056
356.44	0.056
356.65	0.056
356.86	0.056
357.07	0.056
357.27	0.056
357.48	0.056
357.69	0.056
357.90	0.056
358.11	0.056
358.32	0.056
358.52	0.056
358.73	0.056
358.94	0.056
359.15	0.056
359.36	0.056
359.56	0.056
359.77	0.057
359.98	0.057
360.19	0.056
360.40	0.056
360.61	0.057
360.81	0.056
361.02	0.056
361.23	0.056
361.44	0.056
361.65	0.056
361.85	0.056
362.06	0.056
362.27	0.056
362.48	0.056
362.69	0.056
362.89	0.056
363.10	0.056
363.31	0.057
363.52	0.057
363.73	0.056
363.93	0.057
364.14	0.057
364.35	0.057
364.56	0.057
364.77	0.057
364.97	0.057
365.18	0.057
365.39	0.056
365.60	0.056
365.81	0.056
366.01	0.056
366.22	0.056
366.43	0.056
366.64	0.056
366.84	0.056
367.05	0.055
367.26	0.055
367.47	0.055
367.68	0.055
367.88	0.055
368.09	0.055
368.30	0.054
368.51	0.054
368.71	0.054
368.92	0.054
369.13	0.054
369.34	0.054
369.55	0.054
369.75	0.054
369.96	0.054
370.17	0.054
370.38	0.054
370.58	0.054
370.79	0.054
371.00	0.054
371.21	0.054
371.41	0.054
371.62	0.054
371.83	0.054
372.04	0.053
372.24	0.054
372.45	0.053
372.66	0.053
372.87	0.054
373.07	0.054
373.28	0.054
373.49	0.054
373.70	0.054
373.90	0.054
374.11	0.054
374.32	0.054
374.53	0.054
374.73	0.054
374.94	0.053
375.15	0.053
375.36	0.053
375.56	0.053
375.77	0.052
375.98	0.052
376.19	0.053
376.39	0.053
376.60	0.053
376.81	0.053
377.02	0.053
377.22	0.053
377.43	0.053
377.64	0.054
377.84	0.054
378.05	0.054
378.26	0.054
378.47	0.054
378.67	0.054
378.88	0.054
379.09	0.054
379.30	0.054
379.50	0.054
379.71	0.054
379.92	0.053
380.12	0.053
380.33	0.053
380.54	0.053
380.75	0.053
380.95	0.053
381.16	0.053
381.37	0.053
381.57	0.053
381.78	0.053
381.99	0.053
382.20	0.053
382.40	0.053
382.61	0.052
382.82	0.052
383.02	0.052
383.23	0.052
383.44	0.052
383.64	0.052
383.85	0.051
384.06	0.051
384.27	0.051
384.47	0.051
384.68	0.051
384.89	0.051
385.09	0.052
385.30	0.052
385.51	0.052
385.71	0.052
385.92	0.052
386.13	0.052
386.33	0.052
386.54	0.052
386.75	0.052
386.95	0.051
387.16	0.051
387.37	0.051
387.58	0.051
387.78	0.051
387.99	0.051
388.20	0.051
388.40	0.051
388.61	0.051
388.82	0.051
389.02	0.051
389.23	0.051
389.44	0.051
389.64	0.052
389.85	0.051
390.06	0.051
390.26	0.051
390.47	0.050
390.68	0.050
390.88	0.050
391.09	0.050
391.30	0.050
391.50	0.050
391.71	0.050
391.92	0.050
392.12	0.050
392.33	0.050
392.53	0.050
392.74	0.051
392.95	0.050
393.15	0.051
393.36	0.051
393.57	0.051
393.77	0.051
393.98	0.051
394.19	0.051
394.39	0.051
394.60	0.050
394.81	0.050
395.01	0.050
395.22	0.050
395.43	0.050
395.63	0.050
395.84	0.049
396.04	0.049
396.25	0.049
396.46	0.049
396.66	0.049
396.87	0.049
397.08	0.049
397.28	0.049
397.49	0.049
397.69	0.049
397.90	0.049
398.11	0.049
398.31	0.050
398.52	0.050
398.73	0.050
398.93	0.050
399.14	0.050
399.34	0.050
399.55	0.050
399.76	0.050
399.96	0.049
400.17	0.049
400.37	0.049
400.58	0.048
400.79	0.048
400.99	0.048
401.20	0.048
401.41	0.048
401.61	0.048
401.82	0.048
402.02	0.048
402.23	0.048
402.44	0.048
402.64	0.048
402.85	0.048
403.05	0.048
403.26	0.048
403.47	0.048
403.67	0.048
403.88	0.048
404.08	0.048
404.29	0.048
404.50	0.048
404.70	0.048
404.91	0.048
405.11	0.048
405.32	0.048
405.52	0.048
405.73	0.048
405.94	0.048
406.14	0.047
406.35	0.047
406.55	0.047
406.76	0.047
406.97	0.047
407.17	0.047
407.38	0.047
407.58	0.047
407.79	0.047
407.99	0.047
408.20	0.047
408.41	0.047
408.61	0.047
408.82	0.047
409.02	0.047
409.23	0.047
409.43	0.046
409.64	0.046
409.84	0.047
410.05	0.047
410.26	0.047
410.46	0.047
410.67	0.047
410.87	0.047
411.08	0.046
411.28	0.046
411.49	0.047
411.69	0.047
411.90	0.047
412.11	0.047
412.31	0.047
412.52	0.047
412.72	0.047
412.93	0.047
413.13	0.047
413.34	0.047
413.54	0.047
413.75	0.047
413.95	0.047
414.16	0.047
414.37	0.046
414.57	0.046
414.78	0.046
414.98	0.046
415.19	0.046
415.39	0.046
415.60	0.046
415.80	0.046
416.01	0.046
416.21	0.046
416.42	0.046
416.62	0.046
416.83	0.046
417.03	0.046
417.24	0.046
417.44	0.046
417.65	0.046
417.86	0.047
418.06	0.047
418.27	0.047
418.47	0.047
418.68	0.047
418.88	0.047
419.09	0.047
419.29	0.047
419.50	0.047
419.70	0.047
419.91	0.047
420.11	0.046
420.32	0.046
420.52	0.047
420.73	0.046
420.93	0.046
421.14	0.046
421.34	0.046
421.55	0.046
421.75	0.046
421.96	0.046
422.16	0.046
422.37	0.046
422.57	0.046
422.78	0.046
422.98	0.045
423.19	0.046
423.39	0.046
423.60	0.045
423.80	0.045
424.01	0.045
424.21	0.045
424.42	0.045
424.62	0.045
424.83	0.045
425.03	0.046
425.23	0.046
425.44	0.046
425.64	0.046
425.85	0.046
426.05	0.046
426.26	0.045
426.46	0.045
426.67	0.045
426.87	0.045
427.08	0.045
427.28	0.045
427.49	0.044
427.69	0.045
427.90	0.045
428.10	0.045
428.31	0.045
428.51	0.045
428.71	0.045
428.92	0.045
429.12	0.045
429.33	0.046
429.53	0.046
429.74	0.046
429.94	0.046
430.15	0.046
430.35	0.045
430.56	0.045
430.76	0.046
430.96	0.046
431.17	0.046
431.37	0.046
431.58	0.046
431.78	0.046
431.99	0.046
432.19	0.046
432.40	0.045
432.60	0.045
432.80	0.046
433.01	0.045
433.21	0.045
433.42	0.045
433.62	0.045
433.83	0.045
434.03	0.045
434.23	0.045
434.44	0.045
434.64	0.045
434.85	0.046
435.05	0.046
435.26	0.046
435.46	0.046
435.66	0.045
435.87	0.045
436.07	0.045
436.28	0.045
436.48	0.046
436.69	0.045
436.89	0.045
437.09	0.045
437.30	0.046
437.50	0.046
437.71	0.046
437.91	0.046
438.11	0.045
438.32	0.046
438.52	0.045
438.73	0.045
438.93	0.046
439.13	0.045
439.34	0.046
439.54	0.045
439.75	0.045
439.95	0.045
440.15	0.045
440.36	0.045
440.56	0.045
440.77	0.045
440.97	0.045
441.17	0.044
441.38	0.044
441.58	0.044
441.79	0.044
441.99	0.044
442.19	0.045
442.40	0.045
442.60	0.045
442.81	0.045
443.01	0.046
443.21	0.046
443.42	0.046
443.62	0.045
443.82	0.045
444.03	0.045
444.23	0.046
444.44	0.045
444.64	0.045
444.84	0.044
445.05	0.044
445.25	0.044
445.45	0.044
445.66	0.044
445.86	0.044
446.06	0.044
446.27	0.044
446.47	0.044
446.68	0.044
446.88	0.044
447.08	0.044
447.29	0.044
447.49	0.045
447.69	0.045
447.90	0.045
448.10	0.045
448.30	0.045
448.51	0.045
448.71	0.045
448.91	0.045
449.12	0.045
449.32	0.045
449.52	0.044
449.73	0.044
449.93	0.044
450.14	0.044
450.34	0.044
450.54	0.044
450.75	0.044
450.95	0.044
451.15	0.044
451.36	0.044
451.56	0.044
451.76	0.044
451.97	0.044
452.17	0.044
452.37	0.044
452.58	0.044
452.78	0.044
452.98	0.044
453.19	0.044
453.39	0.044
453.59	0.045
453.79	0.044
454.00	0.044
454.20	0.044
454.40	0.044
454.61	0.044
454.81	0.044
455.01	0.044
455.22	0.044
455.42	0.044
455.62	0.044
455.83	0.044
456.03	0.044
456.23	0.044
456.44	0.044
456.64	0.044
456.84	0.044
457.04	0.044
457.25	0.044
457.45	0.045
457.65	0.045
457.86	0.045
458.06	0.045
458.26	0.045
458.47	0.045
458.67	0.045
458.87	0.045
459.07	0.045
459.28	0.044
459.48	0.044
459.68	0.044
459.89	0.044
460.09	0.043
460.29	0.043
460.49	0.043
460.70	0.043
460.90	0.043
461.10	0.043
461.31	0.043
461.51	0.043
461.71	0.043
461.91	0.043
462.12	0.043
462.32	0.043
462.52	0.043
462.72	0.044
462.93	0.044
463.13	0.043
463.33	0.044
463.53	0.044
463.74	0.044
463.94	0.044
464.14	0.044
464.35	0.044
464.55	0.044
464.75	0.045
464.95	0.045
465.16	0.045
465.36	0.045
465.56	0.045
465.76	0.045
465.97	0.045
466.17	0.045
466.37	0.045
466.57	0.044
466.78	0.044
466.98	0.044
467.18	0.044
467.38	0.044
467.59	0.044
467.79	0.044
467.99	0.044
468.19	0.044
468.39	0.044
468.60	0.044
468.80	0.044
469.00	0.044
469.20	0.044
469.41	0.045
469.61	0.045
469.81	0.045
470.01	0.044
470.22	0.045
470.42	0.045
470.62	0.045
470.82	0.045
471.02	0.044
471.23	0.044
471.43	0.044
471.63	0.044
471.83	0.044
472.04	0.044
472.24	0.044
472.44	0.044
472.64	0.044
472.84	0.044
473.05	0.045
473.25	0.045
473.45	0.045
473.65	0.045
473.85	0.045
474.06	0.045
474.26	0.045
474.46	0.045
474.66	0.045
474.86	0.045
475.07	0.045
475.27	0.045
475.47	0.045
475.67	0.045
475.87	0.045
476.08	0.045
476.28	0.045
476.48	0.044
476.68	0.045
476.88	0.044
477.09	0.044
477.29	0.044
477.49	0.044
477.69	0.044
477.89	0.044
478.09	0.044
478.30	0.044
478.50	0.044
478.70	0.045
478.90	0.044
479.10	0.044
479.31	0.045
479.51	0.045
479.71	0.045
479.91	0.045
480.11	0.045
480.31	0.045
480.52	0.045
480.72	0.045
480.92	0.045
481.12	0.045
481.32	0.046
481.52	0.046
481.72	0.045
481.93	0.045
482.13	0.045
482.33	0.046
482.53	0.045
482.73	0.045
482.93	0.045
483.14	0.045
483.34	0.045
483.54	0.045
483.74	0.045
483.94	0.045
484.14	0.045
484.34	0.046
484.55	0.045
484.75	0.046
484.95	0.045
485.15	0.045
485.35	0.045
485.55	0.045
485.75	0.045
485.96	0.045
486.16	0.045
486.36	0.045
486.56	0.045
486.76	0.045
486.96	0.045
487.16	0.046
487.36	0.045
487.57	0.046
487.77	0.045
487.97	0.045
488.17	0.045
488.37	0.045
488.57	0.045
488.77	0.045
488.97	0.045
489.18	0.045
489.38	0.044
489.58	0.044
489.78	0.044
489.98	0.044
490.18	0.044
490.38	0.044
490.58	0.044
490.78	0.045
490.98	0.045
491.19	0.045
491.39	0.045
491.59	0.045
491.79	0.045
491.99	0.045
492.19	0.045
492.39	0.045
492.59	0.045
492.79	0.045
492.99	0.045
493.20	0.044
493.40	0.044
493.60	0.044
493.80	0.044
494.00	0.044
494.20	0.044
494.40	0.044
494.60	0.044
494.80	0.044
495.00	0.044
495.20	0.044
495.40	0.044
495.61	0.044
495.81	0.044
496.01	0.045
496.21	0.044
496.41	0.045
496.61	0.045
496.81	0.045
497.01	0.045
497.21	0.045
497.41	0.045
497.61	0.045
497.81	0.045
498.01	0.045
498.21	0.044
498.41	0.045
498.61	0.045
498.82	0.045
499.02	0.045
499.22	0.044
499.42	0.044
499.62	0.044
499.82	0.044
500.02	0.045
500.22	0.044
500.42	0.045
500.62	0.045
500.82	0.045
501.02	0.045
501.22	0.045
501.42	0.045
501.62	0.045
501.82	0.045
502.02	0.045
502.22	0.045
502.42	0.045
502.62	0.045
502.82	0.045
503.02	0.045
503.22	0.045
503.42	0.045
503.63	0.045
503.83	0.044
504.03	0.045
504.23	0.044
504.43	0.045
504.63	0.045
504.83	0.045
505.03	0.045
505.23	0.045
505.43	0.045
505.63	0.045
505.83	0.045
506.03	0.045
506.23	0.044
506.43	0.044
506.63	0.045
506.83	0.045
507.03	0.045
507.23	0.045
507.43	0.045
507.63	0.045
507.83	0.045
508.03	0.045
508.23	0.045
508.43	0.045
508.63	0.045
508.83	0.045
509.03	0.045
509.23	0.045
509.43	0.045
509.63	0.045
509.83	0.045
510.03	0.045
510.23	0.045
510.43	0.045
510.63	0.045
510.83	0.045
511.03	0.045
511.23	0.045
511.43	0.045
511.63	0.045
511.83	0.044
512.03	0.045
512.22	0.044
512.42	0.045
512.62	0.045
512.82	0.044
513.02	0.044
513.22	0.045
513.42	0.045
513.62	0.045
513.82	0.045
514.02	0.045
514.22	0.045
514.42	0.045
514.62	0.045
514.82	0.045
515.02	0.045
515.22	0.045
515.42	0.044
515.62	0.044
515.82	0.045
516.02	0.045
516.22	0.045
516.42	0.045
516.62	0.045
516.82	0.045
517.01	0.045
517.21	0.045
517.41	0.045
517.61	0.045
517.81	0.045
518.01	0.044
518.21	0.044
518.41	0.044
518.61	0.044
518.81	0.044
519.01	0.044
519.21	0.044
519.41	0.044
519.61	0.044
519.81	0.044
520.00	0.044
520.20	0.044
520.40	0.044
520.60	0.044
520.80	0.044
521.00	0.044
521.20	0.044
521.40	0.044
521.60	0.044
521.80	0.044
522.00	0.044
522.20	0.044
522.39	0.044
522.59	0.043
522.79	0.044
522.99	0.044
523.19	0.044
523.39	0.044
523.59	0.044
523.79	0.044
523.99	0.045
524.19	0.045
524.38	0.045
524.58	0.045
524.78	0.045
524.98	0.045
525.18	0.045
525.38	0.045
525.58	0.045
525.78	0.045
525.98	0.045
526.18	0.045
526.37	0.045
526.57	0.045
526.77	0.045
526.97	0.044
527.17	0.044
527.37	0.044
527.57	0.044
527.77	0.044
527.96	0.045
528.16	0.045
528.36	0.045
528.56	0.045
528.76	0.045
528.96	0.045
529.16	0.045
529.36	0.045
529.55	0.045
529.75	0.045
529.95	0.046
530.15	0.045
530.35	0.045
530.55	0.045
530.75	0.045
530.94	0.045
531.14	0.045
531.34	0.045
531.54	0.045
531.74	0.045
531.94	0.045
532.13	0.045
532.33	0.045
532.53	0.045
532.73	0.045
532.93	0.045
533.13	0.045
533.33	0.045
533.52	0.045
533.72	0.045
533.92	0.045
534.12	0.046
534.32	0.046
534.52	0.046
534.71	0.046
534.91	0.046
535.11	0.046
535.31	0.046
535.51	0.046
535.71	0.045
535.90	0.045
536.10	0.045
536.30	0.045
536.50	0.045
536.70	0.045
536.89	0.045
537.09	0.045
537.29	0.045
537.49	0.045
537.69	0.045
537.89	0.046
538.08	0.045
538.28	0.046
538.48	0.046
538.68	0.046
538.88	0.046
539.07	0.046
539.27	0.046
539.47	0.046
539.67	0.046
539.87	0.046
540.06	0.046
540.26	0.046
540.46	0.046
540.66	0.046
540.86	0.046
541.05	0.046
541.25	0.046
541.45	0.045
541.65	0.045
541.84	0.045
542.04	0.045
542.24	0.045
542.44	0.045
542.64	0.045
542.83	0.045
543.03	0.046
543.23	0.046
543.43	0.046
543.62	0.046
543.82	0.046
544.02	0.046
544.22	0.046
544.42	0.046
544.61	0.046
544.81	0.046
545.01	0.047
545.21	0.046
545.40	0.047
545.60	0.047
545.80	0.046
546.00	0.046
546.19	0.046
546.39	0.046
546.59	0.046
546.79	0.046
546.98	0.047
547.18	0.046
547.38	0.046
547.58	0.046
547.77	0.047
547.97	0.047
548.17	0.047
548.37	0.047
548.56	0.047
548.76	0.047
548.96	0.047
549.16	0.047
549.35	0.047
549.55	0.047
549.75	0.047
549.95	0.046
550.14	0.046
550.34	0.046
550.54	0.046
550.73	0.046
550.93	0.046
551.13	0.046
551.33	0.046
551.52	0.046
551.72	0.046
551.92	0.047
552.12	0.047
552.31	0.047
552.51	0.047
552.71	0.047
552.90	0.047
553.10	0.046
553.30	0.047
553.50	0.046
553.69	0.047
553.89	0.047
554.09	0.046
554.28	0.046
554.48	0.046
554.68	0.046
554.87	0.046
555.07	0.046
555.27	0.046
555.47	0.046
555.66	0.046
555.86	0.046
556.06	0.046
556.25	0.046
556.45	0.047
556.65	0.046
556.84	0.047
557.04	0.047
557.24	0.047
557.43	0.046
557.63	0.047
557.83	0.047
558.02	0.047
558.22	0.047
558.42	0.047
558.61	0.047
558.81	0.048
559.01	0.048
559.21	0.048
559.40	0.048
559.60	0.048
559.80	0.047
559.99	0.047
560.19	0.047
560.39	0.047
560.58	0.047
560.78	0.047
560.97	0.046
561.17	0.046
561.37	0.046
561.56	0.046
561.76	0.046
561.96	0.047
562.15	0.047
562.35	0.046
562.55	0.046
562.74	0.046
562.94	0.046
563.14	0.046
563.33	0.046
563.53	0.046
563.73	0.046
563.92	0.046
564.12	0.046
564.31	0.046
564.51	0.046
564.71	0.047
564.90	0.047
565.10	0.047
565.30	0.047
565.49	0.047
565.69	0.047
565.89	0.047
566.08	0.047
566.28	0.047
566.47	0.047
566.67	0.047
566.87	0.047
567.06	0.048
567.26	0.048
567.46	0.048
567.65	0.048
567.85	0.048
568.04	0.048
568.24	0.048
568.44	0.048
568.63	0.048
568.83	0.048
569.02	0.048
569.22	0.048
569.42	0.049
569.61	0.048
569.81	0.048
570.00	0.048
570.20	0.048
570.40	0.048
570.59	0.048
570.79	0.048
570.98	0.048
571.18	0.048
571.38	0.048
571.57	0.048
571.77	0.048
571.96	0.048
572.16	0.048
572.35	0.048
572.55	0.048
572.75	0.048
572.94	0.048
573.14	0.048
573.33	0.047
573.53	0.047
573.73	0.047
573.92	0.047
574.12	0.048
574.31	0.047
574.51	0.048
574.70	0.048
574.90	0.048
575.09	0.048
575.29	0.048
575.49	0.049
575.68	0.049
575.88	0.049
576.07	0.049
576.27	0.049
576.46	0.049
576.66	0.049
576.86	0.049
577.05	0.049
577.25	0.049
577.44	0.049
577.64	0.049
577.83	0.048
578.03	0.049
578.22	0.048
578.42	0.048
578.61	0.048
578.81	0.048
579.00	0.048
579.20	0.048
579.40	0.048
579.59	0.048
579.79	0.048
579.98	0.048
580.18	0.048
580.37	0.048
580.57	0.048
580.76	0.048
580.96	0.048
581.15	0.048
581.35	0.048
581.54	0.048
581.74	0.048
581.93	0.048
582.13	0.048
582.32	0.049
582.52	0.049
582.71	0.049
582.91	0.049
583.10	0.049
583.30	0.049
583.49	0.049
583.69	0.049
583.88	0.049
584.08	0.049
584.27	0.049
584.47	0.048
584.66	0.049
584.86	0.048
585.05	0.049
585.25	0.049
585.44	0.049
585.64	0.048
585.83	0.048
586.03	0.048
586.22	0.048
586.42	0.048
586.61	0.048
586.81	0.048
587.00	0.048
587.20	0.048
587.39	0.048
587.59	0.048
587.78	0.048
587.98	0.048
588.17	0.048
588.37	0.048
588.56	0.048
588.76	0.048
588.95	0.048
589.15	0.048
589.34	0.048
589.54	0.048
589.73	0.048
589.92	0.048
590.12	0.048
590.31	0.047
590.51	0.047
590.70	0.047
590.90	0.047
591.09	0.047
591.29	0.048
591.48	0.048
591.68	0.048
591.87	0.048
592.06	0.048
592.26	0.048
592.45	0.048
592.65	0.048
592.84	0.048
593.04	0.048
593.23	0.048
593.43	0.048
593.62	0.048
593.81	0.048
594.01	0.048
594.20	0.048
594.40	0.048
594.59	0.048
594.79	0.048
594.98	0.048
595.17	0.048
595.37	0.048
595.56	0.048
595.76	0.048
595.95	0.048
596.14	0.048
596.34	0.048
596.53	0.048
596.73	0.048
596.92	0.048
597.12	0.048
597.31	0.048
597.50	0.048
597.70	0.048
597.89	0.047
598.09	0.047
598.28	0.047
598.47	0.047
598.67	0.047
598.86	0.047
599.06	0.047
599.25	0.046
599.44	0.047
599.64	0.046
599.83	0.047
600.03	0.046
600.22	0.046
600.41	0.046
600.61	0.046
600.80	0.046
601.00	0.046
601.19	0.046
601.38	0.046
601.58	0.046
601.77	0.046
601.96	0.046
602.16	0.046
602.35	0.047
602.55	0.046
602.74	0.046
602.93	0.046
603.13	0.046
603.32	0.047
603.51	0.047
603.71	0.047
603.90	0.047
604.09	0.047
604.29	0.047
604.48	0.047
604.68	0.047
604.87	0.048
605.06	0.047
605.26	0.048
605.45	0.047
605.64	0.047
605.84	0.047
606.03	0.047
606.22	0.047
606.42	0.047
606.61	0.047
606.80	0.047
607.00	0.046
607.19	0.047
607.38	0.046
607.58	0.047
607.77	0.047
607.96	0.047
608.16	0.046
608.35	0.046
608.54	0.046
608.74	0.045
608.93	0.045
609.12	0.045
609.32	0.045
609.51	0.046
609.70	0.046
609.90	0.046
610.09	0.046
610.28	0.046
610.48	0.047
610.67	0.047
610.86	0.047
611.06	0.047
611.25	0.047
611.44	0.047
611.64	0.046
611.83	0.046
612.02	0.046
612.21	0.046
612.41	0.046
612.60	0.046
612.79	0.046
612.99	0.046
613.18	0.046
613.37	0.046
613.57	0.047
613.76	0.047
613.95	0.047
614.14	0.047
614.34	0.047
614.53	0.048
614.72	0.047
614.92	0.048
615.11	0.048
615.30	0.047
615.49	0.047
615.69	0.047
615.88	0.047
616.07	0.047
616.26	0.047
616.46	0.047
616.65	0.047
616.84	0.047
617.04	0.047
617.23	0.047
617.42	0.047
617.61	0.047
617.81	0.047
618.00	0.047
618.19	0.047
618.38	0.047
618.58	0.047
618.77	0.047
618.96	0.047
619.15	0.047
619.35	0.047
619.54	0.047
619.73	0.047
619.92	0.047
620.12	0.047
620.31	0.047
620.50	0.047
620.69	0.047
620.89	0.047
621.08	0.047
621.27	0.047
621.46	0.047
621.66	0.047
621.85	0.047
622.04	0.047
622.23	0.047
622.43	0.047
622.62	0.047
622.81	0.047
623.00	0.047
623.19	0.046
623.39	0.047
623.58	0.047
623.77	0.047
623.96	0.047
624.16	0.047
624.35	0.047
624.54	0.047
624.73	0.047
624.92	0.047
625.12	0.047
625.31	0.047
625.50	0.047
625.69	0.047
625.88	0.046
626.08	0.046
626.27	0.046
626.46	0.046
626.65	0.046
626.84	0.046
627.04	0.046
627.23	0.047
627.42	0.047
627.61	0.047
627.80	0.047
628.00	0.047
628.19	0.046
628.38	0.047
628.57	0.046
628.76	0.046
628.96	0.046
629.15	0.046
629.34	0.046
629.53	0.046
629.72	0.046
629.91	0.046
630.11	0.046
630.30	0.046
630.49	0.046
630.68	0.046
630.87	0.046
631.06	0.047
631.26	0.047
631.45	0.047
631.64	0.046
631.83	0.047
632.02	0.047
632.21	0.048
632.41	0.048
632.60	0.048
632.79	0.048
632.98	0.047
633.17	0.047
633.36	0.047
633.55	0.047
633.75	0.047
633.94	0.047
634.13	0.048
634.32	0.048
634.51	0.048
634.70	0.047
634.89	0.048
635.09	0.048
635.28	0.048
635.47	0.048
635.66	0.048
635.85	0.047
636.04	0.047
636.23	0.047
636.43	0.047
636.62	0.047
636.81	0.047
637.00	0.046
637.19	0.046
637.38	0.046
637.57	0.046
637.76	0.046
637.95	0.046
638.15	0.045
638.34	0.046
638.53	0.046
638.72	0.046
638.91	0.046
639.10	0.046
639.29	0.046
639.48	0.047
639.67	0.047
639.87	0.047
640.06	0.047
640.25	0.047
640.44	0.047
640.63	0.047
640.82	0.047
641.01	0.048
641.20	0.047
641.39	0.048
641.58	0.047
641.78	0.048
641.97	0.048
642.16	0.048
642.35	0.048
642.54	0.049
642.73	0.048
642.92	0.048
643.11	0.048
643.30	0.048
643.49	0.048
643.68	0.048
643.87	0.048
644.06	0.047
644.25	0.047
644.45	0.048
644.64	0.048
644.83	0.048
645.02	0.047
645.21	0.048
645.40	0.048
645.59	0.048
645.78	0.048
645.97	0.048
646.16	0.048
646.35	0.048
646.54	0.047
646.73	0.047
646.92	0.046
647.11	0.047
647.30	0.047
647.49	0.046
647.68	0.046
647.88	0.046
648.07	0.046
648.26	0.046
648.45	0.046
648.64	0.047
648.83	0.046
649.02	0.046
649.21	0.046
649.40	0.046
649.59	0.046
649.78	0.046
649.97	0.047
650.16	0.046
650.35	0.046
650.54	0.046
650.73	0.046
650.92	0.046
651.11	0.046
651.30	0.047
651.49	0.046
651.68	0.046
651.87	0.046
652.06	0.046
652.25	0.046
652.44	0.047
652.63	0.047
652.82	0.047
653.01	0.047
653.20	0.047
653.39	0.047
653.58	0.047
653.77	0.047
653.96	0.047
654.15	0.046
654.34	0.046
654.53	0.046
654.72	0.046
654.91	0.045
655.10	0.045
655.29	0.045
655.48	0.045
655.67	0.045
655.86	0.045
656.05	0.045
656.24	0.045
656.43	0.045
656.62	0.045
656.81	0.045
657.00	0.045
657.19	0.045
657.38	0.045
657.57	0.045
657.76	0.045
657.95	0.045
658.14	0.045
658.33	0.045
658.51	0.045
658.70	0.045
658.89	0.045
659.08	0.045
659.27	0.046
659.46	0.046
659.65	0.046
659.84	0.046
660.03	0.046
660.22	0.046
660.41	0.046
660.60	0.045
660.79	0.045
660.98	0.045
661.17	0.045
661.36	0.045
661.55	0.045
661.74	0.045
661.92	0.045
662.11	0.045
662.30	0.045
662.49	0.045
662.68	0.046
662.87	0.046
663.06	0.046
663.25	0.046
663.44	0.046
663.63	0.046
663.82	0.046
664.01	0.046
664.20	0.046
664.38	0.046
664.57	0.046
664.76	0.045
664.95	0.045
665.14	0.045
665.33	0.045
665.52	0.045
665.71	0.045
665.90	0.045
666.09	0.045
666.28	0.044
666.46	0.045
666.65	0.045
666.84	0.046
667.03	0.046
667.22	0.046
667.41	0.046
667.60	0.046
667.79	0.046
667.98	0.046
668.16	0.045
668.35	0.046
668.54	0.045
668.73	0.045
668.92	0.044
669.11	0.044
669.30	0.044
669.49	0.045
669.67	0.044
669.86	0.045
670.05	0.044
670.24	0.044
670.43	0.044
670.62	0.044
670.81	0.044
671.00	0.044
671.18	0.044
671.37	0.044
671.56	0.044
671.75	0.044
671.94	0.044
672.13	0.044
672.32	0.044
672.50	0.044
672.69	0.044
672.88	0.044
673.07	0.044
673.26	0.044
673.45	0.044
673.63	0.044
673.82	0.044
674.01	0.044
674.20	0.043
674.39	0.043
674.58	0.043
674.76	0.043
674.95	0.043
675.14	0.044
675.33	0.043
675.52	0.043
675.71	0.043
675.89	0.043
676.08	0.043
676.27	0.043
676.46	0.043
676.65	0.043
676.84	0.043
677.02	0.043
677.21	0.043
677.40	0.043
677.59	0.043
677.78	0.044
677.96	0.044
678.15	0.044
678.34	0.044
678.53	0.043
678.72	0.043
678.90	0.043
679.09	0.043
679.28	0.043
679.47	0.043
679.66	0.043
679.84	0.042
680.03	0.043
680.22	0.043
680.41	0.043
680.60	0.043
680.78	0.043
680.97	0.043
681.16	0.043
681.35	0.043
681.53	0.043
681.72	0.043
681.91	0.043
682.10	0.043
682.29	0.043
682.47	0.042
682.66	0.042
682.85	0.042
683.04	0.042
683.22	0.041
683.41	0.042
683.60	0.042
683.79	0.041
683.97	0.041
684.16	0.041
684.35	0.041
684.54	0.041
684.72	0.040
684.91	0.041
685.10	0.041
685.29	0.041
685.47	0.040
685.66	0.040
685.85	0.040
686.04	0.040
686.22	0.040
686.41	0.040
686.60	0.040
686.79	0.040
686.97	0.040
687.16	0.040
687.35	0.040
687.54	0.040
687.72	0.040
687.91	0.040
688.10	0.040
688.29	0.040
688.47	0.040
688.66	0.041
688.85	0.041
689.03	0.040
689.22	0.040
689.41	0.041
689.60	0.041
689.78	0.041
689.97	0.041
690.16	0.041
690.34	0.042
690.53	0.042
690.72	0.041
690.91	0.042
691.09	0.042
691.28	0.042
691.47	0.041
691.65	0.041
691.84	0.041
692.03	0.041
692.21	0.041
692.40	0.040
692.59	0.040
692.77	0.040
692.96	0.040
693.15	0.040
693.34	0.040
693.52	0.040
693.71	0.040
693.90	0.040
694.08	0.039
694.27	0.039
694.46	0.039
694.64	0.039
694.83	0.039
695.02	0.039
695.20	0.039
695.39	0.039
695.58	0.039
695.76	0.039
695.95	0.038
696.14	0.039
696.32	0.038
696.51	0.039
696.70	0.038
696.88	0.038
697.07	0.037
697.26	0.037
697.44	0.037
697.63	0.037
697.81	0.037
698.00	0.037
698.19	0.037
698.37	0.038
698.56	0.038
698.75	0.038
698.93	0.039
699.12	0.039
699.31	0.039
699.49	0.039
699.68	0.039
699.87	0.039
700.05	0.038
700.24	0.038
700.42	0.038
700.61	0.038
700.80	0.038
700.98	0.038
701.17	0.039
701.36	0.039
701.54	0.039
701.73	0.039
701.91	0.039
702.10	0.039
702.29	0.039
702.47	0.039
702.66	0.040
702.84	0.040
703.03	0.039
703.22	0.039
703.40	0.038
703.59	0.038
703.77	0.038
703.96	0.039
704.15	0.039
704.33	0.039
704.52	0.039
704.70	0.039
704.89	0.038
705.08	0.038
705.26	0.038
705.45	0.039
705.63	0.038
705.82	0.038
706.00	0.038
706.19	0.038
706.38	0.038
706.56	0.038
706.75	0.038
706.93	0.038
707.12	0.038
707.30	0.037
707.49	0.037
707.68	0.038
707.86	0.037
708.05	0.037
708.23	0.037
708.42	0.037
708.60	0.037
708.79	0.036
708.98	0.036
709.16	0.036
709.35	0.036
709.53	0.036
709.72	0.036
709.90	0.036
710.09	0.036
710.27	0.036
710.46	0.036
710.64	0.036
710.83	0.037
711.02	0.037
711.20	0.037
711.39	0.037
711.57	0.037
711.76	0.037
711.94	0.037
712.13	0.037
712.31	0.037
712.50	0.037
712.68	0.037
712.87	0.037
713.05	0.036
713.24	0.037
713.42	0.037
713.61	0.037
713.79	0.036
713.98	0.037
714.16	0.037
714.35	0.037
714.54	0.037
714.72	0.038
714.91	0.037
715.09	0.037
715.28	0.037
715.46	0.037
715.65	0.037
715.83	0.037
716.02	0.037
716.20	0.037
716.39	0.037
716.57	0.037
716.76	0.036
716.94	0.036
717.12	0.036
717.31	0.036
717.49	0.036
717.68	0.036
717.86	0.036
718.05	0.036
718.23	0.036
718.42	0.036
718.60	0.035
718.79	0.036
718.97	0.036
719.16	0.036
719.34	0.035
719.53	0.035
719.71	0.035
719.90	0.035
720.08	0.034
720.27	0.035
720.45	0.034
720.63	0.035
720.82	0.034
721.00	0.035
721.19	0.034
721.37	0.035
721.56	0.034
721.74	0.034
721.93	0.034
722.11	0.034
722.30	0.033
722.48	0.034
722.66	0.034
722.85	0.033
723.03	0.033
723.22	0.032
723.40	0.032
723.59	0.033
723.77	0.032
723.95	0.032
724.14	0.032
724.32	0.032
724.51	0.031
724.69	0.031
724.88	0.031
725.06	0.031
725.24	0.032
725.43	0.032
725.61	0.031
725.80	0.032
725.98	0.031
726.16	0.032
726.35	0.032
726.53	0.032
726.72	0.032
726.90	0.032
727.09	0.031
727.27	0.031
727.45	0.031
727.64	0.030
727.82	0.030
728.01	0.030
728.19	0.029
728.37	0.029
728.56	0.028
728.74	0.028
728.92	0.028
729.11	0.028
729.29	0.028
729.48	0.028
729.66	0.028
729.84	0.028
730.03	0.028
730.21	0.028
730.40	0.028
730.58	0.028
730.76	0.028
730.95	0.028
731.13	0.028
731.31	0.028
731.50	0.027
731.68	0.027
731.86	0.027
732.05	0.027
732.23	0.026
732.42	0.026
732.60	0.026
732.78	0.026
732.97	0.025
733.15	0.025
733.33	0.024
733.52	0.024
733.70	0.023
733.88	0.023
734.07	0.023
734.25	0.023
734.43	0.023
734.62	0.023
734.80	0.023
734.98	0.023
735.17	0.023
735.35	0.023
735.53	0.023
735.72	0.023
735.90	0.022
736.08	0.023
736.27	0.024
736.45	0.024
736.63	0.024
736.82	0.024
737.00	0.024
737.18	0.025
737.37	0.024
737.55	0.024
737.73	0.023
737.92	0.023
738.10	0.023
738.28	0.023
738.46	0.023
738.65	0.022
738.83	0.023
739.01	0.023
739.20	0.024
739.38	0.024
739.56	0.026
739.75	0.027
739.93	0.029
740.11	0.029
740.29	0.029
740.48	0.030
740.66	0.031
740.84	0.032
741.03	0.033
741.21	0.033
741.39	0.035
741.57	0.036
741.76	0.037
741.94	0.038
742.12	0.040
742.31	0.042
742.49	0.043
742.67	0.044
742.85	0.043
743.04	0.044
743.22	0.044
743.40	0.042
743.58	0.043
743.77	0.044
743.95	0.045
744.13	0.044
744.31	0.044
744.50	0.043
744.68	0.043
744.86	0.042
745.04	0.041
745.23	0.041
745.41	0.043
745.59	0.042
745.77	0.042
745.96	0.042
746.14	0.043
746.32	0.046
746.50	0.045
746.69	0.048
746.87	0.050
747.05	0.051
747.23	0.054
747.42	0.056
747.60	0.055
747.78	0.056
747.96	0.052
748.14	0.054
748.33	0.052
748.51	0.052
748.69	0.053
748.87	0.053
749.06	0.054
749.24	0.050
749.42	0.049
749.60	0.049
749.78	0.048
749.97	0.051
750.15	0.051
750.33	0.051
750.51	0.050
750.69	0.048
750.88	0.045
751.06	0.045
751.24	0.045
751.42	0.046
751.60	0.046
751.79	0.043
751.97	0.044
752.15	0.043
752.33	0.043
752.51	0.041
752.69	0.043
752.88	0.044
753.06	0.041
753.24	0.042
753.42	0.040
753.60	0.036
753.78	0.038
753.97	0.036
754.15	0.037
754.33	0.035
754.51	0.037
754.69	0.036
754.87	0.033
755.06	0.036
755.24	0.035
755.42	0.035
755.60	0.037
755.78	0.034
755.96	0.033
756.15	0.032
756.33	0.032
756.51	0.030
756.69	0.031
756.87	0.032
757.05	0.031
757.23	0.031
757.42	0.031
757.60	0.031
757.78	0.033
757.96	0.034
758.14	0.033
758.32	0.034
758.50	0.033
758.69	0.032
758.87	0.032
759.05	0.033
759.23	0.032
759.41	0.032
759.59	0.033
759.77	0.033
759.95	0.032
760.13	0.032
760.32	0.032
760.50	0.033
760.68	0.032
760.86	0.033
761.04	0.032
761.22	0.034
761.40	0.032
761.58	0.030
761.76	0.029
761.95	0.028
762.13	0.029
762.31	0.028
762.49	0.028
762.67	0.027
762.85	0.027
763.03	0.028
763.21	0.027
763.39	0.027
763.57	0.027
763.75	0.028
763.94	0.029
764.12	0.028
764.30	0.026
764.48	0.027
764.66	0.029
764.84	0.027
765.02	0.025
765.20	0.025
765.38	0.026
765.56	0.026
765.74	0.025
765.92	0.025
766.10	0.026
766.28	0.027
766.46	0.026
766.65	0.025
766.83	0.025
767.01	0.026
767.19	0.026
767.37	0.027
767.55	0.027
767.73	0.028
767.91	0.028
768.09	0.029
768.27	0.028
768.45	0.029
768.63	0.029
768.81	0.030
768.99	0.030
769.17	0.030
769.35	0.029
769.53	0.029
769.71	0.029
769.89	0.028
770.07	0.029
770.25	0.031
770.43	0.033
770.61	0.032
770.79	0.031
770.97	0.031
771.15	0.032
771.33	0.033
771.51	0.034
771.69	0.035
771.87	0.035
772.05	0.034
772.24	0.032
772.42	0.031
772.60	0.032
772.78	0.034
772.96	0.033
773.14	0.034
773.32	0.034
773.49	0.034
773.67	0.033
773.85	0.034
774.03	0.034
774.21	0.034
774.39	0.034
774.57	0.033
774.75	0.032
774.93	0.033
775.11	0.032
775.29	0.031
775.47	0.031
775.65	0.031
775.83	0.032
776.01	0.031
776.19	0.033
776.37	0.033
776.55	0.034
776.73	0.034
776.91	0.034
777.09	0.034
777.27	0.036
777.45	0.037
777.63	0.036
777.81	0.036
777.99	0.035
778.17	0.036
778.35	0.036
778.53	0.037
778.71	0.036
778.89	0.036
779.07	0.036
779.24	0.035
779.42	0.033
779.60	0.032
779.78	0.030
779.96	0.029
780.14	0.029
780.32	0.027
780.50	0.026
780.68	0.027
780.86	0.027
781.04	0.027
781.22	0.025
781.40	0.026
781.58	0.027
781.75	0.029
781.93	0.028
782.11	0.028
782.29	0.028
782.47	0.028
782.65	0.027
782.83	0.027
783.01	0.028
783.19	0.029
783.37	0.029
783.55	0.029
783.72	0.028
783.90	0.028
784.08	0.028
784.26	0.029
784.44	0.027
784.62	0.029
784.80	0.028
784.98	0.027
785.16	0.028
785.33	0.028
785.51	0.029
785.69	0.030
785.87	0.031
786.05	0.031
786.23	0.030
786.41	0.031
786.59	0.030
786.77	0.030
786.94	0.030
787.12	0.028
787.30	0.028
787.48	0.027
787.66	0.027
787.84	0.026
788.02	0.026
788.19	0.027
788.37	0.026
788.55	0.026
788.73	0.026
788.91	0.027
789.09	0.027
789.27	0.027
789.44	0.028
789.62	0.028
789.80	0.028
789.98	0.027
790.16	0.027
790.34	0.027
790.51	0.027
790.69	0.028
790.87	0.027
791.05	0.028
791.23	0.028
791.41	0.027
791.58	0.026
791.76	0.028
791.94	0.028
792.12	0.028
792.30	0.027
792.48	0.027
792.65	0.027
792.83	0.027
793.01	0.026
793.19	0.027
793.37	0.026
793.54	0.027
793.72	0.025
793.90	0.025
794.08	0.026
794.26	0.027
794.43	0.027
794.61	0.027
794.79	0.026
794.97	0.027
795.15	0.027
795.32	0.027
795.50	0.028
795.68	0.029
795.86	0.029
796.04	0.028
796.21	0.028
796.39	0.028
796.57	0.027
796.75	0.028
796.92	0.028
797.10	0.028
797.28	0.028
797.46	0.028
797.64	0.028
797.81	0.028
797.99	0.028
798.17	0.028
798.35	0.029
798.52	0.029
798.70	0.028
798.88	0.029
799.06	0.028
799.23	0.028
799.41	0.027
799.59	0.027
799.77	0.026
799.94	0.027
800.12	0.026
800.30	0.026
800.48	0.025
800.65	0.026
800.83	0.025
801.01	0.027
801.19	0.026
801.36	0.027
801.54	0.026
801.72	0.027
801.90	0.026
802.07	0.026
802.25	0.026
802.43	0.027
802.60	0.026
802.78	0.027
802.96	0.026
803.14	0.028
803.31	0.029
803.49	0.029
803.67	0.029
803.84	0.029
804.02	0.030
804.20	0.030
804.38	0.029
804.55	0.031
804.73	0.031
804.91	0.031
805.08	0.028
805.26	0.028
805.44	0.026
805.61	0.027
805.79	0.027
805.97	0.027
806.15	0.026
806.32	0.027
806.50	0.027
806.68	0.028
806.85	0.026
807.03	0.028
807.21	0.026
807.38	0.028
807.56	0.027
807.74	0.027
807.91	0.027
808.09	0.028
808.27	0.027
808.44	0.026
808.62	0.026
808.80	0.028
808.97	0.027
809.15	0.028
809.33	0.026
809.50	0.028
809.68	0.028
809.86	0.029
810.03	0.027
810.21	0.028
810.39	0.028
810.56	0.028
810.74	0.028
810.91	0.027
811.09	0.027
811.27	0.029
811.44	0.028
811.62	0.029
811.80	0.028
811.97	0.029
812.15	0.029
812.33	0.029
812.50	0.030
812.68	0.029
812.85	0.030
813.03	0.031
813.21	0.030
813.38	0.031
813.56	0.030
813.74	0.029
813.91	0.029
814.09	0.028
814.26	0.028
814.44	0.028
814.62	0.028
814.79	0.028
814.97	0.028
815.14	0.029
815.32	0.026
815.50	0.026
815.67	0.027
815.85	0.029
816.02	0.028
816.20	0.029
816.38	0.029
816.55	0.030
816.73	0.028
816.90	0.028
817.08	0.026
817.26	0.030
817.43	0.031
817.61	0.030
817.78	0.029
817.96	0.032
818.13	0.032
818.31	0.032
818.49	0.031
818.66	0.034
818.84	0.034
819.01	0.036
819.19	0.037
819.36	0.038
819.54	0.039
819.71	0.039
819.89	0.038
820.07	0.039
820.24	0.038
820.42	0.041
820.59	0.040
820.77	0.041
820.94	0.040
821.12	0.040
821.29	0.039
821.47	0.041
821.64	0.042
821.82	0.043
822.00	0.044
822.17	0.046
822.35	0.046
822.52	0.047
822.70	0.050
822.87	0.051
823.05	0.052
823.22	0.053
823.40	0.054
823.57	0.054
823.75	0.056
823.92	0.057
824.10	0.058
824.27	0.058
824.45	0.059
824.62	0.058
824.80	0.058
824.97	0.061
825.15	0.061
825.32	0.062
825.50	0.062
825.67	0.063
825.85	0.063
826.02	0.065
826.20	0.065
826.37	0.062
826.55	0.067
826.72	0.066
826.90	0.065
827.07	0.067
827.25	0.069
827.42	0.072
827.60	0.073
827.77	0.076
827.95	0.080
828.12	0.085
828.30	0.094
828.47	0.092
828.65	0.100
828.82	0.108
829.00	0.115
829.17	0.121
829.34	0.126
829.52	0.132
829.69	0.130
829.87	0.136
830.04	0.139
830.22	0.142
830.39	0.150
830.57	0.159
830.74	0.158
830.92	0.161
831.09	0.159
831.26	0.168
831.44	0.171
831.61	0.191
831.79	0.191
831.96	0.196
832.14	0.213
832.31	0.214
832.49	0.215
832.66	0.227
832.83	0.248
833.01	0.266
833.18	0.283
833.36	0.284
833.53	0.280
833.70	0.279
833.88	0.293
834.05	0.277
834.23	0.300
834.40	0.300
834.58	0.291
834.75	0.275
834.92	0.264
835.10	0.258
835.27	0.273
835.45	0.283
835.62	0.293
835.79	0.287
835.97	0.295
836.14	0.297
836.32	0.311
836.49	0.338
836.66	0.339
836.84	0.344
837.01	0.335
837.18	0.328
837.36	0.352
837.53	0.354
837.71	0.375
837.88	0.394
838.05	0.364
838.23	0.368
838.40	0.367
838.58	0.389
838.75	0.402
838.92	0.437
839.10	0.459
839.27	0.438
839.44	0.447
839.62	0.430
839.79	0.404
839.96	0.430
840.14	0.415
840.31	0.423
840.48	0.440
840.66	0.458
840.83	0.424
841.01	0.428
841.18	0.470
841.35	0.447
841.53	0.473
841.70	0.480
841.87	0.494
842.05	0.522
842.22	0.490
842.39	0.462
842.57	0.502
842.74	0.517
842.91	0.496
843.09	0.459
843.26	0.464
843.43	0.482
843.60	0.512
843.78	0.501
843.95	0.510
844.12	0.567
844.30	0.581
844.47	0.569
844.64	0.578
844.82	0.618
844.99	0.619
845.16	0.630
845.34	0.676
845.51	0.675
845.68	0.695
845.85	0.673
846.03	0.626
846.20	0.692
846.37	0.733
846.55	0.717
846.72	0.686
846.89	0.721
847.06	0.725
847.24	0.743
847.41	0.728
847.58	0.734
847.76	0.732
847.93	0.682
848.10	0.669
848.27	0.643
848.45	0.781
848.62	0.771
848.79	0.863
848.97	1.084
849.14	0.803
849.31	0.871
849.48	1.127
849.66	1.511
849.83	1.444
850.00	1.116
850.17	0.892
850.35	0.739
850.52	0.814
850.69	0.761
850.86	0.671
851.04	0.697
851.21	0.755
851.38	0.662
851.55	0.681
851.72	0.703
851.90	0.738
852.07	0.767
852.24	0.908
852.41	0.809
852.59	0.754
852.76	0.748
852.93	0.751
853.10	0.634
853.28	0.736
853.45	0.648
853.62	0.698
853.79	0.692
853.96	0.769
854.14	0.720
854.31	0.846
854.48	0.925
854.65	0.948
854.82	1.087
855.00	1.991
855.17	1.143
855.34	1.298
855.51	1.429
855.68	-0.000
855.86	1.655
856.03	1.854
856.20	1.354
856.37	1.384
856.54	2.581
856.72	1.896
856.89	-0.000
857.06	-0.000
857.23	-0.000
857.40	-0.000
857.57	-0.000
857.75	-0.000
857.92	-0.000
858.09	-0.000
858.26	-0.000
858.43	-0.000
858.60	-0.000
858.78	-0.000
858.95	-0.000
859.12	-0.000
859.29	-0.000
859.46	-0.000
859.63	-0.000
859.81	-0.000
859.98	-0.000
860.15	-0.000
860.32	-0.000
860.49	-0.000
860.66	-0.000
860.83	-0.000
861.01	-0.000
861.18	-0.000
861.35	-0.000
861.52	-0.000
861.69	-0.000
861.86	-0.000
862.03	-0.000
862.21	-0.000
862.38	-0.000
862.55	-0.000
862.72	-0.000
862.89	-0.000
863.06	-0.000
863.23	-0.000
863.40	-0.000
863.58	-0.000
863.75	-0.000
863.92	-0.000
864.09	-0.000
864.26	-0.000
864.43	-0.000
864.60	-0.000
864.77	-0.000
864.94	-0.000
865.11	-0.000
865.29	-0.000
865.46	-0.000
865.63	-0.000
865.80	-0.000
865.97	-0.000
866.14	-0.000
866.31	-0.000
866.48	-0.000
866.65	-0.000
866.82	-0.000
866.99	-0.000
867.16	-0.000
867.34	-0.000
867.51	-0.000
867.68	-0.000
867.85	-0.000
868.02	-0.000
868.19	-0.000
868.36	-0.000
868.53	-0.000
868.70	-0.000
868.87	-0.000
869.04	-0.000
869.21	-0.000
869.38	-0.000
869.55	-0.000
869.72	-0.000
869.89	-0.000
870.06	-0.000
870.24	-0.000
870.41	-0.000
870.58	-0.000
870.75	-0.000
870.92	-0.000
871.09	-0.000
871.26	-0.000
871.43	-0.000
871.60	-0.000
871.77	-0.000
871.94	-0.000
872.11	-0.000
872.28	-0.000
872.45	-0.000
872.62	-0.000
872.79	-0.000
872.96	-0.000
873.13	-0.000
873.30	-0.000
873.47	-0.000
873.64	-0.000
873.81	-0.000
873.98	-0.000
874.15	-0.000
874.32	-0.000
874.49	-0.000
874.66	-0.000
874.83	-0.000
875.00	-0.000
875.17	-0.000
875.34	-0.000
875.51	-0.000
875.68	-0.000
875.85	-0.000
876.02	-0.000
876.19	-0.000
876.36	-0.000
876.53	-0.000
876.70	-0.000
876.87	-0.000
877.04	-0.000
877.21	-0.000
877.38	-0.000
877.55	-0.000
877.72	-0.000
877.89	-0.000
878.06	-0.000
878.23	-0.000
878.39	-0.000
878.56	-0.000
878.73	-0.000
878.90	-0.000
879.07	-0.000
879.24	-0.000
879.41	-0.000
879.58	-0.000
879.75	-0.000
879.92	-0.000
880.09	-0.000
880.26	-0.000
880.43	-0.000
880.60	-0.000
880.77	-0.000
880.94	-0.000
881.11	-0.000
881.27	-0.000
881.44	-0.000
881.61	-0.000
881.78	-0.000
881.95	-0.000
882.12	-0.000
882.29	-0.000
882.46	-0.000
882.63	-0.000
882.80	-0.000
882.97	-0.000
883.14	-0.000
883.30	-0.000
883.47	-0.000
883.64	-0.000
883.81	-0.000
883.98	-0.000
884.15	-0.000
884.32	-0.000
884.49	-0.000
884.66	-0.000
884.82	-0.000
884.99	-0.000
885.16	-0.000
885.33	-0.000
885.50	-0.000
885.67	-0.000
885.84	-0.000
886.01	-0.000
886.17	-0.000
886.34	-0.000
886.51	-0.000
886.68	-0.000
886.85	-0.000
887.02	-0.000
887.19	-0.000
887.36	-0.000
887.52	-0.000
887.69	-0.000
887.86	-0.000
888.03	-0.000
888.20	-0.000
888.37	-0.000
888.54	-0.000
888.70	-0.000
888.87	-0.000
889.04	-0.000
889.21	-0.000
889.38	-0.000
889.55	-0.000
889.71	-0.000
889.88	-0.000
890.05	-0.000
890.22	-0.000
890.39	-0.000
>>>>>End Processed Spectral Data<<<<<
