SpectraSuite Data File
++++++++++++++++++++++++++++++++++++
Date: Fri Jun 19 13:17:53 CEST 2015
User: introlabs
Dark Spectrum Present: Yes
Reference Spectrum Present: Yes
Number of Sampled Component Spectra: 1
Spectrometers: USB4H08886
Integration Time (usec): 745692 (USB4H08886)
Spectra Averaged: 5 (USB4H08886)
Boxcar Smoothing: 5 (USB4H08886)
Correct for Electrical Dark: Yes (USB4H08886)
Strobe/Lamp Enabled: No (USB4H08886)
Correct for Detector Non-linearity: Yes (USB4H08886)
Correct for Stray Light: Yes (USB4H08886)
Number of Pixels in Processed Spectrum: 3648
>>>>>Begin Processed Spectral Data<<<<<
178.14	-0.000
178.36	-0.000
178.57	-0.000
178.79	-0.000
179.01	-0.000
179.22	-0.000
179.44	-0.000
179.65	-0.000
179.87	-0.000
180.08	-0.000
180.30	-0.000
180.52	-0.000
180.73	-0.000
180.95	-0.000
181.16	-0.000
181.38	-0.000
181.59	-0.000
181.81	-0.000
182.03	-0.000
182.24	-0.000
182.46	-0.000
182.67	-0.000
182.89	-0.000
183.10	-0.000
183.32	-0.000
183.54	-0.000
183.75	-0.000
183.97	-0.000
184.18	-0.000
184.40	-0.000
184.61	-0.000
184.83	-0.000
185.04	-0.000
185.26	-0.000
185.48	-0.000
185.69	-0.000
185.91	-0.000
186.12	-0.000
186.34	-0.000
186.55	-0.000
186.77	-0.000
186.98	-0.000
187.20	-0.000
187.42	-0.000
187.63	-0.000
187.85	-0.000
188.06	-0.000
188.28	-0.000
188.49	-0.000
188.71	-0.000
188.92	-0.000
189.14	-0.000
189.36	-0.000
189.57	-0.000
189.79	-0.000
190.00	-0.000
190.22	-0.000
190.43	-0.000
190.65	-0.000
190.86	-0.000
191.08	-0.000
191.29	-0.000
191.51	-0.000
191.72	-0.000
191.94	-0.000
192.16	-0.000
192.37	-0.000
192.59	-0.000
192.80	-0.000
193.02	-0.000
193.23	-0.000
193.45	-0.000
193.66	-0.000
193.88	-0.000
194.09	-0.000
194.31	-0.000
194.52	-0.000
194.74	-0.000
194.95	-0.000
195.17	-0.000
195.38	-0.000
195.60	-0.000
195.81	-0.000
196.03	-0.000
196.25	-0.000
196.46	-0.000
196.68	-0.000
196.89	-0.000
197.11	-0.000
197.32	-0.000
197.54	-0.000
197.75	-0.000
197.97	-0.000
198.18	-0.000
198.40	-0.000
198.61	-0.000
198.83	-0.000
199.04	-0.000
199.26	-0.000
199.47	-0.000
199.69	-0.000
199.90	-0.000
200.12	-0.000
200.33	-0.000
200.55	-0.000
200.76	-0.000
200.98	-0.000
201.19	-0.000
201.41	-0.000
201.62	-0.000
201.84	-0.000
202.05	-0.000
202.27	-0.000
202.48	-0.000
202.70	-0.000
202.91	-0.000
203.13	-0.000
203.34	-0.000
203.56	-0.000
203.77	-0.000
203.99	-0.000
204.20	-0.000
204.42	-0.000
204.63	-0.000
204.85	-0.000
205.06	-0.000
205.28	-0.000
205.49	-0.000
205.71	-0.000
205.92	-0.000
206.14	-0.000
206.35	-0.000
206.56	-0.000
206.78	-0.000
206.99	-0.000
207.21	-0.000
207.42	-0.000
207.64	-0.000
207.85	-0.000
208.07	-0.000
208.28	-0.000
208.50	-0.000
208.71	-0.000
208.93	-0.000
209.14	-0.000
209.36	-0.000
209.57	-0.000
209.79	-0.000
210.00	-0.000
210.22	-0.000
210.43	-0.000
210.64	-0.000
210.86	-0.000
211.07	-0.000
211.29	-0.000
211.50	-0.000
211.72	-0.000
211.93	-0.000
212.15	-0.000
212.36	-0.000
212.58	-0.000
212.79	-0.000
213.01	-0.000
213.22	-0.000
213.43	-0.000
213.65	-0.000
213.86	-0.000
214.08	-0.000
214.29	-0.000
214.51	-0.000
214.72	-0.000
214.94	-0.000
215.15	-0.000
215.36	-0.000
215.58	-0.000
215.79	-0.000
216.01	-0.000
216.22	-0.000
216.44	-0.000
216.65	-0.000
216.87	-0.000
217.08	-0.000
217.29	-0.000
217.51	-0.000
217.72	-0.000
217.94	-0.000
218.15	-0.000
218.37	-0.000
218.58	-0.000
218.80	-0.000
219.01	-0.000
219.22	-0.000
219.44	-0.000
219.65	-0.000
219.87	-0.000
220.08	-0.000
220.30	-0.000
220.51	-0.000
220.72	-0.000
220.94	-0.000
221.15	-0.000
221.37	-0.000
221.58	-0.000
221.79	-0.000
222.01	-0.000
222.22	-0.000
222.44	-0.000
222.65	-0.000
222.87	-0.000
223.08	-0.000
223.29	-0.000
223.51	-0.000
223.72	-0.000
223.94	-0.000
224.15	-0.000
224.36	-0.000
224.58	-0.000
224.79	-0.000
225.01	-0.000
225.22	-0.000
225.44	-0.000
225.65	-0.000
225.86	-0.000
226.08	-0.000
226.29	-0.000
226.51	-0.000
226.72	-0.000
226.93	-0.000
227.15	-0.000
227.36	-0.000
227.58	-0.000
227.79	-0.000
228.00	-0.000
228.22	-0.000
228.43	-0.000
228.65	-0.000
228.86	-0.000
229.07	-0.000
229.29	-0.000
229.50	-0.000
229.72	-0.000
229.93	-0.000
230.14	-0.000
230.36	-0.000
230.57	-0.000
230.78	-0.000
231.00	-0.000
231.21	-0.000
231.43	-0.000
231.64	-0.000
231.85	-0.000
232.07	-0.000
232.28	-0.000
232.50	-0.000
232.71	-0.000
232.92	-0.000
233.14	-0.000
233.35	-0.000
233.56	-0.000
233.78	-0.000
233.99	-0.000
234.21	-0.000
234.42	-0.000
234.63	-0.000
234.85	-0.000
235.06	-0.000
235.27	-0.000
235.49	-0.000
235.70	-0.000
235.91	-0.000
236.13	-0.000
236.34	-0.000
236.56	-0.000
236.77	-0.000
236.98	-0.000
237.20	-0.000
237.41	-0.000
237.62	-0.000
237.84	-0.000
238.05	-0.000
238.26	-0.000
238.48	-0.000
238.69	-0.000
238.91	-0.000
239.12	-0.000
239.33	-0.000
239.55	-0.000
239.76	-0.000
239.97	-0.000
240.19	-0.000
240.40	-0.000
240.61	-0.000
240.83	-0.000
241.04	-0.000
241.25	-0.000
241.47	-0.000
241.68	-0.000
241.89	-0.000
242.11	-0.000
242.32	-0.000
242.53	-0.000
242.75	-0.000
242.96	-0.000
243.17	-0.000
243.39	-0.000
243.60	-0.000
243.81	-0.000
244.03	-0.000
244.24	-0.000
244.45	-0.000
244.67	-0.000
244.88	-0.000
245.09	-0.000
245.31	-0.000
245.52	-0.000
245.73	-0.000
245.95	-0.000
246.16	-0.000
246.37	-0.000
246.59	-0.000
246.80	-0.000
247.01	-0.000
247.23	-0.000
247.44	-0.000
247.65	-0.000
247.87	-0.000
248.08	-0.000
248.29	-0.000
248.51	-0.000
248.72	-0.000
248.93	-0.000
249.15	-0.000
249.36	-0.000
249.57	-0.000
249.78	-0.000
250.00	-0.000
250.21	-0.000
250.42	-0.000
250.64	-0.000
250.85	-0.000
251.06	-0.000
251.28	-0.000
251.49	-0.000
251.70	-0.000
251.92	-0.000
252.13	-0.000
252.34	-0.000
252.55	-0.000
252.77	-0.000
252.98	-0.000
253.19	-0.000
253.41	-0.000
253.62	-0.000
253.83	-0.000
254.05	-0.000
254.26	-0.000
254.47	-0.000
254.68	-0.000
254.90	-0.000
255.11	-0.000
255.32	-0.000
255.54	-0.000
255.75	-0.000
255.96	-0.000
256.17	-0.000
256.39	-0.000
256.60	-0.000
256.81	-0.000
257.03	-0.000
257.24	-0.000
257.45	-0.000
257.66	-0.000
257.88	-0.000
258.09	-0.000
258.30	-0.000
258.51	-0.000
258.73	-0.000
258.94	-0.000
259.15	-0.000
259.37	-0.000
259.58	-0.000
259.79	-0.000
260.00	-0.000
260.22	-0.000
260.43	-0.000
260.64	-0.000
260.85	-0.000
261.07	-0.000
261.28	-0.000
261.49	-0.000
261.71	-0.000
261.92	-0.000
262.13	-0.000
262.34	-0.000
262.56	-0.000
262.77	-0.000
262.98	-0.000
263.19	-0.000
263.41	-0.000
263.62	-0.000
263.83	-0.000
264.04	-0.000
264.26	-0.000
264.47	-0.000
264.68	-0.000
264.89	-0.000
265.11	-0.000
265.32	-0.000
265.53	-0.000
265.74	-0.000
265.96	-0.000
266.17	-0.000
266.38	-0.000
266.59	-0.000
266.81	-0.000
267.02	-0.000
267.23	-0.000
267.44	-0.000
267.65	-0.000
267.87	-0.000
268.08	-0.000
268.29	-0.000
268.50	-0.000
268.72	-0.000
268.93	-0.000
269.14	-0.000
269.35	-0.000
269.57	-0.000
269.78	-0.000
269.99	-0.000
270.20	-0.000
270.41	-0.000
270.63	-0.000
270.84	-0.000
271.05	-0.000
271.26	-0.000
271.48	-0.000
271.69	-0.000
271.90	-0.000
272.11	-0.000
272.32	-0.000
272.54	-0.000
272.75	-0.000
272.96	-0.000
273.17	-0.000
273.39	-0.000
273.60	-0.000
273.81	-0.000
274.02	-0.000
274.23	-0.000
274.45	-0.000
274.66	-0.000
274.87	-0.000
275.08	-0.000
275.29	-0.000
275.51	-0.000
275.72	-0.000
275.93	-0.000
276.14	-0.000
276.35	-0.000
276.57	-0.000
276.78	-0.000
276.99	-0.000
277.20	-0.000
277.41	-0.000
277.63	-0.000
277.84	-0.000
278.05	-0.000
278.26	-0.000
278.47	-0.000
278.69	-0.000
278.90	-0.000
279.11	-0.000
279.32	-0.000
279.53	-0.000
279.74	-0.000
279.96	-0.000
280.17	-0.000
280.38	-0.000
280.59	-0.000
280.80	-0.000
281.02	-0.000
281.23	-0.000
281.44	-0.000
281.65	-0.000
281.86	-0.000
282.07	-0.000
282.29	-0.000
282.50	-0.000
282.71	-0.000
282.92	-0.000
283.13	-0.000
283.35	-0.000
283.56	-0.000
283.77	-0.000
283.98	-0.000
284.19	-0.000
284.40	-0.000
284.62	-0.000
284.83	-0.000
285.04	-0.000
285.25	-0.000
285.46	-0.000
285.67	-0.000
285.88	-0.000
286.10	-0.000
286.31	-0.000
286.52	-0.000
286.73	-0.000
286.94	-0.000
287.15	-0.000
287.37	-0.000
287.58	-0.000
287.79	-0.000
288.00	-0.000
288.21	-0.000
288.42	-0.000
288.63	-0.000
288.85	-0.000
289.06	-0.000
289.27	-0.000
289.48	-0.000
289.69	-0.000
289.90	-0.000
290.11	-0.000
290.33	-0.000
290.54	-0.000
290.75	-0.000
290.96	-0.000
291.17	-0.000
291.38	-0.000
291.59	-0.000
291.81	-0.000
292.02	-0.000
292.23	-0.000
292.44	-0.000
292.65	-0.000
292.86	-0.000
293.07	-0.000
293.28	-0.000
293.50	-0.000
293.71	-0.000
293.92	-0.000
294.13	-0.000
294.34	-0.000
294.55	-0.000
294.76	-0.000
294.97	-0.000
295.19	-0.000
295.40	-0.000
295.61	-0.000
295.82	-0.000
296.03	-0.000
296.24	-0.000
296.45	-0.000
296.66	-0.000
296.87	-0.000
297.09	-0.000
297.30	-0.000
297.51	2.637
297.72	2.356
297.93	-0.000
298.14	2.875
298.35	2.430
298.56	2.315
298.77	-0.000
298.99	3.185
299.20	2.662
299.41	2.396
299.62	2.207
299.83	2.194
300.04	1.985
300.25	1.963
300.46	2.087
300.67	2.006
300.88	1.863
301.10	1.869
301.31	2.026
301.52	1.855
301.73	1.747
301.94	1.751
302.15	1.780
302.36	1.695
302.57	1.586
302.78	1.595
302.99	1.657
303.20	1.684
303.41	1.540
303.63	1.518
303.84	1.544
304.05	1.536
304.26	1.447
304.47	1.458
304.68	1.467
304.89	1.455
305.10	1.396
305.31	1.379
305.52	1.434
305.73	1.427
305.94	1.376
306.15	1.364
306.37	1.393
306.58	1.406
306.79	1.362
307.00	1.389
307.21	1.444
307.42	1.432
307.63	1.385
307.84	1.345
308.05	1.392
308.26	1.388
308.47	1.352
308.68	1.344
308.89	1.343
309.10	1.336
309.31	1.286
309.52	1.272
309.73	1.293
309.95	1.285
310.16	1.249
310.37	1.236
310.58	1.259
310.79	1.260
311.00	1.254
311.21	1.257
311.42	1.261
311.63	1.252
311.84	1.230
312.05	1.224
312.26	1.252
312.47	1.267
312.68	1.235
312.89	1.215
313.10	1.221
313.31	1.189
313.52	1.187
313.73	1.187
313.94	1.192
314.15	1.171
314.36	1.149
314.57	1.138
314.78	1.124
314.99	1.118
315.21	1.103
315.42	1.108
315.63	1.122
315.84	1.098
316.05	1.083
316.26	1.092
316.47	1.113
316.68	1.108
316.89	1.088
317.10	1.110
317.31	1.117
317.52	1.119
317.73	1.095
317.94	1.095
318.15	1.143
318.36	1.143
318.57	1.122
318.78	1.107
318.99	1.145
319.20	1.139
319.41	1.101
319.62	1.105
319.83	1.119
320.04	1.114
320.25	1.097
320.46	1.060
320.67	1.061
320.88	1.056
321.09	1.042
321.30	1.027
321.51	1.043
321.72	1.041
321.93	1.019
322.14	1.013
322.35	1.041
322.56	1.045
322.77	1.030
322.98	1.043
323.19	1.052
323.40	1.058
323.61	1.033
323.82	1.029
324.03	1.035
324.24	1.033
324.45	1.018
324.66	0.997
324.87	0.995
325.08	0.995
325.29	0.972
325.50	0.966
325.71	0.972
325.92	0.980
326.13	0.964
326.34	0.965
326.55	0.976
326.76	0.974
326.97	0.961
327.18	0.954
327.39	0.980
327.60	0.981
327.80	0.981
328.01	0.979
328.22	0.980
328.43	0.984
328.64	0.972
328.85	0.974
329.06	0.975
329.27	0.977
329.48	0.971
329.69	0.951
329.90	0.963
330.11	0.955
330.32	0.947
330.53	0.940
330.74	0.940
330.95	0.938
331.16	0.922
331.37	0.931
331.58	0.931
331.79	0.931
332.00	0.922
332.21	0.914
332.42	0.918
332.63	0.908
332.83	0.903
333.04	0.905
333.25	0.919
333.46	0.917
333.67	0.902
333.88	0.904
334.09	0.914
334.30	0.910
334.51	0.901
334.72	0.897
334.93	0.902
335.14	0.902
335.35	0.895
335.56	0.890
335.77	0.899
335.98	0.899
336.18	0.892
336.39	0.884
336.60	0.889
336.81	0.887
337.02	0.886
337.23	0.890
337.44	0.891
337.65	0.893
337.86	0.881
338.07	0.876
338.28	0.882
338.49	0.881
338.70	0.873
338.91	0.880
339.11	0.888
339.32	0.883
339.53	0.870
339.74	0.868
339.95	0.864
340.16	0.863
340.37	0.854
340.58	0.852
340.79	0.855
341.00	0.854
341.21	0.843
341.41	0.844
341.62	0.846
341.83	0.847
342.04	0.842
342.25	0.853
342.46	0.858
342.67	0.856
342.88	0.848
343.09	0.847
343.30	0.855
343.50	0.859
343.71	0.848
343.92	0.847
344.13	0.851
344.34	0.850
344.55	0.833
344.76	0.833
344.97	0.838
345.18	0.836
345.38	0.833
345.59	0.827
345.80	0.826
346.01	0.824
346.22	0.818
346.43	0.812
346.64	0.822
346.85	0.821
347.06	0.813
347.26	0.813
347.47	0.818
347.68	0.813
347.89	0.810
348.10	0.804
348.31	0.812
348.52	0.813
348.73	0.810
348.93	0.806
349.14	0.810
349.35	0.809
349.56	0.804
349.77	0.800
349.98	0.806
350.19	0.803
350.39	0.798
350.60	0.794
350.81	0.810
351.02	0.808
351.23	0.804
351.44	0.806
351.65	0.810
351.86	0.808
352.06	0.806
352.27	0.806
352.48	0.809
352.69	0.809
352.90	0.803
353.11	0.788
353.31	0.796
353.52	0.792
353.73	0.784
353.94	0.786
354.15	0.791
354.36	0.791
354.57	0.783
354.77	0.783
354.98	0.783
355.19	0.782
355.40	0.781
355.61	0.788
355.82	0.792
356.02	0.790
356.23	0.782
356.44	0.784
356.65	0.787
356.86	0.787
357.07	0.780
357.27	0.784
357.48	0.787
357.69	0.783
357.90	0.767
358.11	0.763
358.32	0.767
358.52	0.771
358.73	0.760
358.94	0.763
359.15	0.768
359.36	0.768
359.56	0.763
359.77	0.759
359.98	0.767
360.19	0.767
360.40	0.764
360.61	0.765
360.81	0.763
361.02	0.764
361.23	0.756
361.44	0.754
361.65	0.756
361.85	0.755
362.06	0.753
362.27	0.755
362.48	0.755
362.69	0.758
362.89	0.751
363.10	0.752
363.31	0.759
363.52	0.761
363.73	0.756
363.93	0.756
364.14	0.759
364.35	0.760
364.56	0.749
364.77	0.750
364.97	0.753
365.18	0.753
365.39	0.748
365.60	0.743
365.81	0.745
366.01	0.745
366.22	0.741
366.43	0.740
366.64	0.743
366.84	0.749
367.05	0.745
367.26	0.745
367.47	0.747
367.68	0.747
367.88	0.743
368.09	0.741
368.30	0.743
368.51	0.743
368.71	0.742
368.92	0.747
369.13	0.745
369.34	0.745
369.55	0.743
369.75	0.743
369.96	0.750
370.17	0.750
370.38	0.746
370.58	0.746
370.79	0.751
371.00	0.749
371.21	0.739
371.41	0.745
371.62	0.749
371.83	0.744
372.04	0.741
372.24	0.734
372.45	0.735
372.66	0.736
372.87	0.733
373.07	0.730
373.28	0.731
373.49	0.735
373.70	0.726
373.90	0.725
374.11	0.734
374.32	0.734
374.53	0.732
374.73	0.733
374.94	0.736
375.15	0.735
375.36	0.732
375.56	0.741
375.77	0.742
375.98	0.742
376.19	0.739
376.39	0.732
376.60	0.736
376.81	0.737
377.02	0.734
377.22	0.733
377.43	0.732
377.64	0.732
377.84	0.723
378.05	0.728
378.26	0.734
378.47	0.733
378.67	0.729
378.88	0.727
379.09	0.728
379.30	0.727
379.50	0.725
379.71	0.727
379.92	0.731
380.12	0.730
380.33	0.720
380.54	0.716
380.75	0.723
380.95	0.723
381.16	0.721
381.37	0.722
381.57	0.724
381.78	0.724
381.99	0.724
382.20	0.722
382.40	0.726
382.61	0.726
382.82	0.722
383.02	0.715
383.23	0.718
383.44	0.718
383.64	0.716
383.85	0.718
384.06	0.722
384.27	0.719
384.47	0.717
384.68	0.718
384.89	0.723
385.09	0.723
385.30	0.722
385.51	0.722
385.71	0.725
385.92	0.725
386.13	0.723
386.33	0.725
386.54	0.726
386.75	0.725
386.95	0.721
387.16	0.716
387.37	0.719
387.58	0.718
387.78	0.716
387.99	0.714
388.20	0.716
388.40	0.713
388.61	0.708
388.82	0.712
389.02	0.714
389.23	0.715
389.44	0.713
389.64	0.713
389.85	0.726
390.06	0.725
390.26	0.725
390.47	0.724
390.68	0.726
390.88	0.724
391.09	0.720
391.30	0.719
391.50	0.718
391.71	0.718
391.92	0.714
392.12	0.706
392.33	0.707
392.53	0.706
392.74	0.706
392.95	0.705
393.15	0.708
393.36	0.709
393.57	0.707
393.77	0.710
393.98	0.712
394.19	0.712
394.39	0.711
394.60	0.712
394.81	0.714
395.01	0.711
395.22	0.709
395.43	0.710
395.63	0.714
395.84	0.715
396.04	0.710
396.25	0.713
396.46	0.715
396.66	0.713
396.87	0.710
397.08	0.707
397.28	0.710
397.49	0.711
397.69	0.707
397.90	0.702
398.11	0.704
398.31	0.704
398.52	0.699
398.73	0.701
398.93	0.700
399.14	0.699
399.34	0.698
399.55	0.698
399.76	0.699
399.96	0.700
400.17	0.699
400.37	0.697
400.58	0.704
400.79	0.706
400.99	0.703
401.20	0.709
401.41	0.711
401.61	0.713
401.82	0.718
402.02	0.717
402.23	0.719
402.44	0.719
402.64	0.718
402.85	0.712
403.05	0.712
403.26	0.711
403.47	0.704
403.67	0.703
403.88	0.703
404.08	0.697
404.29	0.694
404.50	0.693
404.70	0.694
404.91	0.693
405.11	0.689
405.32	0.689
405.52	0.690
405.73	0.689
405.94	0.687
406.14	0.690
406.35	0.692
406.55	0.691
406.76	0.689
406.97	0.690
407.17	0.692
407.38	0.692
407.58	0.690
407.79	0.693
407.99	0.696
408.20	0.696
408.41	0.692
408.61	0.690
408.82	0.692
409.02	0.691
409.23	0.689
409.43	0.688
409.64	0.689
409.84	0.689
410.05	0.686
410.26	0.684
410.46	0.683
410.67	0.683
410.87	0.684
411.08	0.686
411.28	0.688
411.49	0.689
411.69	0.687
411.90	0.688
412.11	0.690
412.31	0.690
412.52	0.689
412.72	0.690
412.93	0.691
413.13	0.690
413.34	0.686
413.54	0.688
413.75	0.689
413.95	0.689
414.16	0.686
414.37	0.689
414.57	0.689
414.78	0.692
414.98	0.689
415.19	0.690
415.39	0.687
415.60	0.690
415.80	0.689
416.01	0.687
416.21	0.689
416.42	0.689
416.62	0.683
416.83	0.683
417.03	0.683
417.24	0.683
417.44	0.681
417.65	0.680
417.86	0.681
418.06	0.679
418.27	0.678
418.47	0.679
418.68	0.680
418.88	0.681
419.09	0.679
419.29	0.679
419.50	0.680
419.70	0.680
419.91	0.678
420.11	0.676
420.32	0.678
420.52	0.677
420.73	0.675
420.93	0.676
421.14	0.677
421.34	0.676
421.55	0.673
421.75	0.673
421.96	0.674
422.16	0.675
422.37	0.674
422.57	0.671
422.78	0.673
422.98	0.671
423.19	0.668
423.39	0.667
423.60	0.671
423.80	0.673
424.01	0.671
424.21	0.673
424.42	0.675
424.62	0.674
424.83	0.673
425.03	0.674
425.23	0.676
425.44	0.677
425.64	0.677
425.85	0.676
426.05	0.676
426.26	0.677
426.46	0.673
426.67	0.673
426.87	0.678
427.08	0.678
427.28	0.676
427.49	0.676
427.69	0.677
427.90	0.676
428.10	0.672
428.31	0.673
428.51	0.675
428.71	0.674
428.92	0.675
429.12	0.672
429.33	0.674
429.53	0.678
429.74	0.681
429.94	0.681
430.15	0.681
430.35	0.681
430.56	0.678
430.76	0.677
430.96	0.679
431.17	0.676
431.37	0.673
431.58	0.671
431.78	0.668
431.99	0.662
432.19	0.663
432.40	0.665
432.60	0.666
432.80	0.669
433.01	0.667
433.21	0.667
433.42	0.670
433.62	0.670
433.83	0.669
434.03	0.672
434.23	0.675
434.44	0.674
434.64	0.672
434.85	0.677
435.05	0.678
435.26	0.678
435.46	0.676
435.66	0.675
435.87	0.675
436.07	0.676
436.28	0.672
436.48	0.669
436.69	0.668
436.89	0.669
437.09	0.663
437.30	0.662
437.50	0.662
437.71	0.674
437.91	0.673
438.11	0.675
438.32	0.679
438.52	0.679
438.73	0.678
438.93	0.676
439.13	0.676
439.34	0.680
439.54	0.677
439.75	0.677
439.95	0.667
440.15	0.671
440.36	0.669
440.56	0.667
440.77	0.668
440.97	0.668
441.17	0.667
441.38	0.668
441.58	0.666
441.79	0.666
441.99	0.664
442.19	0.664
442.40	0.662
442.60	0.663
442.81	0.660
443.01	0.661
443.21	0.662
443.42	0.661
443.62	0.659
443.82	0.659
444.03	0.661
444.23	0.661
444.44	0.660
444.64	0.659
444.84	0.660
445.05	0.660
445.25	0.658
445.45	0.658
445.66	0.662
445.86	0.661
446.06	0.662
446.27	0.662
446.47	0.665
446.68	0.664
446.88	0.663
447.08	0.662
447.29	0.664
447.49	0.664
447.69	0.664
447.90	0.662
448.10	0.666
448.30	0.663
448.51	0.664
448.71	0.662
448.91	0.664
449.12	0.663
449.32	0.665
449.52	0.664
449.73	0.667
449.93	0.666
450.14	0.667
450.34	0.665
450.54	0.668
450.75	0.665
450.95	0.664
451.15	0.663
451.36	0.665
451.56	0.662
451.76	0.661
451.97	0.658
452.17	0.659
452.37	0.658
452.58	0.655
452.78	0.655
452.98	0.658
453.19	0.657
453.39	0.658
453.59	0.657
453.79	0.659
454.00	0.660
454.20	0.658
454.40	0.659
454.61	0.660
454.81	0.661
455.01	0.659
455.22	0.660
455.42	0.662
455.62	0.660
455.83	0.660
456.03	0.663
456.23	0.664
456.44	0.665
456.64	0.664
456.84	0.664
457.04	0.665
457.25	0.665
457.45	0.661
457.65	0.659
457.86	0.660
458.06	0.659
458.26	0.654
458.47	0.653
458.67	0.654
458.87	0.654
459.07	0.652
459.28	0.653
459.48	0.656
459.68	0.656
459.89	0.656
460.09	0.654
460.29	0.656
460.49	0.657
460.70	0.655
460.90	0.654
461.10	0.655
461.31	0.655
461.51	0.652
461.71	0.654
461.91	0.655
462.12	0.655
462.32	0.654
462.52	0.655
462.72	0.658
462.93	0.659
463.13	0.658
463.33	0.659
463.53	0.661
463.74	0.660
463.94	0.655
464.14	0.656
464.35	0.657
464.55	0.657
464.75	0.655
464.95	0.653
465.16	0.655
465.36	0.654
465.56	0.653
465.76	0.652
465.97	0.653
466.17	0.654
466.37	0.652
466.57	0.653
466.78	0.653
466.98	0.654
467.18	0.652
467.38	0.650
467.59	0.652
467.79	0.654
467.99	0.653
468.19	0.654
468.39	0.657
468.60	0.657
468.80	0.656
469.00	0.657
469.20	0.658
469.41	0.659
469.61	0.658
469.81	0.659
470.01	0.659
470.22	0.659
470.42	0.656
470.62	0.654
470.82	0.655
471.02	0.655
471.23	0.653
471.43	0.653
471.63	0.655
471.83	0.655
472.04	0.652
472.24	0.651
472.44	0.656
472.64	0.656
472.84	0.654
473.05	0.654
473.25	0.657
473.45	0.656
473.65	0.655
473.85	0.656
474.06	0.657
474.26	0.657
474.46	0.658
474.66	0.654
474.86	0.655
475.07	0.656
475.27	0.653
475.47	0.650
475.67	0.652
475.87	0.653
476.08	0.650
476.28	0.651
476.48	0.653
476.68	0.651
476.88	0.649
477.09	0.650
477.29	0.652
477.49	0.652
477.69	0.651
477.89	0.650
478.09	0.650
478.30	0.651
478.50	0.648
478.70	0.647
478.90	0.648
479.10	0.651
479.31	0.651
479.51	0.649
479.71	0.650
479.91	0.650
480.11	0.649
480.31	0.649
480.52	0.649
480.72	0.649
480.92	0.648
481.12	0.647
481.32	0.644
481.52	0.643
481.72	0.643
481.93	0.647
482.13	0.648
482.33	0.647
482.53	0.645
482.73	0.646
482.93	0.647
483.14	0.647
483.34	0.646
483.54	0.647
483.74	0.647
483.94	0.645
484.14	0.641
484.34	0.641
484.55	0.642
484.75	0.642
484.95	0.640
485.15	0.639
485.35	0.639
485.55	0.639
485.75	0.636
485.96	0.637
486.16	0.638
486.36	0.637
486.56	0.636
486.76	0.636
486.96	0.636
487.16	0.636
487.36	0.634
487.57	0.634
487.77	0.635
487.97	0.635
488.17	0.633
488.37	0.632
488.57	0.633
488.77	0.633
488.97	0.631
489.18	0.630
489.38	0.634
489.58	0.634
489.78	0.633
489.98	0.633
490.18	0.633
490.38	0.634
490.58	0.633
490.78	0.633
490.98	0.635
491.19	0.636
491.39	0.635
491.59	0.633
491.79	0.636
491.99	0.637
492.19	0.636
492.39	0.639
492.59	0.639
492.79	0.641
492.99	0.642
493.20	0.642
493.40	0.642
493.60	0.643
493.80	0.642
494.00	0.640
494.20	0.641
494.40	0.641
494.60	0.638
494.80	0.642
495.00	0.642
495.20	0.640
495.40	0.638
495.61	0.640
495.81	0.640
496.01	0.643
496.21	0.644
496.41	0.643
496.61	0.644
496.81	0.643
497.01	0.637
497.21	0.637
497.41	0.638
497.61	0.638
497.81	0.636
498.01	0.636
498.21	0.634
498.41	0.632
498.61	0.632
498.82	0.633
499.02	0.635
499.22	0.636
499.42	0.635
499.62	0.637
499.82	0.638
500.02	0.638
500.22	0.637
500.42	0.640
500.62	0.641
500.82	0.641
501.02	0.639
501.22	0.639
501.42	0.639
501.62	0.641
501.82	0.639
502.02	0.639
502.22	0.639
502.42	0.640
502.62	0.637
502.82	0.638
503.02	0.638
503.22	0.638
503.42	0.636
503.63	0.636
503.83	0.634
504.03	0.633
504.23	0.631
504.43	0.632
504.63	0.633
504.83	0.633
505.03	0.631
505.23	0.633
505.43	0.635
505.63	0.636
505.83	0.635
506.03	0.637
506.23	0.639
506.43	0.639
506.63	0.638
506.83	0.637
507.03	0.639
507.23	0.640
507.43	0.637
507.63	0.638
507.83	0.638
508.03	0.638
508.23	0.638
508.43	0.637
508.63	0.639
508.83	0.639
509.03	0.640
509.23	0.638
509.43	0.639
509.63	0.640
509.83	0.638
510.03	0.641
510.23	0.642
510.43	0.642
510.63	0.642
510.83	0.642
511.03	0.644
511.23	0.642
511.43	0.642
511.63	0.644
511.83	0.647
512.03	0.646
512.22	0.643
512.42	0.643
512.62	0.645
512.82	0.645
513.02	0.644
513.22	0.644
513.42	0.646
513.62	0.648
513.82	0.646
514.02	0.645
514.22	0.646
514.42	0.646
514.62	0.645
514.82	0.645
515.02	0.648
515.22	0.651
515.42	0.650
515.62	0.652
515.82	0.651
516.02	0.653
516.22	0.653
516.42	0.654
516.62	0.656
516.82	0.657
517.01	0.655
517.21	0.655
517.41	0.658
517.61	0.658
517.81	0.654
518.01	0.653
518.21	0.653
518.41	0.651
518.61	0.651
518.81	0.651
519.01	0.652
519.21	0.652
519.41	0.651
519.61	0.646
519.81	0.649
520.00	0.649
520.20	0.649
520.40	0.652
520.60	0.654
520.80	0.653
521.00	0.653
521.20	0.654
521.40	0.659
521.60	0.659
521.80	0.658
522.00	0.658
522.20	0.661
522.39	0.660
522.59	0.657
522.79	0.659
522.99	0.661
523.19	0.659
523.39	0.656
523.59	0.654
523.79	0.658
523.99	0.660
524.19	0.659
524.38	0.657
524.58	0.659
524.78	0.659
524.98	0.657
525.18	0.660
525.38	0.661
525.58	0.662
525.78	0.660
525.98	0.658
526.18	0.658
526.37	0.658
526.57	0.660
526.77	0.660
526.97	0.661
527.17	0.661
527.37	0.657
527.57	0.659
527.77	0.660
527.96	0.660
528.16	0.659
528.36	0.660
528.56	0.662
528.76	0.660
528.96	0.658
529.16	0.660
529.36	0.663
529.55	0.663
529.75	0.660
529.95	0.660
530.15	0.662
530.35	0.665
530.55	0.662
530.75	0.662
530.94	0.664
531.14	0.665
531.34	0.663
531.54	0.661
531.74	0.664
531.94	0.668
532.13	0.666
532.33	0.667
532.53	0.665
532.73	0.665
532.93	0.662
533.13	0.663
533.33	0.663
533.52	0.664
533.72	0.667
533.92	0.665
534.12	0.663
534.32	0.663
534.52	0.661
534.71	0.664
534.91	0.667
535.11	0.669
535.31	0.667
535.51	0.669
535.71	0.671
535.90	0.668
536.10	0.669
536.30	0.670
536.50	0.671
536.70	0.671
536.89	0.669
537.09	0.668
537.29	0.670
537.49	0.671
537.69	0.669
537.89	0.669
538.08	0.669
538.28	0.667
538.48	0.668
538.68	0.670
538.88	0.672
539.07	0.672
539.27	0.670
539.47	0.668
539.67	0.668
539.87	0.670
540.06	0.667
540.26	0.668
540.46	0.670
540.66	0.668
540.86	0.665
541.05	0.665
541.25	0.667
541.45	0.668
541.65	0.666
541.84	0.668
542.04	0.669
542.24	0.669
542.44	0.668
542.64	0.670
542.83	0.673
543.03	0.673
543.23	0.671
543.43	0.671
543.62	0.672
543.82	0.672
544.02	0.670
544.22	0.670
544.42	0.674
544.61	0.674
544.81	0.671
545.01	0.670
545.21	0.673
545.40	0.673
545.60	0.671
545.80	0.675
546.00	0.675
546.19	0.674
546.39	0.673
546.59	0.671
546.79	0.672
546.98	0.673
547.18	0.671
547.38	0.672
547.58	0.674
547.77	0.674
547.97	0.670
548.17	0.672
548.37	0.673
548.56	0.673
548.76	0.673
548.96	0.675
549.16	0.678
549.35	0.678
549.55	0.675
549.75	0.676
549.95	0.680
550.14	0.680
550.34	0.678
550.54	0.683
550.73	0.686
550.93	0.686
551.13	0.683
551.33	0.681
551.52	0.682
551.72	0.683
551.92	0.681
552.12	0.681
552.31	0.682
552.51	0.682
552.71	0.677
552.90	0.677
553.10	0.678
553.30	0.679
553.50	0.677
553.69	0.679
553.89	0.680
554.09	0.680
554.28	0.677
554.48	0.679
554.68	0.681
554.87	0.681
555.07	0.678
555.27	0.678
555.47	0.679
555.66	0.680
555.86	0.678
556.06	0.681
556.25	0.682
556.45	0.689
556.65	0.687
556.84	0.691
557.04	0.694
557.24	0.695
557.43	0.695
557.63	0.697
557.83	0.700
558.02	0.701
558.22	0.704
558.42	0.704
558.61	0.698
558.81	0.698
559.01	0.694
559.21	0.693
559.40	0.695
559.60	0.695
559.80	0.692
559.99	0.693
560.19	0.695
560.39	0.688
560.58	0.686
560.78	0.686
560.97	0.690
561.17	0.689
561.37	0.686
561.56	0.687
561.76	0.688
561.96	0.688
562.15	0.685
562.35	0.688
562.55	0.689
562.74	0.689
562.94	0.687
563.14	0.685
563.33	0.686
563.53	0.686
563.73	0.683
563.92	0.684
564.12	0.687
564.31	0.690
564.51	0.687
564.71	0.688
564.90	0.691
565.10	0.693
565.30	0.696
565.49	0.697
565.69	0.700
565.89	0.700
566.08	0.697
566.28	0.699
566.47	0.701
566.67	0.700
566.87	0.696
567.06	0.698
567.26	0.705
567.46	0.700
567.65	0.699
567.85	0.700
568.04	0.703
568.24	0.702
568.44	0.698
568.63	0.696
568.83	0.698
569.02	0.696
569.22	0.691
569.42	0.687
569.61	0.690
569.81	0.689
570.00	0.686
570.20	0.688
570.40	0.689
570.59	0.689
570.79	0.687
570.98	0.685
571.18	0.688
571.38	0.688
571.57	0.684
571.77	0.681
571.96	0.685
572.16	0.682
572.35	0.676
572.55	0.677
572.75	0.675
572.94	0.675
573.14	0.673
573.33	0.672
573.53	0.673
573.73	0.673
573.92	0.671
574.12	0.669
574.31	0.672
574.51	0.673
574.70	0.670
574.90	0.672
575.09	0.674
575.29	0.675
575.49	0.672
575.68	0.672
575.88	0.674
576.07	0.675
576.27	0.673
576.46	0.672
576.66	0.670
576.86	0.670
577.05	0.667
577.25	0.665
577.44	0.667
577.64	0.667
577.83	0.665
578.03	0.666
578.22	0.666
578.42	0.665
578.61	0.663
578.81	0.665
579.00	0.665
579.20	0.665
579.40	0.664
579.59	0.662
579.79	0.663
579.98	0.663
580.18	0.662
580.37	0.663
580.57	0.665
580.76	0.669
580.96	0.667
581.15	0.668
581.35	0.670
581.54	0.670
581.74	0.669
581.93	0.671
582.13	0.672
582.32	0.669
582.52	0.666
582.71	0.666
582.91	0.662
583.10	0.661
583.30	0.660
583.49	0.659
583.69	0.663
583.88	0.665
584.08	0.664
584.27	0.666
584.47	0.669
584.66	0.671
584.86	0.670
585.05	0.672
585.25	0.675
585.44	0.674
585.64	0.672
585.83	0.669
586.03	0.669
586.22	0.668
586.42	0.664
586.61	0.665
586.81	0.668
587.00	0.668
587.20	0.665
587.39	0.666
587.59	0.669
587.78	0.670
587.98	0.670
588.17	0.671
588.37	0.674
588.56	0.676
588.76	0.672
588.95	0.672
589.15	0.677
589.34	0.679
589.54	0.676
589.73	0.677
589.92	0.680
590.12	0.680
590.31	0.678
590.51	0.683
590.70	0.684
590.90	0.684
591.09	0.682
591.29	0.680
591.48	0.680
591.68	0.682
591.87	0.680
592.06	0.679
592.26	0.682
592.45	0.681
592.65	0.674
592.84	0.674
593.04	0.678
593.23	0.680
593.43	0.678
593.62	0.677
593.81	0.678
594.01	0.677
594.20	0.674
594.40	0.673
594.59	0.675
594.79	0.676
594.98	0.674
595.17	0.673
595.37	0.674
595.56	0.676
595.76	0.675
595.95	0.678
596.14	0.681
596.34	0.683
596.53	0.681
596.73	0.683
596.92	0.684
597.12	0.687
597.31	0.687
597.50	0.686
597.70	0.688
597.89	0.687
598.09	0.683
598.28	0.684
598.47	0.686
598.67	0.685
598.86	0.681
599.06	0.683
599.25	0.683
599.44	0.681
599.64	0.678
599.83	0.675
600.03	0.679
600.22	0.679
600.41	0.679
600.61	0.678
600.80	0.680
601.00	0.681
601.19	0.676
601.38	0.674
601.58	0.677
601.77	0.678
601.96	0.680
602.16	0.680
602.35	0.689
602.55	0.687
602.74	0.687
602.93	0.689
603.13	0.694
603.32	0.696
603.51	0.695
603.71	0.698
603.90	0.700
604.09	0.701
604.29	0.698
604.48	0.692
604.68	0.694
604.87	0.692
605.06	0.689
605.26	0.685
605.45	0.686
605.64	0.686
605.84	0.681
606.03	0.681
606.22	0.679
606.42	0.678
606.61	0.674
606.80	0.674
607.00	0.677
607.19	0.677
607.38	0.675
607.58	0.677
607.77	0.680
607.96	0.679
608.16	0.677
608.35	0.683
608.54	0.686
608.74	0.689
608.93	0.694
609.12	0.697
609.32	0.700
609.51	0.703
609.70	0.702
609.90	0.704
610.09	0.709
610.28	0.714
610.48	0.707
610.67	0.708
610.86	0.710
611.06	0.705
611.25	0.702
611.44	0.702
611.64	0.702
611.83	0.705
612.02	0.701
612.21	0.699
612.41	0.699
612.60	0.698
612.79	0.694
612.99	0.693
613.18	0.696
613.37	0.694
613.57	0.691
613.76	0.694
613.95	0.691
614.14	0.690
614.34	0.687
614.53	0.688
614.72	0.692
614.92	0.692
615.11	0.689
615.30	0.685
615.49	0.687
615.69	0.689
615.88	0.685
616.07	0.687
616.26	0.690
616.46	0.692
616.65	0.688
616.84	0.687
617.04	0.688
617.23	0.692
617.42	0.692
617.61	0.695
617.81	0.696
618.00	0.698
618.19	0.696
618.38	0.700
618.58	0.703
618.77	0.705
618.96	0.704
619.15	0.706
619.35	0.708
619.54	0.709
619.73	0.704
619.92	0.707
620.12	0.712
620.31	0.711
620.50	0.706
620.69	0.706
620.89	0.709
621.08	0.710
621.27	0.710
621.46	0.709
621.66	0.713
621.85	0.713
622.04	0.708
622.23	0.709
622.43	0.711
622.62	0.710
622.81	0.709
623.00	0.709
623.19	0.713
623.39	0.711
623.58	0.707
623.77	0.706
623.96	0.709
624.16	0.709
624.35	0.704
624.54	0.707
624.73	0.711
624.92	0.708
625.12	0.705
625.31	0.706
625.50	0.710
625.69	0.711
625.88	0.707
626.08	0.707
626.27	0.708
626.46	0.708
626.65	0.705
626.84	0.706
627.04	0.712
627.23	0.712
627.42	0.707
627.61	0.709
627.80	0.713
628.00	0.713
628.19	0.710
628.38	0.715
628.57	0.719
628.76	0.717
628.96	0.714
629.15	0.715
629.34	0.718
629.53	0.719
629.72	0.712
629.91	0.712
630.11	0.716
630.30	0.716
630.49	0.718
630.68	0.719
630.87	0.724
631.06	0.725
631.26	0.719
631.45	0.721
631.64	0.730
631.83	0.732
632.02	0.729
632.21	0.729
632.41	0.737
632.60	0.731
632.79	0.729
632.98	0.729
633.17	0.730
633.36	0.732
633.55	0.727
633.75	0.723
633.94	0.727
634.13	0.727
634.32	0.725
634.51	0.719
634.70	0.721
634.89	0.719
635.09	0.715
635.28	0.716
635.47	0.717
635.66	0.721
635.85	0.717
636.04	0.718
636.23	0.723
636.43	0.724
636.62	0.722
636.81	0.721
637.00	0.725
637.19	0.729
637.38	0.725
637.57	0.725
637.76	0.727
637.95	0.728
638.15	0.724
638.34	0.720
638.53	0.723
638.72	0.725
638.91	0.722
639.10	0.719
639.29	0.721
639.48	0.722
639.67	0.721
639.87	0.720
640.06	0.726
640.25	0.726
640.44	0.727
640.63	0.727
640.82	0.729
641.01	0.729
641.20	0.728
641.39	0.730
641.58	0.734
641.78	0.731
641.97	0.726
642.16	0.740
642.35	0.742
642.54	0.741
642.73	0.735
642.92	0.735
643.11	0.739
643.30	0.738
643.49	0.731
643.68	0.734
643.87	0.737
644.06	0.738
644.25	0.717
644.45	0.719
644.64	0.721
644.83	0.721
645.02	0.717
645.21	0.718
645.40	0.719
645.59	0.719
645.78	0.712
645.97	0.713
646.16	0.714
646.35	0.714
646.54	0.711
646.73	0.713
646.92	0.715
647.11	0.714
647.30	0.710
647.49	0.712
647.68	0.712
647.88	0.711
648.07	0.704
648.26	0.707
648.45	0.709
648.64	0.704
648.83	0.701
649.02	0.704
649.21	0.715
649.40	0.713
649.59	0.707
649.78	0.708
649.97	0.725
650.16	0.724
650.35	0.717
650.54	0.720
650.73	0.730
650.92	0.726
651.11	0.719
651.30	0.715
651.49	0.721
651.68	0.723
651.87	0.719
652.06	0.707
652.25	0.711
652.44	0.713
652.63	0.709
652.82	0.708
653.01	0.708
653.20	0.706
653.39	0.693
653.58	0.690
653.77	0.690
653.96	0.685
654.15	0.677
654.34	0.675
654.53	0.671
654.72	0.665
654.91	0.656
655.10	0.652
655.29	0.650
655.48	0.649
655.67	0.643
655.86	0.640
656.05	0.639
656.24	0.638
656.43	0.632
656.62	0.631
656.81	0.631
657.00	0.630
657.19	0.627
657.38	0.627
657.57	0.626
657.76	0.629
657.95	0.627
658.14	0.630
658.33	0.634
658.51	0.640
658.70	0.640
658.89	0.642
659.08	0.651
659.27	0.660
659.46	0.659
659.65	0.666
659.84	0.670
660.03	0.673
660.22	0.674
660.41	0.678
660.60	0.678
660.79	0.679
660.98	0.685
661.17	0.684
661.36	0.683
661.55	0.684
661.74	0.681
661.92	0.684
662.11	0.688
662.30	0.687
662.49	0.680
662.68	0.679
662.87	0.683
663.06	0.677
663.25	0.678
663.44	0.678
663.63	0.678
663.82	0.677
664.01	0.671
664.20	0.669
664.38	0.670
664.57	0.670
664.76	0.670
664.95	0.670
665.14	0.675
665.33	0.669
665.52	0.676
665.71	0.680
665.90	0.680
666.09	0.682
666.28	0.680
666.46	0.679
666.65	0.681
666.84	0.678
667.03	0.673
667.22	0.670
667.41	0.674
667.60	0.664
667.79	0.658
667.98	0.659
668.16	0.660
668.35	0.660
668.54	0.655
668.73	0.657
668.92	0.659
669.11	0.657
669.30	0.651
669.49	0.647
669.67	0.649
669.86	0.650
670.05	0.647
670.24	0.645
670.43	0.643
670.62	0.642
670.81	0.636
671.00	0.637
671.18	0.637
671.37	0.636
671.56	0.635
671.75	0.634
671.94	0.631
672.13	0.629
672.32	0.624
672.50	0.623
672.69	0.623
672.88	0.624
673.07	0.619
673.26	0.621
673.45	0.623
673.63	0.623
673.82	0.618
674.01	0.620
674.20	0.620
674.39	0.619
674.58	0.618
674.76	0.618
674.95	0.616
675.14	0.616
675.33	0.611
675.52	0.610
675.71	0.611
675.89	0.611
676.08	0.606
676.27	0.606
676.46	0.607
676.65	0.607
676.84	0.606
677.02	0.608
677.21	0.610
677.40	0.608
677.59	0.605
677.78	0.605
677.96	0.608
678.15	0.608
678.34	0.605
678.53	0.605
678.72	0.605
678.90	0.602
679.09	0.598
679.28	0.595
679.47	0.596
679.66	0.596
679.84	0.592
680.03	0.589
680.22	0.589
680.41	0.591
680.60	0.588
680.78	0.588
680.97	0.590
681.16	0.591
681.35	0.589
681.53	0.588
681.72	0.590
681.91	0.591
682.10	0.590
682.29	0.592
682.47	0.590
682.66	0.589
682.85	0.587
683.04	0.585
683.22	0.584
683.41	0.586
683.60	0.585
683.79	0.586
683.97	0.585
684.16	0.584
684.35	0.580
684.54	0.582
684.72	0.582
684.91	0.583
685.10	0.581
685.29	0.582
685.47	0.579
685.66	0.579
685.85	0.575
686.04	0.575
686.22	0.577
686.41	0.579
686.60	0.576
686.79	0.579
686.97	0.580
687.16	0.581
687.35	0.578
687.54	0.582
687.72	0.586
687.91	0.585
688.10	0.587
688.29	0.587
688.47	0.586
688.66	0.585
688.85	0.581
689.03	0.578
689.22	0.583
689.41	0.583
689.60	0.578
689.78	0.575
689.97	0.576
690.16	0.573
690.34	0.569
690.53	0.569
690.72	0.569
690.91	0.567
691.09	0.565
691.28	0.559
691.47	0.557
691.65	0.556
691.84	0.554
692.03	0.553
692.21	0.551
692.40	0.551
692.59	0.548
692.77	0.547
692.96	0.548
693.15	0.549
693.34	0.546
693.52	0.547
693.71	0.548
693.90	0.549
694.08	0.549
694.27	0.551
694.46	0.561
694.64	0.562
694.83	0.562
695.02	0.561
695.20	0.561
695.39	0.561
695.58	0.560
695.76	0.561
695.95	0.560
696.14	0.560
696.32	0.557
696.51	0.547
696.70	0.547
696.88	0.548
697.07	0.546
697.26	0.547
697.44	0.549
697.63	0.548
697.81	0.545
698.00	0.545
698.19	0.544
698.37	0.545
698.56	0.544
698.75	0.544
698.93	0.545
699.12	0.544
699.31	0.544
699.49	0.543
699.68	0.543
699.87	0.545
700.05	0.545
700.24	0.544
700.42	0.546
700.61	0.545
700.80	0.542
700.98	0.542
701.17	0.543
701.36	0.543
701.54	0.542
701.73	0.544
701.91	0.542
702.10	0.542
702.29	0.540
702.47	0.539
702.66	0.541
702.84	0.541
703.03	0.539
703.22	0.542
703.40	0.541
703.59	0.542
703.77	0.541
703.96	0.542
704.15	0.542
704.33	0.543
704.52	0.542
704.70	0.541
704.89	0.541
705.08	0.540
705.26	0.535
705.45	0.535
705.63	0.535
705.82	0.532
706.00	0.530
706.19	0.529
706.38	0.529
706.56	0.528
706.75	0.526
706.93	0.525
707.12	0.527
707.30	0.527
707.49	0.524
707.68	0.523
707.86	0.522
708.05	0.522
708.23	0.519
708.42	0.520
708.60	0.523
708.79	0.522
708.98	0.520
709.16	0.519
709.35	0.521
709.53	0.526
709.72	0.524
709.90	0.526
710.09	0.529
710.27	0.531
710.46	0.534
710.64	0.533
710.83	0.535
711.02	0.537
711.20	0.536
711.39	0.534
711.57	0.532
711.76	0.533
711.94	0.530
712.13	0.531
712.31	0.532
712.50	0.527
712.68	0.524
712.87	0.525
713.05	0.526
713.24	0.527
713.42	0.526
713.61	0.526
713.79	0.527
713.98	0.527
714.16	0.528
714.35	0.527
714.54	0.528
714.72	0.528
714.91	0.525
715.09	0.532
715.28	0.535
715.46	0.535
715.65	0.533
715.83	0.533
716.02	0.536
716.20	0.532
716.39	0.531
716.57	0.532
716.76	0.535
716.94	0.535
717.12	0.527
717.31	0.528
717.49	0.531
717.68	0.533
717.86	0.533
718.05	0.534
718.23	0.537
718.42	0.540
718.60	0.541
718.79	0.549
718.97	0.551
719.16	0.551
719.34	0.549
719.53	0.549
719.71	0.550
719.90	0.551
720.08	0.548
720.27	0.548
720.45	0.548
720.63	0.546
720.82	0.540
721.00	0.543
721.19	0.547
721.37	0.546
721.56	0.546
721.74	0.549
721.93	0.558
722.11	0.565
722.30	0.564
722.48	0.568
722.66	0.571
722.85	0.571
723.03	0.571
723.22	0.569
723.40	0.572
723.59	0.572
723.77	0.576
723.95	0.569
724.14	0.571
724.32	0.573
724.51	0.572
724.69	0.572
724.88	0.573
725.06	0.572
725.24	0.573
725.43	0.575
725.61	0.578
725.80	0.571
725.98	0.569
726.16	0.566
726.35	0.571
726.53	0.571
726.72	0.568
726.90	0.579
727.09	0.578
727.27	0.584
727.45	0.581
727.64	0.590
727.82	0.599
728.01	0.603
728.19	0.599
728.37	0.606
728.56	0.611
728.74	0.618
728.92	0.604
729.11	0.607
729.29	0.607
729.48	0.609
729.66	0.599
729.84	0.598
730.03	0.602
730.21	0.605
730.40	0.594
730.58	0.594
730.76	0.595
730.95	0.600
731.13	0.599
731.31	0.613
731.50	0.622
731.68	0.624
731.86	0.619
732.05	0.635
732.23	0.639
732.42	0.645
732.60	0.648
732.78	0.654
732.97	0.672
733.15	0.680
733.33	0.668
733.52	0.675
733.70	0.687
733.88	0.696
734.07	0.679
734.25	0.706
734.43	0.713
734.62	0.717
734.80	0.713
734.98	0.704
735.17	0.712
735.35	0.719
735.53	0.707
735.72	0.713
735.90	0.740
736.08	0.762
736.27	0.736
736.45	0.748
736.63	0.761
736.82	0.771
737.00	0.769
737.18	0.781
737.37	0.815
737.55	0.841
737.73	0.830
737.92	0.831
738.10	0.829
738.28	0.851
738.46	0.835
738.65	0.850
738.83	0.875
739.01	0.937
739.20	0.927
739.38	0.909
739.56	0.900
739.75	0.907
739.93	0.870
740.11	0.898
740.29	0.903
740.48	0.912
740.66	0.886
740.84	0.884
741.03	0.842
741.21	0.852
741.39	0.833
741.57	0.850
741.76	0.876
741.94	0.883
742.12	0.841
742.31	0.847
742.49	0.874
742.67	0.900
742.85	0.916
743.04	0.922
743.22	0.937
743.40	0.995
743.58	0.972
743.77	0.989
743.95	1.035
744.13	1.100
744.31	1.070
744.50	1.055
744.68	1.061
744.86	1.023
745.04	1.038
745.23	1.115
745.41	1.100
745.59	1.103
745.77	1.054
745.96	1.032
746.14	1.050
746.32	1.050
746.50	1.037
746.69	1.015
746.87	1.037
747.05	1.014
747.23	0.930
747.42	0.914
747.60	0.950
747.78	0.955
747.96	0.997
748.14	0.940
748.33	0.977
748.51	0.974
748.69	0.967
748.87	0.998
749.06	0.998
749.24	0.994
749.42	0.976
749.60	0.950
749.78	0.963
749.97	0.907
750.15	0.897
750.33	0.893
750.51	0.920
750.69	0.925
750.88	0.926
751.06	0.937
751.24	0.973
751.42	0.962
751.60	0.951
751.79	1.036
751.97	1.103
752.15	1.107
752.33	1.064
752.51	1.154
752.69	1.178
752.88	1.130
753.06	1.199
753.24	1.163
753.42	1.210
753.60	1.464
753.78	1.236
753.97	1.254
754.15	1.284
754.33	1.326
754.51	1.148
754.69	1.123
754.87	1.166
755.06	1.066
755.24	1.067
755.42	1.081
755.60	0.966
755.78	0.972
755.96	0.906
756.15	0.906
756.33	0.916
756.51	0.934
756.69	0.919
756.87	0.882
757.05	0.905
757.23	0.882
757.42	0.845
757.60	0.842
757.78	0.834
757.96	0.831
758.14	0.813
758.32	0.797
758.50	0.811
758.69	0.807
758.87	0.796
759.05	0.803
759.23	0.816
759.41	0.815
759.59	0.804
759.77	0.825
759.95	0.857
760.13	0.908
760.32	0.905
760.50	0.904
760.68	0.932
760.86	0.935
761.04	0.902
761.22	0.907
761.40	0.967
761.58	0.968
761.76	0.938
761.95	0.919
762.13	0.870
762.31	0.867
762.49	0.830
762.67	0.852
762.85	0.868
763.03	0.860
763.21	0.836
763.39	0.812
763.57	0.818
763.75	0.813
763.94	0.792
764.12	0.793
764.30	0.821
764.48	0.825
764.66	0.785
764.84	0.779
765.02	0.822
765.20	0.828
765.38	0.807
765.56	0.813
765.74	0.858
765.92	0.860
766.10	0.867
766.28	0.864
766.46	0.896
766.65	0.895
766.83	0.880
767.01	0.864
767.19	0.876
767.37	0.876
767.55	0.860
767.73	0.838
767.91	0.845
768.09	0.833
768.27	0.817
768.45	0.807
768.63	0.814
768.81	0.818
768.99	0.787
769.17	0.810
769.35	0.829
769.53	0.827
769.71	0.802
769.89	0.810
770.07	0.818
770.25	0.799
770.43	0.777
770.61	0.803
770.79	0.810
770.97	0.820
771.15	0.784
771.33	0.787
771.51	0.791
771.69	0.805
771.87	0.814
772.05	0.818
772.24	0.830
772.42	0.840
772.60	0.810
772.78	0.878
772.96	0.912
773.14	0.910
773.32	0.879
773.49	0.885
773.67	0.882
773.85	0.857
774.03	0.843
774.21	0.876
774.39	0.887
774.57	0.917
774.75	0.836
774.93	0.833
775.11	0.859
775.29	0.870
775.47	0.871
775.65	0.881
775.83	0.905
776.01	0.935
776.19	0.878
776.37	0.881
776.55	0.881
776.73	0.876
776.91	0.867
777.09	0.847
777.27	0.847
777.45	0.838
777.63	0.813
777.81	0.808
777.99	0.792
778.17	0.794
778.35	0.770
778.53	0.758
778.71	0.766
778.89	0.750
779.07	0.737
779.24	0.740
779.42	0.738
779.60	0.758
779.78	0.752
779.96	0.761
780.14	0.769
780.32	0.793
780.50	0.770
780.68	0.770
780.86	0.763
781.04	0.784
781.22	0.788
781.40	0.801
781.58	0.793
781.75	0.786
781.93	0.764
782.11	0.763
782.29	0.749
782.47	0.751
782.65	0.737
782.83	0.766
783.01	0.758
783.19	0.752
783.37	0.738
783.55	0.741
783.72	0.760
783.90	0.771
784.08	0.761
784.26	0.773
784.44	0.793
784.62	0.795
784.80	0.760
784.98	0.768
785.16	0.775
785.33	0.789
785.51	0.772
785.69	0.755
785.87	0.759
786.05	0.772
786.23	0.765
786.41	0.764
786.59	0.771
786.77	0.770
786.94	0.754
787.12	0.758
787.30	0.761
787.48	0.756
787.66	0.744
787.84	0.741
788.02	0.731
788.19	0.730
788.37	0.714
788.55	0.716
788.73	0.719
788.91	0.712
789.09	0.693
789.27	0.680
789.44	0.694
789.62	0.700
789.80	0.708
789.98	0.731
790.16	0.717
790.34	0.712
790.51	0.698
790.69	0.719
790.87	0.726
791.05	0.723
791.23	0.717
791.41	0.718
791.58	0.728
791.76	0.706
791.94	0.674
792.12	0.683
792.30	0.686
792.48	0.684
792.65	0.676
792.83	0.685
793.01	0.692
793.19	0.691
793.37	0.673
793.54	0.670
793.72	0.684
793.90	0.683
794.08	0.671
794.26	0.673
794.43	0.685
794.61	0.667
794.79	0.654
794.97	0.654
795.15	0.659
795.32	0.664
795.50	0.653
795.68	0.647
795.86	0.654
796.04	0.656
796.21	0.649
796.39	0.646
796.57	0.663
796.75	0.671
796.92	0.670
797.10	0.674
797.28	0.677
797.46	0.678
797.64	0.678
797.81	0.684
797.99	0.688
798.17	0.693
798.35	0.685
798.52	0.688
798.70	0.684
798.88	0.696
799.06	0.695
799.23	0.700
799.41	0.712
799.59	0.704
799.77	0.692
799.94	0.702
800.12	0.713
800.30	0.731
800.48	0.729
800.65	0.729
800.83	0.718
801.01	0.709
801.19	0.708
801.36	0.702
801.54	0.707
801.72	0.720
801.90	0.704
802.07	0.700
802.25	0.685
802.43	0.667
802.60	0.660
802.78	0.667
802.96	0.674
803.14	0.666
803.31	0.665
803.49	0.664
803.67	0.658
803.84	0.663
804.02	0.653
804.20	0.658
804.38	0.665
804.55	0.665
804.73	0.649
804.91	0.649
805.08	0.662
805.26	0.658
805.44	0.728
805.61	0.733
805.79	0.732
805.97	0.732
806.15	0.722
806.32	0.715
806.50	0.725
806.68	0.726
806.85	0.716
807.03	0.706
807.21	0.725
807.38	0.651
807.56	0.639
807.74	0.648
807.91	0.655
808.09	0.657
808.27	0.677
808.44	0.703
808.62	0.715
808.80	0.718
808.97	0.712
809.15	0.706
809.33	0.726
809.50	0.736
809.68	0.722
809.86	0.730
810.03	0.767
810.21	0.745
810.39	0.724
810.56	0.728
810.74	0.754
810.91	0.833
811.09	0.821
811.27	0.845
811.44	0.851
811.62	0.852
811.80	0.832
811.97	0.796
812.15	0.798
812.33	0.792
812.50	0.776
812.68	0.761
812.85	0.702
813.03	0.702
813.21	0.668
813.38	0.660
813.56	0.665
813.74	0.677
813.91	0.686
814.09	0.717
814.26	0.712
814.44	0.717
814.62	0.707
814.79	0.710
814.97	0.718
815.14	0.723
815.32	0.731
815.50	0.750
815.67	0.754
815.85	0.743
816.02	0.731
816.20	0.738
816.38	0.756
816.55	0.761
816.73	0.761
816.90	0.770
817.08	0.805
817.26	0.806
817.43	0.782
817.61	0.809
817.78	0.834
817.96	0.811
818.13	0.801
818.31	0.801
818.49	0.819
818.66	0.805
818.84	0.790
819.01	0.765
819.19	0.778
819.36	0.782
819.54	0.748
819.71	0.795
819.89	0.810
820.07	0.822
820.24	0.814
820.42	0.812
820.59	0.840
820.77	0.867
820.94	0.858
821.12	0.876
821.29	0.894
821.47	0.895
821.64	0.823
821.82	0.840
822.00	0.840
822.17	0.839
822.35	0.832
822.52	0.833
822.70	0.822
822.87	0.832
823.05	0.808
823.22	0.820
823.40	0.855
823.57	0.882
823.75	0.856
823.92	0.889
824.10	0.913
824.27	0.958
824.45	0.948
824.62	1.031
824.80	1.060
824.97	1.080
825.15	1.068
825.32	1.090
825.50	1.094
825.67	1.116
825.85	1.078
826.02	1.110
826.20	1.157
826.37	1.369
826.55	1.228
826.72	1.633
826.90	1.914
827.07	2.262
827.25	1.845
827.42	-0.000
827.60	-0.000
827.77	-0.000
827.95	-0.000
828.12	-0.000
828.30	-0.000
828.47	-0.000
828.65	1.770
828.82	2.091
829.00	-0.000
829.17	-0.000
829.34	-0.000
829.52	-0.000
829.69	-0.000
829.87	-0.000
830.04	-0.000
830.22	-0.000
830.39	-0.000
830.57	-0.000
830.74	-0.000
830.92	-0.000
831.09	-0.000
831.26	-0.000
831.44	-0.000
831.61	-0.000
831.79	-0.000
831.96	-0.000
832.14	-0.000
832.31	-0.000
832.49	-0.000
832.66	-0.000
832.83	-0.000
833.01	-0.000
833.18	-0.000
833.36	-0.000
833.53	-0.000
833.70	-0.000
833.88	-0.000
834.05	-0.000
834.23	-0.000
834.40	-0.000
834.58	-0.000
834.75	-0.000
834.92	-0.000
835.10	-0.000
835.27	-0.000
835.45	-0.000
835.62	-0.000
835.79	-0.000
835.97	-0.000
836.14	-0.000
836.32	-0.000
836.49	-0.000
836.66	-0.000
836.84	-0.000
837.01	-0.000
837.18	-0.000
837.36	-0.000
837.53	-0.000
837.71	-0.000
837.88	-0.000
838.05	-0.000
838.23	-0.000
838.40	-0.000
838.58	-0.000
838.75	-0.000
838.92	-0.000
839.10	-0.000
839.27	-0.000
839.44	-0.000
839.62	-0.000
839.79	-0.000
839.96	-0.000
840.14	-0.000
840.31	-0.000
840.48	-0.000
840.66	-0.000
840.83	-0.000
841.01	-0.000
841.18	-0.000
841.35	-0.000
841.53	-0.000
841.70	-0.000
841.87	-0.000
842.05	-0.000
842.22	-0.000
842.39	-0.000
842.57	-0.000
842.74	-0.000
842.91	-0.000
843.09	-0.000
843.26	-0.000
843.43	-0.000
843.60	-0.000
843.78	-0.000
843.95	-0.000
844.12	-0.000
844.30	-0.000
844.47	-0.000
844.64	-0.000
844.82	-0.000
844.99	-0.000
845.16	-0.000
845.34	-0.000
845.51	-0.000
845.68	-0.000
845.85	-0.000
846.03	-0.000
846.20	-0.000
846.37	-0.000
846.55	-0.000
846.72	-0.000
846.89	-0.000
847.06	-0.000
847.24	-0.000
847.41	-0.000
847.58	-0.000
847.76	-0.000
847.93	-0.000
848.10	-0.000
848.27	-0.000
848.45	-0.000
848.62	-0.000
848.79	-0.000
848.97	-0.000
849.14	-0.000
849.31	-0.000
849.48	-0.000
849.66	-0.000
849.83	-0.000
850.00	-0.000
850.17	-0.000
850.35	-0.000
850.52	-0.000
850.69	-0.000
850.86	-0.000
851.04	-0.000
851.21	-0.000
851.38	-0.000
851.55	-0.000
851.72	-0.000
851.90	-0.000
852.07	-0.000
852.24	-0.000
852.41	-0.000
852.59	-0.000
852.76	-0.000
852.93	-0.000
853.10	-0.000
853.28	-0.000
853.45	-0.000
853.62	-0.000
853.79	-0.000
853.96	-0.000
854.14	-0.000
854.31	-0.000
854.48	-0.000
854.65	-0.000
854.82	-0.000
855.00	-0.000
855.17	-0.000
855.34	-0.000
855.51	-0.000
855.68	-0.000
855.86	-0.000
856.03	-0.000
856.20	-0.000
856.37	-0.000
856.54	-0.000
856.72	-0.000
856.89	-0.000
857.06	-0.000
857.23	-0.000
857.40	-0.000
857.57	-0.000
857.75	-0.000
857.92	-0.000
858.09	-0.000
858.26	-0.000
858.43	-0.000
858.60	-0.000
858.78	-0.000
858.95	-0.000
859.12	-0.000
859.29	-0.000
859.46	-0.000
859.63	-0.000
859.81	-0.000
859.98	-0.000
860.15	-0.000
860.32	-0.000
860.49	-0.000
860.66	-0.000
860.83	-0.000
861.01	-0.000
861.18	-0.000
861.35	-0.000
861.52	-0.000
861.69	-0.000
861.86	-0.000
862.03	-0.000
862.21	-0.000
862.38	-0.000
862.55	-0.000
862.72	-0.000
862.89	-0.000
863.06	-0.000
863.23	-0.000
863.40	-0.000
863.58	-0.000
863.75	-0.000
863.92	-0.000
864.09	-0.000
864.26	-0.000
864.43	-0.000
864.60	-0.000
864.77	-0.000
864.94	-0.000
865.11	-0.000
865.29	-0.000
865.46	-0.000
865.63	-0.000
865.80	-0.000
865.97	-0.000
866.14	-0.000
866.31	-0.000
866.48	-0.000
866.65	-0.000
866.82	-0.000
866.99	-0.000
867.16	-0.000
867.34	-0.000
867.51	-0.000
867.68	-0.000
867.85	-0.000
868.02	-0.000
868.19	-0.000
868.36	-0.000
868.53	-0.000
868.70	-0.000
868.87	-0.000
869.04	-0.000
869.21	-0.000
869.38	-0.000
869.55	-0.000
869.72	-0.000
869.89	-0.000
870.06	-0.000
870.24	-0.000
870.41	-0.000
870.58	-0.000
870.75	-0.000
870.92	-0.000
871.09	-0.000
871.26	-0.000
871.43	-0.000
871.60	-0.000
871.77	-0.000
871.94	-0.000
872.11	-0.000
872.28	-0.000
872.45	-0.000
872.62	-0.000
872.79	-0.000
872.96	-0.000
873.13	-0.000
873.30	-0.000
873.47	-0.000
873.64	-0.000
873.81	-0.000
873.98	-0.000
874.15	-0.000
874.32	-0.000
874.49	-0.000
874.66	-0.000
874.83	-0.000
875.00	-0.000
875.17	-0.000
875.34	-0.000
875.51	-0.000
875.68	-0.000
875.85	-0.000
876.02	-0.000
876.19	-0.000
876.36	-0.000
876.53	-0.000
876.70	-0.000
876.87	-0.000
877.04	-0.000
877.21	-0.000
877.38	-0.000
877.55	-0.000
877.72	-0.000
877.89	-0.000
878.06	-0.000
878.23	-0.000
878.39	-0.000
878.56	-0.000
878.73	-0.000
878.90	-0.000
879.07	-0.000
879.24	-0.000
879.41	-0.000
879.58	-0.000
879.75	-0.000
879.92	-0.000
880.09	-0.000
880.26	-0.000
880.43	-0.000
880.60	-0.000
880.77	-0.000
880.94	-0.000
881.11	-0.000
881.27	-0.000
881.44	-0.000
881.61	-0.000
881.78	-0.000
881.95	-0.000
882.12	-0.000
882.29	-0.000
882.46	-0.000
882.63	-0.000
882.80	-0.000
882.97	-0.000
883.14	-0.000
883.30	-0.000
883.47	-0.000
883.64	-0.000
883.81	-0.000
883.98	-0.000
884.15	-0.000
884.32	-0.000
884.49	-0.000
884.66	-0.000
884.82	-0.000
884.99	-0.000
885.16	-0.000
885.33	-0.000
885.50	-0.000
885.67	-0.000
885.84	-0.000
886.01	-0.000
886.17	-0.000
886.34	-0.000
886.51	-0.000
886.68	-0.000
886.85	-0.000
887.02	-0.000
887.19	-0.000
887.36	-0.000
887.52	-0.000
887.69	-0.000
887.86	-0.000
888.03	-0.000
888.20	-0.000
888.37	-0.000
888.54	-0.000
888.70	-0.000
888.87	-0.000
889.04	-0.000
889.21	-0.000
889.38	-0.000
889.55	-0.000
889.71	-0.000
889.88	-0.000
890.05	-0.000
890.22	-0.000
890.39	-0.000
>>>>>End Processed Spectral Data<<<<<
