SpectraSuite Data File
++++++++++++++++++++++++++++++++++++
Date: Fri Jun 19 13:52:39 CEST 2015
User: introlabs
Dark Spectrum Present: Yes
Reference Spectrum Present: Yes
Number of Sampled Component Spectra: 1
Spectrometers: USB4H08886
Integration Time (usec): 745692 (USB4H08886)
Spectra Averaged: 5 (USB4H08886)
Boxcar Smoothing: 5 (USB4H08886)
Correct for Electrical Dark: Yes (USB4H08886)
Strobe/Lamp Enabled: No (USB4H08886)
Correct for Detector Non-linearity: Yes (USB4H08886)
Correct for Stray Light: Yes (USB4H08886)
Number of Pixels in Processed Spectrum: 3648
>>>>>Begin Processed Spectral Data<<<<<
178.14	-0.000
178.36	-0.000
178.57	-0.000
178.79	-0.000
179.01	-0.000
179.22	-0.000
179.44	-0.000
179.65	-0.000
179.87	-0.000
180.08	-0.000
180.30	-0.000
180.52	-0.000
180.73	-0.000
180.95	-0.000
181.16	-0.000
181.38	-0.000
181.59	-0.000
181.81	-0.000
182.03	-0.000
182.24	-0.000
182.46	-0.000
182.67	-0.000
182.89	-0.000
183.10	-0.000
183.32	-0.000
183.54	-0.000
183.75	-0.000
183.97	-0.000
184.18	-0.000
184.40	-0.000
184.61	-0.000
184.83	-0.000
185.04	-0.000
185.26	-0.000
185.48	-0.000
185.69	-0.000
185.91	-0.000
186.12	-0.000
186.34	-0.000
186.55	-0.000
186.77	-0.000
186.98	-0.000
187.20	-0.000
187.42	-0.000
187.63	-0.000
187.85	-0.000
188.06	-0.000
188.28	-0.000
188.49	-0.000
188.71	-0.000
188.92	-0.000
189.14	-0.000
189.36	-0.000
189.57	-0.000
189.79	-0.000
190.00	-0.000
190.22	-0.000
190.43	-0.000
190.65	-0.000
190.86	-0.000
191.08	-0.000
191.29	-0.000
191.51	-0.000
191.72	-0.000
191.94	-0.000
192.16	-0.000
192.37	-0.000
192.59	-0.000
192.80	-0.000
193.02	-0.000
193.23	-0.000
193.45	-0.000
193.66	-0.000
193.88	-0.000
194.09	-0.000
194.31	-0.000
194.52	-0.000
194.74	-0.000
194.95	-0.000
195.17	-0.000
195.38	-0.000
195.60	-0.000
195.81	-0.000
196.03	-0.000
196.25	-0.000
196.46	-0.000
196.68	-0.000
196.89	-0.000
197.11	-0.000
197.32	-0.000
197.54	-0.000
197.75	-0.000
197.97	-0.000
198.18	-0.000
198.40	-0.000
198.61	-0.000
198.83	-0.000
199.04	-0.000
199.26	-0.000
199.47	-0.000
199.69	-0.000
199.90	-0.000
200.12	-0.000
200.33	-0.000
200.55	-0.000
200.76	-0.000
200.98	-0.000
201.19	-0.000
201.41	-0.000
201.62	-0.000
201.84	-0.000
202.05	-0.000
202.27	-0.000
202.48	-0.000
202.70	-0.000
202.91	-0.000
203.13	-0.000
203.34	-0.000
203.56	-0.000
203.77	-0.000
203.99	-0.000
204.20	-0.000
204.42	-0.000
204.63	-0.000
204.85	-0.000
205.06	-0.000
205.28	-0.000
205.49	-0.000
205.71	-0.000
205.92	-0.000
206.14	-0.000
206.35	-0.000
206.56	-0.000
206.78	-0.000
206.99	-0.000
207.21	-0.000
207.42	-0.000
207.64	-0.000
207.85	-0.000
208.07	-0.000
208.28	-0.000
208.50	-0.000
208.71	-0.000
208.93	-0.000
209.14	-0.000
209.36	-0.000
209.57	-0.000
209.79	-0.000
210.00	-0.000
210.22	-0.000
210.43	-0.000
210.64	-0.000
210.86	-0.000
211.07	-0.000
211.29	-0.000
211.50	-0.000
211.72	-0.000
211.93	-0.000
212.15	-0.000
212.36	-0.000
212.58	-0.000
212.79	-0.000
213.01	-0.000
213.22	-0.000
213.43	-0.000
213.65	-0.000
213.86	-0.000
214.08	-0.000
214.29	-0.000
214.51	-0.000
214.72	-0.000
214.94	-0.000
215.15	-0.000
215.36	-0.000
215.58	-0.000
215.79	-0.000
216.01	-0.000
216.22	-0.000
216.44	-0.000
216.65	-0.000
216.87	-0.000
217.08	-0.000
217.29	-0.000
217.51	-0.000
217.72	-0.000
217.94	-0.000
218.15	-0.000
218.37	-0.000
218.58	-0.000
218.80	-0.000
219.01	-0.000
219.22	-0.000
219.44	-0.000
219.65	-0.000
219.87	-0.000
220.08	-0.000
220.30	-0.000
220.51	-0.000
220.72	-0.000
220.94	-0.000
221.15	-0.000
221.37	-0.000
221.58	-0.000
221.79	-0.000
222.01	-0.000
222.22	-0.000
222.44	-0.000
222.65	-0.000
222.87	-0.000
223.08	-0.000
223.29	-0.000
223.51	-0.000
223.72	-0.000
223.94	-0.000
224.15	-0.000
224.36	-0.000
224.58	-0.000
224.79	-0.000
225.01	-0.000
225.22	-0.000
225.44	-0.000
225.65	-0.000
225.86	-0.000
226.08	-0.000
226.29	-0.000
226.51	-0.000
226.72	-0.000
226.93	-0.000
227.15	-0.000
227.36	-0.000
227.58	-0.000
227.79	-0.000
228.00	-0.000
228.22	-0.000
228.43	-0.000
228.65	-0.000
228.86	-0.000
229.07	-0.000
229.29	-0.000
229.50	-0.000
229.72	-0.000
229.93	-0.000
230.14	-0.000
230.36	-0.000
230.57	-0.000
230.78	-0.000
231.00	-0.000
231.21	-0.000
231.43	-0.000
231.64	-0.000
231.85	-0.000
232.07	-0.000
232.28	-0.000
232.50	-0.000
232.71	-0.000
232.92	-0.000
233.14	-0.000
233.35	-0.000
233.56	-0.000
233.78	-0.000
233.99	-0.000
234.21	-0.000
234.42	-0.000
234.63	-0.000
234.85	-0.000
235.06	-0.000
235.27	-0.000
235.49	-0.000
235.70	-0.000
235.91	-0.000
236.13	-0.000
236.34	-0.000
236.56	-0.000
236.77	-0.000
236.98	-0.000
237.20	-0.000
237.41	-0.000
237.62	-0.000
237.84	-0.000
238.05	-0.000
238.26	-0.000
238.48	-0.000
238.69	-0.000
238.91	-0.000
239.12	-0.000
239.33	-0.000
239.55	-0.000
239.76	-0.000
239.97	-0.000
240.19	-0.000
240.40	-0.000
240.61	-0.000
240.83	-0.000
241.04	-0.000
241.25	-0.000
241.47	-0.000
241.68	-0.000
241.89	-0.000
242.11	-0.000
242.32	-0.000
242.53	-0.000
242.75	-0.000
242.96	-0.000
243.17	-0.000
243.39	-0.000
243.60	-0.000
243.81	-0.000
244.03	-0.000
244.24	-0.000
244.45	-0.000
244.67	-0.000
244.88	-0.000
245.09	-0.000
245.31	-0.000
245.52	-0.000
245.73	-0.000
245.95	-0.000
246.16	-0.000
246.37	-0.000
246.59	-0.000
246.80	-0.000
247.01	-0.000
247.23	-0.000
247.44	-0.000
247.65	-0.000
247.87	-0.000
248.08	-0.000
248.29	-0.000
248.51	-0.000
248.72	-0.000
248.93	-0.000
249.15	-0.000
249.36	-0.000
249.57	-0.000
249.78	-0.000
250.00	-0.000
250.21	-0.000
250.42	-0.000
250.64	-0.000
250.85	-0.000
251.06	-0.000
251.28	-0.000
251.49	-0.000
251.70	-0.000
251.92	-0.000
252.13	-0.000
252.34	-0.000
252.55	-0.000
252.77	-0.000
252.98	-0.000
253.19	-0.000
253.41	-0.000
253.62	-0.000
253.83	-0.000
254.05	-0.000
254.26	-0.000
254.47	-0.000
254.68	-0.000
254.90	-0.000
255.11	-0.000
255.32	-0.000
255.54	-0.000
255.75	-0.000
255.96	-0.000
256.17	-0.000
256.39	-0.000
256.60	-0.000
256.81	-0.000
257.03	-0.000
257.24	-0.000
257.45	-0.000
257.66	-0.000
257.88	-0.000
258.09	-0.000
258.30	-0.000
258.51	-0.000
258.73	-0.000
258.94	-0.000
259.15	-0.000
259.37	-0.000
259.58	-0.000
259.79	-0.000
260.00	-0.000
260.22	-0.000
260.43	-0.000
260.64	-0.000
260.85	-0.000
261.07	-0.000
261.28	-0.000
261.49	-0.000
261.71	-0.000
261.92	-0.000
262.13	-0.000
262.34	-0.000
262.56	-0.000
262.77	-0.000
262.98	-0.000
263.19	-0.000
263.41	-0.000
263.62	-0.000
263.83	-0.000
264.04	-0.000
264.26	-0.000
264.47	-0.000
264.68	-0.000
264.89	-0.000
265.11	-0.000
265.32	-0.000
265.53	-0.000
265.74	-0.000
265.96	-0.000
266.17	-0.000
266.38	-0.000
266.59	-0.000
266.81	-0.000
267.02	-0.000
267.23	-0.000
267.44	-0.000
267.65	-0.000
267.87	-0.000
268.08	-0.000
268.29	-0.000
268.50	-0.000
268.72	-0.000
268.93	-0.000
269.14	-0.000
269.35	-0.000
269.57	-0.000
269.78	-0.000
269.99	-0.000
270.20	-0.000
270.41	-0.000
270.63	-0.000
270.84	-0.000
271.05	-0.000
271.26	-0.000
271.48	-0.000
271.69	-0.000
271.90	-0.000
272.11	-0.000
272.32	-0.000
272.54	-0.000
272.75	-0.000
272.96	-0.000
273.17	-0.000
273.39	-0.000
273.60	-0.000
273.81	-0.000
274.02	-0.000
274.23	-0.000
274.45	-0.000
274.66	-0.000
274.87	-0.000
275.08	-0.000
275.29	-0.000
275.51	-0.000
275.72	-0.000
275.93	-0.000
276.14	-0.000
276.35	-0.000
276.57	-0.000
276.78	-0.000
276.99	-0.000
277.20	-0.000
277.41	-0.000
277.63	-0.000
277.84	-0.000
278.05	-0.000
278.26	-0.000
278.47	-0.000
278.69	-0.000
278.90	-0.000
279.11	-0.000
279.32	-0.000
279.53	-0.000
279.74	-0.000
279.96	-0.000
280.17	-0.000
280.38	-0.000
280.59	-0.000
280.80	-0.000
281.02	-0.000
281.23	-0.000
281.44	-0.000
281.65	-0.000
281.86	-0.000
282.07	-0.000
282.29	-0.000
282.50	-0.000
282.71	-0.000
282.92	-0.000
283.13	-0.000
283.35	-0.000
283.56	-0.000
283.77	-0.000
283.98	-0.000
284.19	-0.000
284.40	-0.000
284.62	-0.000
284.83	-0.000
285.04	-0.000
285.25	-0.000
285.46	-0.000
285.67	-0.000
285.88	-0.000
286.10	-0.000
286.31	-0.000
286.52	-0.000
286.73	-0.000
286.94	-0.000
287.15	-0.000
287.37	-0.000
287.58	-0.000
287.79	-0.000
288.00	-0.000
288.21	-0.000
288.42	-0.000
288.63	-0.000
288.85	-0.000
289.06	-0.000
289.27	-0.000
289.48	-0.000
289.69	-0.000
289.90	-0.000
290.11	-0.000
290.33	-0.000
290.54	-0.000
290.75	-0.000
290.96	-0.000
291.17	-0.000
291.38	-0.000
291.59	-0.000
291.81	-0.000
292.02	-0.000
292.23	-0.000
292.44	-0.000
292.65	-0.000
292.86	-0.000
293.07	-0.000
293.28	-0.000
293.50	-0.000
293.71	-0.000
293.92	-0.000
294.13	-0.000
294.34	-0.000
294.55	-0.000
294.76	-0.000
294.97	-0.000
295.19	-0.000
295.40	-0.000
295.61	-0.000
295.82	-0.000
296.03	-0.000
296.24	-0.000
296.45	-0.000
296.66	2.681
296.87	2.942
297.09	-0.000
297.30	-0.000
297.51	2.321
297.72	2.178
297.93	2.646
298.14	2.406
298.35	2.191
298.56	2.117
298.77	2.730
298.99	2.530
299.20	2.338
299.41	2.218
299.62	2.086
299.83	2.032
300.04	1.882
300.25	1.858
300.46	1.943
300.67	1.891
300.88	1.784
301.10	1.793
301.31	1.921
301.52	1.801
301.73	1.693
301.94	1.700
302.15	1.731
302.36	1.653
302.57	1.557
302.78	1.563
302.99	1.623
303.20	1.644
303.41	1.507
303.63	1.486
303.84	1.496
304.05	1.493
304.26	1.408
304.47	1.412
304.68	1.417
304.89	1.406
305.10	1.356
305.31	1.341
305.52	1.391
305.73	1.384
305.94	1.335
306.15	1.326
306.37	1.354
306.58	1.369
306.79	1.331
307.00	1.360
307.21	1.410
307.42	1.404
307.63	1.358
307.84	1.316
308.05	1.360
308.26	1.365
308.47	1.335
308.68	1.330
308.89	1.332
309.10	1.330
309.31	1.279
309.52	1.268
309.73	1.281
309.95	1.272
310.16	1.241
310.37	1.230
310.58	1.246
310.79	1.245
311.00	1.238
311.21	1.238
311.42	1.239
311.63	1.232
311.84	1.208
312.05	1.208
312.26	1.234
312.47	1.247
312.68	1.219
312.89	1.200
313.10	1.206
313.31	1.176
313.52	1.177
313.73	1.176
313.94	1.182
314.15	1.162
314.36	1.138
314.57	1.130
314.78	1.117
314.99	1.109
315.21	1.097
315.42	1.105
315.63	1.118
315.84	1.093
316.05	1.079
316.26	1.085
316.47	1.106
316.68	1.101
316.89	1.078
317.10	1.099
317.31	1.106
317.52	1.105
317.73	1.080
317.94	1.079
318.15	1.125
318.36	1.124
318.57	1.105
318.78	1.094
318.99	1.134
319.20	1.132
319.41	1.095
319.62	1.098
319.83	1.115
320.04	1.109
320.25	1.096
320.46	1.060
320.67	1.064
320.88	1.059
321.09	1.042
321.30	1.026
321.51	1.043
321.72	1.042
321.93	1.023
322.14	1.014
322.35	1.043
322.56	1.046
322.77	1.032
322.98	1.044
323.19	1.053
323.40	1.060
323.61	1.037
323.82	1.032
324.03	1.038
324.24	1.035
324.45	1.021
324.66	1.000
324.87	0.996
325.08	0.996
325.29	0.974
325.50	0.967
325.71	0.971
325.92	0.978
326.13	0.964
326.34	0.965
326.55	0.973
326.76	0.972
326.97	0.959
327.18	0.954
327.39	0.982
327.60	0.983
327.80	0.983
328.01	0.982
328.22	0.983
328.43	0.985
328.64	0.972
328.85	0.978
329.06	0.981
329.27	0.982
329.48	0.976
329.69	0.955
329.90	0.966
330.11	0.959
330.32	0.951
330.53	0.943
330.74	0.945
330.95	0.942
331.16	0.925
331.37	0.931
331.58	0.932
331.79	0.932
332.00	0.923
332.21	0.915
332.42	0.920
332.63	0.911
332.83	0.906
333.04	0.908
333.25	0.921
333.46	0.921
333.67	0.907
333.88	0.910
334.09	0.921
334.30	0.917
334.51	0.909
334.72	0.904
334.93	0.908
335.14	0.907
335.35	0.900
335.56	0.896
335.77	0.905
335.98	0.903
336.18	0.895
336.39	0.889
336.60	0.892
336.81	0.889
337.02	0.888
337.23	0.892
337.44	0.895
337.65	0.896
337.86	0.885
338.07	0.879
338.28	0.885
338.49	0.882
338.70	0.875
338.91	0.882
339.11	0.890
339.32	0.886
339.53	0.875
339.74	0.871
339.95	0.868
340.16	0.865
340.37	0.858
340.58	0.856
340.79	0.860
341.00	0.858
341.21	0.847
341.41	0.849
341.62	0.851
341.83	0.851
342.04	0.846
342.25	0.857
342.46	0.862
342.67	0.861
342.88	0.853
343.09	0.853
343.30	0.860
343.50	0.862
343.71	0.852
343.92	0.851
344.13	0.856
344.34	0.856
344.55	0.839
344.76	0.838
344.97	0.843
345.18	0.842
345.38	0.839
345.59	0.834
345.80	0.835
346.01	0.832
346.22	0.827
346.43	0.821
346.64	0.829
346.85	0.829
347.06	0.821
347.26	0.821
347.47	0.826
347.68	0.820
347.89	0.815
348.10	0.810
348.31	0.817
348.52	0.816
348.73	0.813
348.93	0.809
349.14	0.812
349.35	0.812
349.56	0.805
349.77	0.800
349.98	0.807
350.19	0.804
350.39	0.799
350.60	0.794
350.81	0.810
351.02	0.809
351.23	0.806
351.44	0.808
351.65	0.811
351.86	0.808
352.06	0.807
352.27	0.807
352.48	0.810
352.69	0.810
352.90	0.804
353.11	0.789
353.31	0.797
353.52	0.792
353.73	0.783
353.94	0.785
354.15	0.791
354.36	0.791
354.57	0.783
354.77	0.784
354.98	0.783
355.19	0.783
355.40	0.782
355.61	0.788
355.82	0.793
356.02	0.793
356.23	0.786
356.44	0.787
356.65	0.791
356.86	0.790
357.07	0.784
357.27	0.788
357.48	0.790
357.69	0.786
357.90	0.771
358.11	0.768
358.32	0.771
358.52	0.774
358.73	0.764
358.94	0.766
359.15	0.771
359.36	0.771
359.56	0.766
359.77	0.764
359.98	0.771
360.19	0.770
360.40	0.767
360.61	0.768
360.81	0.767
361.02	0.768
361.23	0.759
361.44	0.758
361.65	0.758
361.85	0.757
362.06	0.754
362.27	0.757
362.48	0.757
362.69	0.759
362.89	0.752
363.10	0.754
363.31	0.759
363.52	0.762
363.73	0.757
363.93	0.758
364.14	0.761
364.35	0.763
364.56	0.751
364.77	0.753
364.97	0.755
365.18	0.757
365.39	0.750
365.60	0.746
365.81	0.747
366.01	0.747
366.22	0.744
366.43	0.743
366.64	0.745
366.84	0.751
367.05	0.748
367.26	0.748
367.47	0.750
367.68	0.749
367.88	0.746
368.09	0.745
368.30	0.746
368.51	0.746
368.71	0.744
368.92	0.750
369.13	0.748
369.34	0.746
369.55	0.745
369.75	0.745
369.96	0.752
370.17	0.752
370.38	0.748
370.58	0.748
370.79	0.755
371.00	0.753
371.21	0.743
371.41	0.749
371.62	0.754
371.83	0.750
372.04	0.746
372.24	0.739
372.45	0.741
372.66	0.741
372.87	0.737
373.07	0.734
373.28	0.735
373.49	0.738
373.70	0.728
373.90	0.726
374.11	0.735
374.32	0.736
374.53	0.735
374.73	0.735
374.94	0.738
375.15	0.738
375.36	0.734
375.56	0.743
375.77	0.743
375.98	0.744
376.19	0.741
376.39	0.735
376.60	0.738
376.81	0.738
377.02	0.736
377.22	0.735
377.43	0.735
377.64	0.735
377.84	0.725
378.05	0.730
378.26	0.737
378.47	0.737
378.67	0.733
378.88	0.731
379.09	0.731
379.30	0.732
379.50	0.729
379.71	0.731
379.92	0.735
380.12	0.735
380.33	0.727
380.54	0.722
380.75	0.729
380.95	0.728
381.16	0.727
381.37	0.727
381.57	0.727
381.78	0.728
381.99	0.727
382.20	0.725
382.40	0.728
382.61	0.728
382.82	0.724
383.02	0.718
383.23	0.722
383.44	0.721
383.64	0.720
383.85	0.723
384.06	0.726
384.27	0.725
384.47	0.723
384.68	0.723
384.89	0.729
385.09	0.729
385.30	0.728
385.51	0.727
385.71	0.731
385.92	0.730
386.13	0.728
386.33	0.730
386.54	0.731
386.75	0.730
386.95	0.726
387.16	0.721
387.37	0.724
387.58	0.724
387.78	0.721
387.99	0.718
388.20	0.721
388.40	0.718
388.61	0.714
388.82	0.717
389.02	0.719
389.23	0.719
389.44	0.717
389.64	0.717
389.85	0.729
390.06	0.729
390.26	0.729
390.47	0.727
390.68	0.729
390.88	0.727
391.09	0.723
391.30	0.723
391.50	0.723
391.71	0.724
391.92	0.721
392.12	0.712
392.33	0.713
392.53	0.713
392.74	0.713
392.95	0.712
393.15	0.715
393.36	0.717
393.57	0.714
393.77	0.718
393.98	0.719
394.19	0.719
394.39	0.718
394.60	0.720
394.81	0.721
395.01	0.720
395.22	0.718
395.43	0.719
395.63	0.723
395.84	0.724
396.04	0.719
396.25	0.721
396.46	0.723
396.66	0.722
396.87	0.719
397.08	0.716
397.28	0.719
397.49	0.720
397.69	0.716
397.90	0.711
398.11	0.713
398.31	0.714
398.52	0.710
398.73	0.711
398.93	0.710
399.14	0.709
399.34	0.708
399.55	0.709
399.76	0.709
399.96	0.710
400.17	0.708
400.37	0.707
400.58	0.713
400.79	0.715
400.99	0.713
401.20	0.718
401.41	0.721
401.61	0.722
401.82	0.726
402.02	0.726
402.23	0.727
402.44	0.727
402.64	0.726
402.85	0.721
403.05	0.719
403.26	0.718
403.47	0.712
403.67	0.710
403.88	0.711
404.08	0.706
404.29	0.704
404.50	0.704
404.70	0.704
404.91	0.703
405.11	0.700
405.32	0.701
405.52	0.701
405.73	0.701
405.94	0.699
406.14	0.702
406.35	0.704
406.55	0.704
406.76	0.701
406.97	0.702
407.17	0.704
407.38	0.704
407.58	0.702
407.79	0.705
407.99	0.707
408.20	0.708
408.41	0.703
408.61	0.701
408.82	0.702
409.02	0.701
409.23	0.699
409.43	0.698
409.64	0.699
409.84	0.699
410.05	0.695
410.26	0.694
410.46	0.693
410.67	0.693
410.87	0.694
411.08	0.697
411.28	0.698
411.49	0.700
411.69	0.697
411.90	0.699
412.11	0.700
412.31	0.701
412.52	0.700
412.72	0.701
412.93	0.702
413.13	0.700
413.34	0.696
413.54	0.697
413.75	0.699
413.95	0.699
414.16	0.696
414.37	0.699
414.57	0.699
414.78	0.701
414.98	0.699
415.19	0.700
415.39	0.698
415.60	0.700
415.80	0.700
416.01	0.698
416.21	0.700
416.42	0.699
416.62	0.694
416.83	0.695
417.03	0.694
417.24	0.694
417.44	0.692
417.65	0.691
417.86	0.692
418.06	0.690
418.27	0.687
418.47	0.689
418.68	0.690
418.88	0.690
419.09	0.688
419.29	0.688
419.50	0.689
419.70	0.688
419.91	0.686
420.11	0.684
420.32	0.687
420.52	0.687
420.73	0.686
420.93	0.687
421.14	0.689
421.34	0.688
421.55	0.684
421.75	0.685
421.96	0.686
422.16	0.686
422.37	0.685
422.57	0.683
422.78	0.685
422.98	0.682
423.19	0.679
423.39	0.678
423.60	0.682
423.80	0.683
424.01	0.682
424.21	0.684
424.42	0.686
424.62	0.686
424.83	0.684
425.03	0.684
425.23	0.686
425.44	0.686
425.64	0.686
425.85	0.685
426.05	0.686
426.26	0.687
426.46	0.682
426.67	0.681
426.87	0.686
427.08	0.687
427.28	0.685
427.49	0.686
427.69	0.687
427.90	0.685
428.10	0.682
428.31	0.682
428.51	0.684
428.71	0.683
428.92	0.684
429.12	0.681
429.33	0.682
429.53	0.685
429.74	0.689
429.94	0.690
430.15	0.690
430.35	0.690
430.56	0.687
430.76	0.686
430.96	0.687
431.17	0.685
431.37	0.682
431.58	0.681
431.78	0.678
431.99	0.670
432.19	0.672
432.40	0.674
432.60	0.674
432.80	0.677
433.01	0.674
433.21	0.674
433.42	0.676
433.62	0.677
433.83	0.675
434.03	0.678
434.23	0.681
434.44	0.680
434.64	0.678
434.85	0.683
435.05	0.685
435.26	0.685
435.46	0.684
435.66	0.683
435.87	0.682
436.07	0.683
436.28	0.678
436.48	0.675
436.69	0.674
436.89	0.675
437.09	0.668
437.30	0.667
437.50	0.668
437.71	0.679
437.91	0.678
438.11	0.680
438.32	0.684
438.52	0.685
438.73	0.684
438.93	0.682
439.13	0.682
439.34	0.686
439.54	0.683
439.75	0.684
439.95	0.675
440.15	0.679
440.36	0.678
440.56	0.675
440.77	0.677
440.97	0.677
441.17	0.675
441.38	0.677
441.58	0.674
441.79	0.674
441.99	0.671
442.19	0.670
442.40	0.668
442.60	0.668
442.81	0.665
443.01	0.665
443.21	0.666
443.42	0.666
443.62	0.663
443.82	0.663
444.03	0.665
444.23	0.666
444.44	0.666
444.64	0.664
444.84	0.666
445.05	0.666
445.25	0.663
445.45	0.663
445.66	0.666
445.86	0.666
446.06	0.667
446.27	0.666
446.47	0.669
446.68	0.667
446.88	0.667
447.08	0.666
447.29	0.668
447.49	0.668
447.69	0.668
447.90	0.667
448.10	0.670
448.30	0.667
448.51	0.668
448.71	0.665
448.91	0.668
449.12	0.666
449.32	0.668
449.52	0.667
449.73	0.671
449.93	0.670
450.14	0.671
450.34	0.670
450.54	0.673
450.75	0.670
450.95	0.670
451.15	0.669
451.36	0.672
451.56	0.669
451.76	0.668
451.97	0.664
452.17	0.665
452.37	0.663
452.58	0.660
452.78	0.660
452.98	0.662
453.19	0.662
453.39	0.662
453.59	0.661
453.79	0.663
454.00	0.663
454.20	0.662
454.40	0.663
454.61	0.665
454.81	0.666
455.01	0.664
455.22	0.664
455.42	0.666
455.62	0.664
455.83	0.662
456.03	0.665
456.23	0.666
456.44	0.666
456.64	0.665
456.84	0.665
457.04	0.666
457.25	0.665
457.45	0.662
457.65	0.661
457.86	0.663
458.06	0.663
458.26	0.658
458.47	0.658
458.67	0.660
458.87	0.660
459.07	0.657
459.28	0.659
459.48	0.662
459.68	0.661
459.89	0.660
460.09	0.659
460.29	0.660
460.49	0.662
460.70	0.661
460.90	0.661
461.10	0.661
461.31	0.661
461.51	0.658
461.71	0.660
461.91	0.661
462.12	0.661
462.32	0.660
462.52	0.660
462.72	0.663
462.93	0.663
463.13	0.661
463.33	0.662
463.53	0.664
463.74	0.663
463.94	0.658
464.14	0.659
464.35	0.660
464.55	0.661
464.75	0.658
464.95	0.656
465.16	0.659
465.36	0.658
465.56	0.656
465.76	0.656
465.97	0.657
466.17	0.657
466.37	0.655
466.57	0.656
466.78	0.657
466.98	0.657
467.18	0.655
467.38	0.653
467.59	0.655
467.79	0.656
467.99	0.655
468.19	0.656
468.39	0.660
468.60	0.660
468.80	0.658
469.00	0.659
469.20	0.660
469.41	0.660
469.61	0.660
469.81	0.660
470.01	0.660
470.22	0.661
470.42	0.659
470.62	0.657
470.82	0.659
471.02	0.658
471.23	0.656
471.43	0.656
471.63	0.660
471.83	0.659
472.04	0.656
472.24	0.655
472.44	0.660
472.64	0.660
472.84	0.658
473.05	0.657
473.25	0.659
473.45	0.658
473.65	0.656
473.85	0.656
474.06	0.658
474.26	0.657
474.46	0.658
474.66	0.655
474.86	0.655
475.07	0.656
475.27	0.654
475.47	0.652
475.67	0.652
475.87	0.655
476.08	0.651
476.28	0.652
476.48	0.654
476.68	0.653
476.88	0.650
477.09	0.652
477.29	0.653
477.49	0.653
477.69	0.652
477.89	0.652
478.09	0.652
478.30	0.654
478.50	0.651
478.70	0.651
478.90	0.651
479.10	0.654
479.31	0.654
479.51	0.652
479.71	0.653
479.91	0.653
480.11	0.653
480.31	0.653
480.52	0.652
480.72	0.652
480.92	0.650
481.12	0.649
481.32	0.647
481.52	0.645
481.72	0.645
481.93	0.649
482.13	0.650
482.33	0.649
482.53	0.647
482.73	0.648
482.93	0.649
483.14	0.649
483.34	0.648
483.54	0.649
483.74	0.648
483.94	0.648
484.14	0.643
484.34	0.643
484.55	0.644
484.75	0.644
484.95	0.642
485.15	0.641
485.35	0.641
485.55	0.640
485.75	0.639
485.96	0.639
486.16	0.640
486.36	0.640
486.56	0.638
486.76	0.638
486.96	0.638
487.16	0.638
487.36	0.636
487.57	0.636
487.77	0.637
487.97	0.637
488.17	0.635
488.37	0.634
488.57	0.635
488.77	0.635
488.97	0.634
489.18	0.633
489.38	0.636
489.58	0.636
489.78	0.636
489.98	0.635
490.18	0.635
490.38	0.636
490.58	0.635
490.78	0.635
490.98	0.637
491.19	0.638
491.39	0.637
491.59	0.636
491.79	0.639
491.99	0.639
492.19	0.638
492.39	0.642
492.59	0.642
492.79	0.644
492.99	0.644
493.20	0.644
493.40	0.644
493.60	0.646
493.80	0.644
494.00	0.642
494.20	0.643
494.40	0.643
494.60	0.639
494.80	0.644
495.00	0.643
495.20	0.641
495.40	0.639
495.61	0.641
495.81	0.641
496.01	0.644
496.21	0.645
496.41	0.644
496.61	0.644
496.81	0.643
497.01	0.638
497.21	0.638
497.41	0.639
497.61	0.638
497.81	0.636
498.01	0.637
498.21	0.635
498.41	0.633
498.61	0.633
498.82	0.635
499.02	0.637
499.22	0.637
499.42	0.637
499.62	0.638
499.82	0.639
500.02	0.640
500.22	0.638
500.42	0.640
500.62	0.641
500.82	0.641
501.02	0.639
501.22	0.639
501.42	0.639
501.62	0.641
501.82	0.640
502.02	0.641
502.22	0.640
502.42	0.641
502.62	0.639
502.82	0.639
503.02	0.639
503.22	0.639
503.42	0.637
503.63	0.637
503.83	0.635
504.03	0.634
504.23	0.633
504.43	0.633
504.63	0.635
504.83	0.634
505.03	0.633
505.23	0.635
505.43	0.637
505.63	0.638
505.83	0.638
506.03	0.640
506.23	0.641
506.43	0.642
506.63	0.641
506.83	0.639
507.03	0.642
507.23	0.642
507.43	0.639
507.63	0.640
507.83	0.640
508.03	0.640
508.23	0.639
508.43	0.638
508.63	0.640
508.83	0.640
509.03	0.641
509.23	0.640
509.43	0.641
509.63	0.641
509.83	0.640
510.03	0.643
510.23	0.645
510.43	0.645
510.63	0.646
510.83	0.646
511.03	0.647
511.23	0.645
511.43	0.644
511.63	0.646
511.83	0.648
512.03	0.648
512.22	0.645
512.42	0.644
512.62	0.645
512.82	0.644
513.02	0.642
513.22	0.642
513.42	0.644
513.62	0.647
513.82	0.646
514.02	0.645
514.22	0.647
514.42	0.647
514.62	0.647
514.82	0.647
515.02	0.650
515.22	0.653
515.42	0.651
515.62	0.654
515.82	0.653
516.02	0.654
516.22	0.653
516.42	0.655
516.62	0.657
516.82	0.658
517.01	0.656
517.21	0.655
517.41	0.659
517.61	0.660
517.81	0.656
518.01	0.656
518.21	0.655
518.41	0.654
518.61	0.653
518.81	0.653
519.01	0.653
519.21	0.653
519.41	0.652
519.61	0.647
519.81	0.649
520.00	0.650
520.20	0.649
520.40	0.653
520.60	0.655
520.80	0.654
521.00	0.654
521.20	0.655
521.40	0.660
521.60	0.660
521.80	0.659
522.00	0.659
522.20	0.663
522.39	0.662
522.59	0.658
522.79	0.660
522.99	0.661
523.19	0.659
523.39	0.657
523.59	0.655
523.79	0.659
523.99	0.661
524.19	0.660
524.38	0.658
524.58	0.659
524.78	0.659
524.98	0.657
525.18	0.660
525.38	0.661
525.58	0.661
525.78	0.659
525.98	0.658
526.18	0.659
526.37	0.658
526.57	0.660
526.77	0.659
526.97	0.660
527.17	0.661
527.37	0.656
527.57	0.659
527.77	0.661
527.96	0.661
528.16	0.659
528.36	0.660
528.56	0.662
528.76	0.659
528.96	0.659
529.16	0.660
529.36	0.663
529.55	0.663
529.75	0.660
529.95	0.660
530.15	0.661
530.35	0.664
530.55	0.661
530.75	0.662
530.94	0.664
531.14	0.664
531.34	0.662
531.54	0.660
531.74	0.664
531.94	0.667
532.13	0.664
532.33	0.667
532.53	0.666
532.73	0.666
532.93	0.664
533.13	0.664
533.33	0.665
533.52	0.665
533.72	0.668
533.92	0.666
534.12	0.664
534.32	0.665
534.52	0.663
534.71	0.664
534.91	0.668
535.11	0.669
535.31	0.667
535.51	0.669
535.71	0.671
535.90	0.669
536.10	0.670
536.30	0.672
536.50	0.673
536.70	0.673
536.89	0.671
537.09	0.670
537.29	0.672
537.49	0.672
537.69	0.671
537.89	0.671
538.08	0.671
538.28	0.669
538.48	0.669
538.68	0.671
538.88	0.672
539.07	0.672
539.27	0.671
539.47	0.669
539.67	0.669
539.87	0.670
540.06	0.668
540.26	0.669
540.46	0.671
540.66	0.668
540.86	0.665
541.05	0.666
541.25	0.667
541.45	0.667
541.65	0.666
541.84	0.668
542.04	0.668
542.24	0.669
542.44	0.668
542.64	0.669
542.83	0.672
543.03	0.673
543.23	0.671
543.43	0.672
543.62	0.673
543.82	0.673
544.02	0.672
544.22	0.672
544.42	0.675
544.61	0.675
544.81	0.672
545.01	0.671
545.21	0.673
545.40	0.673
545.60	0.671
545.80	0.673
546.00	0.674
546.19	0.674
546.39	0.673
546.59	0.670
546.79	0.673
546.98	0.672
547.18	0.671
547.38	0.672
547.58	0.675
547.77	0.675
547.97	0.671
548.17	0.672
548.37	0.673
548.56	0.673
548.76	0.672
548.96	0.673
549.16	0.677
549.35	0.677
549.55	0.674
549.75	0.675
549.95	0.678
550.14	0.679
550.34	0.677
550.54	0.683
550.73	0.687
550.93	0.687
551.13	0.684
551.33	0.681
551.52	0.683
551.72	0.683
551.92	0.681
552.12	0.682
552.31	0.683
552.51	0.683
552.71	0.678
552.90	0.678
553.10	0.680
553.30	0.680
553.50	0.679
553.69	0.680
553.89	0.681
554.09	0.680
554.28	0.677
554.48	0.678
554.68	0.680
554.87	0.679
555.07	0.677
555.27	0.676
555.47	0.678
555.66	0.679
555.86	0.677
556.06	0.679
556.25	0.682
556.45	0.689
556.65	0.688
556.84	0.691
557.04	0.695
557.24	0.696
557.43	0.696
557.63	0.698
557.83	0.700
558.02	0.701
558.22	0.704
558.42	0.705
558.61	0.698
558.81	0.698
559.01	0.693
559.21	0.693
559.40	0.694
559.60	0.694
559.80	0.690
559.99	0.691
560.19	0.693
560.39	0.688
560.58	0.685
560.78	0.685
560.97	0.689
561.17	0.688
561.37	0.685
561.56	0.686
561.76	0.688
561.96	0.688
562.15	0.685
562.35	0.688
562.55	0.689
562.74	0.689
562.94	0.688
563.14	0.686
563.33	0.687
563.53	0.687
563.73	0.684
563.92	0.685
564.12	0.688
564.31	0.690
564.51	0.687
564.71	0.689
564.90	0.691
565.10	0.692
565.30	0.694
565.49	0.695
565.69	0.698
565.89	0.699
566.08	0.696
566.28	0.698
566.47	0.699
566.67	0.697
566.87	0.695
567.06	0.697
567.26	0.704
567.46	0.700
567.65	0.699
567.85	0.700
568.04	0.703
568.24	0.702
568.44	0.699
568.63	0.698
568.83	0.699
569.02	0.698
569.22	0.692
569.42	0.688
569.61	0.691
569.81	0.689
570.00	0.686
570.20	0.688
570.40	0.689
570.59	0.689
570.79	0.687
570.98	0.685
571.18	0.686
571.38	0.686
571.57	0.683
571.77	0.681
571.96	0.685
572.16	0.682
572.35	0.676
572.55	0.678
572.75	0.676
572.94	0.676
573.14	0.674
573.33	0.675
573.53	0.675
573.73	0.674
573.92	0.672
574.12	0.670
574.31	0.673
574.51	0.674
574.70	0.671
574.90	0.672
575.09	0.675
575.29	0.675
575.49	0.672
575.68	0.673
575.88	0.674
576.07	0.675
576.27	0.673
576.46	0.672
576.66	0.671
576.86	0.670
577.05	0.668
577.25	0.666
577.44	0.668
577.64	0.667
577.83	0.666
578.03	0.666
578.22	0.666
578.42	0.665
578.61	0.663
578.81	0.664
579.00	0.665
579.20	0.664
579.40	0.663
579.59	0.662
579.79	0.663
579.98	0.662
580.18	0.662
580.37	0.662
580.57	0.664
580.76	0.669
580.96	0.667
581.15	0.667
581.35	0.669
581.54	0.669
581.74	0.669
581.93	0.670
582.13	0.671
582.32	0.669
582.52	0.667
582.71	0.666
582.91	0.662
583.10	0.662
583.30	0.661
583.49	0.661
583.69	0.665
583.88	0.666
584.08	0.665
584.27	0.667
584.47	0.670
584.66	0.671
584.86	0.670
585.05	0.672
585.25	0.674
585.44	0.674
585.64	0.672
585.83	0.670
586.03	0.670
586.22	0.668
586.42	0.665
586.61	0.666
586.81	0.669
587.00	0.668
587.20	0.666
587.39	0.667
587.59	0.669
587.78	0.670
587.98	0.670
588.17	0.670
588.37	0.673
588.56	0.675
588.76	0.671
588.95	0.670
589.15	0.675
589.34	0.678
589.54	0.676
589.73	0.676
589.92	0.680
590.12	0.679
590.31	0.677
590.51	0.682
590.70	0.685
590.90	0.685
591.09	0.683
591.29	0.682
591.48	0.681
591.68	0.683
591.87	0.681
592.06	0.680
592.26	0.683
592.45	0.682
592.65	0.676
592.84	0.675
593.04	0.678
593.23	0.680
593.43	0.677
593.62	0.677
593.81	0.677
594.01	0.677
594.20	0.674
594.40	0.674
594.59	0.676
594.79	0.677
594.98	0.676
595.17	0.675
595.37	0.676
595.56	0.677
595.76	0.676
595.95	0.678
596.14	0.681
596.34	0.682
596.53	0.680
596.73	0.681
596.92	0.683
597.12	0.685
597.31	0.685
597.50	0.684
597.70	0.687
597.89	0.687
598.09	0.682
598.28	0.683
598.47	0.686
598.67	0.685
598.86	0.681
599.06	0.682
599.25	0.683
599.44	0.681
599.64	0.678
599.83	0.676
600.03	0.679
600.22	0.680
600.41	0.680
600.61	0.678
600.80	0.680
601.00	0.681
601.19	0.677
601.38	0.675
601.58	0.678
601.77	0.679
601.96	0.682
602.16	0.682
602.35	0.691
602.55	0.688
602.74	0.689
602.93	0.691
603.13	0.696
603.32	0.697
603.51	0.696
603.71	0.699
603.90	0.701
604.09	0.702
604.29	0.698
604.48	0.692
604.68	0.694
604.87	0.692
605.06	0.688
605.26	0.685
605.45	0.686
605.64	0.685
605.84	0.680
606.03	0.679
606.22	0.677
606.42	0.677
606.61	0.674
606.80	0.674
607.00	0.676
607.19	0.676
607.38	0.674
607.58	0.675
607.77	0.679
607.96	0.679
608.16	0.677
608.35	0.683
608.54	0.686
608.74	0.689
608.93	0.694
609.12	0.697
609.32	0.700
609.51	0.703
609.70	0.702
609.90	0.704
610.09	0.708
610.28	0.713
610.48	0.706
610.67	0.707
610.86	0.708
611.06	0.703
611.25	0.700
611.44	0.701
611.64	0.701
611.83	0.704
612.02	0.701
612.21	0.699
612.41	0.699
612.60	0.699
612.79	0.693
612.99	0.694
613.18	0.696
613.37	0.694
613.57	0.691
613.76	0.693
613.95	0.690
614.14	0.689
614.34	0.686
614.53	0.687
614.72	0.690
614.92	0.691
615.11	0.687
615.30	0.684
615.49	0.686
615.69	0.689
615.88	0.685
616.07	0.686
616.26	0.689
616.46	0.690
616.65	0.686
616.84	0.685
617.04	0.687
617.23	0.690
617.42	0.689
617.61	0.694
617.81	0.694
618.00	0.696
618.19	0.695
618.38	0.699
618.58	0.703
618.77	0.704
618.96	0.703
619.15	0.705
619.35	0.707
619.54	0.708
619.73	0.703
619.92	0.705
620.12	0.710
620.31	0.711
620.50	0.705
620.69	0.706
620.89	0.709
621.08	0.709
621.27	0.708
621.46	0.707
621.66	0.711
621.85	0.712
622.04	0.707
622.23	0.708
622.43	0.709
622.62	0.709
622.81	0.707
623.00	0.706
623.19	0.710
623.39	0.708
623.58	0.706
623.77	0.705
623.96	0.708
624.16	0.706
624.35	0.700
624.54	0.704
624.73	0.708
624.92	0.706
625.12	0.704
625.31	0.704
625.50	0.708
625.69	0.708
625.88	0.704
626.08	0.704
626.27	0.706
626.46	0.707
626.65	0.704
626.84	0.705
627.04	0.711
627.23	0.711
627.42	0.708
627.61	0.709
627.80	0.713
628.00	0.713
628.19	0.711
628.38	0.715
628.57	0.718
628.76	0.717
628.96	0.712
629.15	0.713
629.34	0.716
629.53	0.717
629.72	0.712
629.91	0.712
630.11	0.716
630.30	0.716
630.49	0.718
630.68	0.719
630.87	0.724
631.06	0.726
631.26	0.720
631.45	0.722
631.64	0.730
631.83	0.732
632.02	0.729
632.21	0.729
632.41	0.737
632.60	0.732
632.79	0.729
632.98	0.729
633.17	0.730
633.36	0.732
633.55	0.727
633.75	0.723
633.94	0.725
634.13	0.724
634.32	0.720
634.51	0.713
634.70	0.716
634.89	0.716
635.09	0.712
635.28	0.713
635.47	0.715
635.66	0.718
635.85	0.714
636.04	0.716
636.23	0.722
636.43	0.723
636.62	0.723
636.81	0.721
637.00	0.723
637.19	0.727
637.38	0.723
637.57	0.723
637.76	0.723
637.95	0.725
638.15	0.720
638.34	0.716
638.53	0.720
638.72	0.722
638.91	0.719
639.10	0.717
639.29	0.717
639.48	0.718
639.67	0.718
639.87	0.717
640.06	0.723
640.25	0.723
640.44	0.725
640.63	0.724
640.82	0.726
641.01	0.726
641.20	0.724
641.39	0.727
641.58	0.730
641.78	0.728
641.97	0.724
642.16	0.738
642.35	0.739
642.54	0.737
642.73	0.732
642.92	0.730
643.11	0.734
643.30	0.735
643.49	0.730
643.68	0.732
643.87	0.734
644.06	0.734
644.25	0.713
644.45	0.715
644.64	0.718
644.83	0.718
645.02	0.715
645.21	0.714
645.40	0.717
645.59	0.716
645.78	0.711
645.97	0.714
646.16	0.715
646.35	0.714
646.54	0.712
646.73	0.713
646.92	0.715
647.11	0.715
647.30	0.710
647.49	0.711
647.68	0.711
647.88	0.710
648.07	0.702
648.26	0.706
648.45	0.708
648.64	0.705
648.83	0.702
649.02	0.705
649.21	0.715
649.40	0.715
649.59	0.710
649.78	0.711
649.97	0.726
650.16	0.725
650.35	0.718
650.54	0.720
650.73	0.729
650.92	0.726
651.11	0.718
651.30	0.715
651.49	0.720
651.68	0.720
651.87	0.715
652.06	0.704
652.25	0.707
652.44	0.711
652.63	0.708
652.82	0.707
653.01	0.706
653.20	0.704
653.39	0.691
653.58	0.688
653.77	0.688
653.96	0.683
654.15	0.676
654.34	0.674
654.53	0.669
654.72	0.663
654.91	0.654
655.10	0.650
655.29	0.649
655.48	0.647
655.67	0.642
655.86	0.639
656.05	0.638
656.24	0.637
656.43	0.632
656.62	0.631
656.81	0.632
657.00	0.630
657.19	0.627
657.38	0.627
657.57	0.627
657.76	0.630
657.95	0.627
658.14	0.631
658.33	0.634
658.51	0.639
658.70	0.639
658.89	0.639
659.08	0.649
659.27	0.656
659.46	0.656
659.65	0.662
659.84	0.664
660.03	0.668
660.22	0.668
660.41	0.673
660.60	0.672
660.79	0.674
660.98	0.681
661.17	0.681
661.36	0.680
661.55	0.682
661.74	0.680
661.92	0.683
662.11	0.686
662.30	0.684
662.49	0.677
662.68	0.676
662.87	0.680
663.06	0.674
663.25	0.673
663.44	0.673
663.63	0.674
663.82	0.673
664.01	0.667
664.20	0.666
664.38	0.669
664.57	0.668
664.76	0.668
664.95	0.669
665.14	0.674
665.33	0.669
665.52	0.677
665.71	0.680
665.90	0.680
666.09	0.681
666.28	0.679
666.46	0.677
666.65	0.679
666.84	0.677
667.03	0.670
667.22	0.669
667.41	0.672
667.60	0.661
667.79	0.654
667.98	0.656
668.16	0.657
668.35	0.657
668.54	0.653
668.73	0.654
668.92	0.655
669.11	0.654
669.30	0.648
669.49	0.644
669.67	0.647
669.86	0.649
670.05	0.646
670.24	0.643
670.43	0.642
670.62	0.641
670.81	0.635
671.00	0.636
671.18	0.636
671.37	0.635
671.56	0.633
671.75	0.632
671.94	0.629
672.13	0.627
672.32	0.623
672.50	0.622
672.69	0.624
672.88	0.624
673.07	0.620
673.26	0.622
673.45	0.623
673.63	0.623
673.82	0.619
674.01	0.621
674.20	0.620
674.39	0.619
674.58	0.619
674.76	0.618
674.95	0.616
675.14	0.615
675.33	0.611
675.52	0.609
675.71	0.609
675.89	0.609
676.08	0.605
676.27	0.606
676.46	0.605
676.65	0.605
676.84	0.604
677.02	0.606
677.21	0.609
677.40	0.608
677.59	0.605
677.78	0.606
677.96	0.609
678.15	0.608
678.34	0.605
678.53	0.606
678.72	0.606
678.90	0.603
679.09	0.598
679.28	0.594
679.47	0.595
679.66	0.594
679.84	0.591
680.03	0.588
680.22	0.587
680.41	0.589
680.60	0.585
680.78	0.585
680.97	0.587
681.16	0.587
681.35	0.586
681.53	0.585
681.72	0.586
681.91	0.588
682.10	0.587
682.29	0.590
682.47	0.587
682.66	0.587
682.85	0.585
683.04	0.583
683.22	0.583
683.41	0.584
683.60	0.583
683.79	0.584
683.97	0.583
684.16	0.582
684.35	0.578
684.54	0.580
684.72	0.580
684.91	0.581
685.10	0.579
685.29	0.580
685.47	0.577
685.66	0.575
685.85	0.572
686.04	0.571
686.22	0.574
686.41	0.577
686.60	0.574
686.79	0.576
686.97	0.577
687.16	0.579
687.35	0.577
687.54	0.581
687.72	0.586
687.91	0.586
688.10	0.587
688.29	0.586
688.47	0.584
688.66	0.584
688.85	0.580
689.03	0.578
689.22	0.582
689.41	0.582
689.60	0.578
689.78	0.575
689.97	0.575
690.16	0.573
690.34	0.569
690.53	0.568
690.72	0.569
690.91	0.567
691.09	0.565
691.28	0.559
691.47	0.557
691.65	0.556
691.84	0.552
692.03	0.552
692.21	0.550
692.40	0.550
692.59	0.547
692.77	0.547
692.96	0.548
693.15	0.549
693.34	0.547
693.52	0.547
693.71	0.548
693.90	0.550
694.08	0.550
694.27	0.551
694.46	0.561
694.64	0.562
694.83	0.560
695.02	0.559
695.20	0.559
695.39	0.559
695.58	0.558
695.76	0.559
695.95	0.558
696.14	0.557
696.32	0.555
696.51	0.545
696.70	0.545
696.88	0.547
697.07	0.545
697.26	0.546
697.44	0.548
697.63	0.547
697.81	0.544
698.00	0.544
698.19	0.544
698.37	0.544
698.56	0.542
698.75	0.542
698.93	0.542
699.12	0.542
699.31	0.540
699.49	0.539
699.68	0.540
699.87	0.543
700.05	0.542
700.24	0.541
700.42	0.543
700.61	0.542
700.80	0.540
700.98	0.540
701.17	0.541
701.36	0.541
701.54	0.541
701.73	0.543
701.91	0.540
702.10	0.540
702.29	0.539
702.47	0.537
702.66	0.540
702.84	0.541
703.03	0.539
703.22	0.540
703.40	0.540
703.59	0.541
703.77	0.540
703.96	0.540
704.15	0.541
704.33	0.541
704.52	0.540
704.70	0.539
704.89	0.540
705.08	0.539
705.26	0.534
705.45	0.534
705.63	0.534
705.82	0.530
706.00	0.529
706.19	0.528
706.38	0.528
706.56	0.527
706.75	0.525
706.93	0.523
707.12	0.525
707.30	0.526
707.49	0.523
707.68	0.521
707.86	0.520
708.05	0.521
708.23	0.517
708.42	0.518
708.60	0.521
708.79	0.521
708.98	0.519
709.16	0.518
709.35	0.520
709.53	0.524
709.72	0.523
709.90	0.525
710.09	0.527
710.27	0.530
710.46	0.533
710.64	0.532
710.83	0.533
711.02	0.535
711.20	0.534
711.39	0.533
711.57	0.530
711.76	0.531
711.94	0.528
712.13	0.529
712.31	0.529
712.50	0.524
712.68	0.521
712.87	0.523
713.05	0.523
713.24	0.524
713.42	0.523
713.61	0.524
713.79	0.526
713.98	0.526
714.16	0.526
714.35	0.525
714.54	0.526
714.72	0.526
714.91	0.524
715.09	0.530
715.28	0.534
715.46	0.533
715.65	0.531
715.83	0.531
716.02	0.533
716.20	0.530
716.39	0.529
716.57	0.531
716.76	0.534
716.94	0.534
717.12	0.526
717.31	0.527
717.49	0.531
717.68	0.532
717.86	0.531
718.05	0.534
718.23	0.536
718.42	0.538
718.60	0.539
718.79	0.546
718.97	0.549
719.16	0.549
719.34	0.547
719.53	0.546
719.71	0.545
719.90	0.548
720.08	0.544
720.27	0.545
720.45	0.545
720.63	0.544
720.82	0.538
721.00	0.541
721.19	0.545
721.37	0.544
721.56	0.544
721.74	0.547
721.93	0.556
722.11	0.563
722.30	0.562
722.48	0.567
722.66	0.568
722.85	0.569
723.03	0.569
723.22	0.567
723.40	0.570
723.59	0.570
723.77	0.574
723.95	0.568
724.14	0.570
724.32	0.572
724.51	0.571
724.69	0.572
724.88	0.572
725.06	0.570
725.24	0.571
725.43	0.572
725.61	0.576
725.80	0.570
725.98	0.568
726.16	0.566
726.35	0.573
726.53	0.572
726.72	0.572
726.90	0.582
727.09	0.583
727.27	0.589
727.45	0.587
727.64	0.595
727.82	0.604
728.01	0.608
728.19	0.606
728.37	0.609
728.56	0.614
728.74	0.620
728.92	0.607
729.11	0.611
729.29	0.610
729.48	0.612
729.66	0.600
729.84	0.598
730.03	0.602
730.21	0.605
730.40	0.595
730.58	0.596
730.76	0.598
730.95	0.600
731.13	0.600
731.31	0.613
731.50	0.624
731.68	0.629
731.86	0.625
732.05	0.640
732.23	0.644
732.42	0.647
732.60	0.651
732.78	0.656
732.97	0.676
733.15	0.681
733.33	0.669
733.52	0.677
733.70	0.687
733.88	0.697
734.07	0.681
734.25	0.708
734.43	0.717
734.62	0.720
734.80	0.713
734.98	0.701
735.17	0.711
735.35	0.718
735.53	0.705
735.72	0.709
735.90	0.732
736.08	0.753
736.27	0.727
736.45	0.739
736.63	0.753
736.82	0.763
737.00	0.766
737.18	0.774
737.37	0.809
737.55	0.834
737.73	0.826
737.92	0.830
738.10	0.828
738.28	0.852
738.46	0.840
738.65	0.852
738.83	0.881
739.01	0.941
739.20	0.929
739.38	0.909
739.56	0.903
739.75	0.912
739.93	0.873
740.11	0.899
740.29	0.901
740.48	0.908
740.66	0.883
740.84	0.876
741.03	0.838
741.21	0.855
741.39	0.831
741.57	0.845
741.76	0.862
741.94	0.867
742.12	0.827
742.31	0.834
742.49	0.854
742.67	0.882
742.85	0.897
743.04	0.904
743.22	0.914
743.40	0.981
743.58	0.960
743.77	0.977
743.95	1.023
744.13	1.091
744.31	1.059
744.50	1.054
744.68	1.057
744.86	1.025
745.04	1.032
745.23	1.102
745.41	1.082
745.59	1.086
745.77	1.049
745.96	1.028
746.14	1.041
746.32	1.041
746.50	1.027
746.69	1.007
746.87	1.024
747.05	1.004
747.23	0.928
747.42	0.914
747.60	0.953
747.78	0.956
747.96	0.993
748.14	0.941
748.33	0.975
748.51	0.975
748.69	0.964
748.87	0.992
749.06	0.995
749.24	0.991
749.42	0.970
749.60	0.942
749.78	0.953
749.97	0.902
750.15	0.892
750.33	0.894
750.51	0.919
750.69	0.931
750.88	0.936
751.06	0.950
751.24	0.978
751.42	0.963
751.60	0.951
751.79	1.033
751.97	1.094
752.15	1.087
752.33	1.045
752.51	1.126
752.69	1.140
752.88	1.103
753.06	1.148
753.24	1.119
753.42	1.173
753.60	1.413
753.78	1.212
753.97	1.234
754.15	1.275
754.33	1.320
754.51	1.146
754.69	1.122
754.87	1.158
755.06	1.070
755.24	1.072
755.42	1.081
755.60	0.958
755.78	0.962
755.96	0.895
756.15	0.891
756.33	0.899
756.51	0.919
756.69	0.903
756.87	0.870
757.05	0.895
757.23	0.874
757.42	0.835
757.60	0.837
757.78	0.829
757.96	0.828
758.14	0.810
758.32	0.793
758.50	0.805
758.69	0.801
758.87	0.788
759.05	0.790
759.23	0.805
759.41	0.804
759.59	0.795
759.77	0.818
759.95	0.851
760.13	0.904
760.32	0.901
760.50	0.892
760.68	0.922
760.86	0.925
761.04	0.892
761.22	0.895
761.40	0.950
761.58	0.948
761.76	0.916
761.95	0.894
762.13	0.848
762.31	0.850
762.49	0.817
762.67	0.837
762.85	0.854
763.03	0.851
763.21	0.828
763.39	0.810
763.57	0.815
763.75	0.811
763.94	0.795
764.12	0.794
764.30	0.819
764.48	0.822
764.66	0.784
764.84	0.782
765.02	0.820
765.20	0.829
765.38	0.805
765.56	0.811
765.74	0.854
765.92	0.855
766.10	0.866
766.28	0.859
766.46	0.896
766.65	0.894
766.83	0.879
767.01	0.862
767.19	0.869
767.37	0.869
767.55	0.856
767.73	0.834
767.91	0.839
768.09	0.824
768.27	0.812
768.45	0.798
768.63	0.806
768.81	0.805
768.99	0.780
769.17	0.804
769.35	0.819
769.53	0.815
769.71	0.793
769.89	0.804
770.07	0.810
770.25	0.793
770.43	0.769
770.61	0.791
770.79	0.800
770.97	0.808
771.15	0.776
771.33	0.780
771.51	0.786
771.69	0.798
771.87	0.802
772.05	0.809
772.24	0.818
772.42	0.830
772.60	0.808
772.78	0.876
772.96	0.909
773.14	0.908
773.32	0.880
773.49	0.883
773.67	0.884
773.85	0.865
774.03	0.849
774.21	0.884
774.39	0.896
774.57	0.922
774.75	0.834
774.93	0.826
775.11	0.851
775.29	0.856
775.47	0.857
775.65	0.865
775.83	0.880
776.01	0.905
776.19	0.854
776.37	0.855
776.55	0.855
776.73	0.852
776.91	0.847
777.09	0.830
777.27	0.832
777.45	0.820
777.63	0.796
777.81	0.792
777.99	0.782
778.17	0.782
778.35	0.761
778.53	0.746
778.71	0.755
778.89	0.741
779.07	0.727
779.24	0.733
779.42	0.736
779.60	0.755
779.78	0.750
779.96	0.751
780.14	0.759
780.32	0.782
780.50	0.765
780.68	0.765
780.86	0.756
781.04	0.774
781.22	0.779
781.40	0.792
781.58	0.782
781.75	0.774
781.93	0.756
782.11	0.758
782.29	0.740
782.47	0.739
782.65	0.725
782.83	0.756
783.01	0.749
783.19	0.739
783.37	0.722
783.55	0.726
783.72	0.747
783.90	0.761
784.08	0.751
784.26	0.765
784.44	0.786
784.62	0.790
784.80	0.754
784.98	0.761
785.16	0.769
785.33	0.785
785.51	0.769
785.69	0.753
785.87	0.750
786.05	0.761
786.23	0.758
786.41	0.756
786.59	0.762
786.77	0.762
786.94	0.745
787.12	0.747
787.30	0.749
787.48	0.746
787.66	0.734
787.84	0.735
788.02	0.726
788.19	0.721
788.37	0.705
788.55	0.708
788.73	0.706
788.91	0.701
789.09	0.685
789.27	0.673
789.44	0.685
789.62	0.689
789.80	0.697
789.98	0.722
790.16	0.711
790.34	0.708
790.51	0.693
790.69	0.714
790.87	0.723
791.05	0.719
791.23	0.713
791.41	0.713
791.58	0.721
791.76	0.701
791.94	0.669
792.12	0.678
792.30	0.679
792.48	0.679
792.65	0.671
792.83	0.679
793.01	0.688
793.19	0.686
793.37	0.669
793.54	0.667
793.72	0.678
793.90	0.677
794.08	0.665
794.26	0.667
794.43	0.678
794.61	0.661
794.79	0.647
794.97	0.646
795.15	0.652
795.32	0.657
795.50	0.646
795.68	0.642
795.86	0.648
796.04	0.649
796.21	0.643
796.39	0.640
796.57	0.656
796.75	0.664
796.92	0.665
797.10	0.670
797.28	0.674
797.46	0.677
797.64	0.678
797.81	0.684
797.99	0.690
798.17	0.694
798.35	0.687
798.52	0.689
798.70	0.686
798.88	0.694
799.06	0.692
799.23	0.694
799.41	0.703
799.59	0.696
799.77	0.683
799.94	0.692
800.12	0.703
800.30	0.721
800.48	0.718
800.65	0.717
800.83	0.708
801.01	0.697
801.19	0.695
801.36	0.690
801.54	0.693
801.72	0.704
801.90	0.690
802.07	0.682
802.25	0.668
802.43	0.653
802.60	0.649
802.78	0.655
802.96	0.662
803.14	0.656
803.31	0.656
803.49	0.656
803.67	0.653
803.84	0.657
804.02	0.647
804.20	0.651
804.38	0.657
804.55	0.657
804.73	0.642
804.91	0.642
805.08	0.656
805.26	0.651
805.44	0.719
805.61	0.722
805.79	0.722
805.97	0.723
806.15	0.716
806.32	0.711
806.50	0.718
806.68	0.718
806.85	0.708
807.03	0.698
807.21	0.716
807.38	0.646
807.56	0.634
807.74	0.644
807.91	0.653
808.09	0.652
808.27	0.673
808.44	0.701
808.62	0.712
808.80	0.716
808.97	0.711
809.15	0.704
809.33	0.720
809.50	0.727
809.68	0.710
809.86	0.718
810.03	0.754
810.21	0.728
810.39	0.708
810.56	0.715
810.74	0.740
810.91	0.817
811.09	0.806
811.27	0.832
811.44	0.841
811.62	0.843
811.80	0.823
811.97	0.790
812.15	0.789
812.33	0.784
812.50	0.764
812.68	0.752
812.85	0.692
813.03	0.695
813.21	0.659
813.38	0.653
813.56	0.656
813.74	0.667
813.91	0.674
814.09	0.705
814.26	0.700
814.44	0.705
814.62	0.695
814.79	0.699
814.97	0.705
815.14	0.711
815.32	0.714
815.50	0.733
815.67	0.736
815.85	0.726
816.02	0.716
816.20	0.721
816.38	0.738
816.55	0.742
816.73	0.743
816.90	0.753
817.08	0.786
817.26	0.794
817.43	0.773
817.61	0.799
817.78	0.823
817.96	0.800
818.13	0.790
818.31	0.790
818.49	0.806
818.66	0.793
818.84	0.776
819.01	0.755
819.19	0.762
819.36	0.762
819.54	0.731
819.71	0.775
819.89	0.791
820.07	0.804
820.24	0.795
820.42	0.792
820.59	0.816
820.77	0.844
820.94	0.832
821.12	0.850
821.29	0.866
821.47	0.867
821.64	0.797
821.82	0.813
822.00	0.812
822.17	0.811
822.35	0.804
822.52	0.806
822.70	0.791
822.87	0.803
823.05	0.781
823.22	0.797
823.40	0.829
823.57	0.857
823.75	0.837
823.92	0.870
824.10	0.896
824.27	0.945
824.45	0.937
824.62	1.021
824.80	1.047
824.97	1.070
825.15	1.054
825.32	1.075
825.50	1.076
825.67	1.086
825.85	1.055
826.02	1.081
826.20	1.115
826.37	1.298
826.55	1.178
826.72	1.518
826.90	1.703
827.07	1.869
827.25	1.689
827.42	2.756
827.60	-0.000
827.77	-0.000
827.95	-0.000
828.12	-0.000
828.30	-0.000
828.47	-0.000
828.65	1.594
828.82	1.757
829.00	2.088
829.17	-0.000
829.34	-0.000
829.52	-0.000
829.69	-0.000
829.87	-0.000
830.04	-0.000
830.22	-0.000
830.39	-0.000
830.57	-0.000
830.74	-0.000
830.92	-0.000
831.09	-0.000
831.26	-0.000
831.44	-0.000
831.61	-0.000
831.79	-0.000
831.96	-0.000
832.14	-0.000
832.31	-0.000
832.49	-0.000
832.66	-0.000
832.83	-0.000
833.01	-0.000
833.18	-0.000
833.36	-0.000
833.53	-0.000
833.70	-0.000
833.88	-0.000
834.05	-0.000
834.23	-0.000
834.40	-0.000
834.58	-0.000
834.75	-0.000
834.92	-0.000
835.10	-0.000
835.27	-0.000
835.45	-0.000
835.62	-0.000
835.79	-0.000
835.97	-0.000
836.14	-0.000
836.32	-0.000
836.49	-0.000
836.66	-0.000
836.84	-0.000
837.01	-0.000
837.18	-0.000
837.36	-0.000
837.53	-0.000
837.71	-0.000
837.88	-0.000
838.05	-0.000
838.23	-0.000
838.40	-0.000
838.58	-0.000
838.75	-0.000
838.92	-0.000
839.10	-0.000
839.27	-0.000
839.44	-0.000
839.62	-0.000
839.79	-0.000
839.96	-0.000
840.14	-0.000
840.31	-0.000
840.48	-0.000
840.66	-0.000
840.83	-0.000
841.01	-0.000
841.18	-0.000
841.35	-0.000
841.53	-0.000
841.70	-0.000
841.87	-0.000
842.05	-0.000
842.22	-0.000
842.39	-0.000
842.57	-0.000
842.74	-0.000
842.91	-0.000
843.09	-0.000
843.26	-0.000
843.43	-0.000
843.60	-0.000
843.78	-0.000
843.95	-0.000
844.12	-0.000
844.30	-0.000
844.47	-0.000
844.64	-0.000
844.82	-0.000
844.99	-0.000
845.16	-0.000
845.34	-0.000
845.51	-0.000
845.68	-0.000
845.85	-0.000
846.03	-0.000
846.20	-0.000
846.37	-0.000
846.55	-0.000
846.72	-0.000
846.89	-0.000
847.06	-0.000
847.24	-0.000
847.41	-0.000
847.58	-0.000
847.76	-0.000
847.93	-0.000
848.10	-0.000
848.27	-0.000
848.45	-0.000
848.62	-0.000
848.79	-0.000
848.97	-0.000
849.14	-0.000
849.31	-0.000
849.48	-0.000
849.66	-0.000
849.83	-0.000
850.00	-0.000
850.17	-0.000
850.35	-0.000
850.52	-0.000
850.69	-0.000
850.86	-0.000
851.04	-0.000
851.21	-0.000
851.38	-0.000
851.55	-0.000
851.72	-0.000
851.90	-0.000
852.07	-0.000
852.24	-0.000
852.41	-0.000
852.59	-0.000
852.76	-0.000
852.93	-0.000
853.10	-0.000
853.28	-0.000
853.45	-0.000
853.62	-0.000
853.79	-0.000
853.96	-0.000
854.14	-0.000
854.31	-0.000
854.48	-0.000
854.65	-0.000
854.82	-0.000
855.00	-0.000
855.17	-0.000
855.34	-0.000
855.51	-0.000
855.68	-0.000
855.86	-0.000
856.03	-0.000
856.20	-0.000
856.37	-0.000
856.54	-0.000
856.72	-0.000
856.89	-0.000
857.06	-0.000
857.23	-0.000
857.40	-0.000
857.57	-0.000
857.75	-0.000
857.92	-0.000
858.09	-0.000
858.26	-0.000
858.43	-0.000
858.60	-0.000
858.78	-0.000
858.95	-0.000
859.12	-0.000
859.29	-0.000
859.46	-0.000
859.63	-0.000
859.81	-0.000
859.98	-0.000
860.15	-0.000
860.32	-0.000
860.49	-0.000
860.66	-0.000
860.83	-0.000
861.01	-0.000
861.18	-0.000
861.35	-0.000
861.52	-0.000
861.69	-0.000
861.86	-0.000
862.03	-0.000
862.21	-0.000
862.38	-0.000
862.55	-0.000
862.72	-0.000
862.89	-0.000
863.06	-0.000
863.23	-0.000
863.40	-0.000
863.58	-0.000
863.75	-0.000
863.92	-0.000
864.09	-0.000
864.26	-0.000
864.43	-0.000
864.60	-0.000
864.77	-0.000
864.94	-0.000
865.11	-0.000
865.29	-0.000
865.46	-0.000
865.63	-0.000
865.80	-0.000
865.97	-0.000
866.14	-0.000
866.31	-0.000
866.48	-0.000
866.65	-0.000
866.82	-0.000
866.99	-0.000
867.16	-0.000
867.34	-0.000
867.51	-0.000
867.68	-0.000
867.85	-0.000
868.02	-0.000
868.19	-0.000
868.36	-0.000
868.53	-0.000
868.70	-0.000
868.87	-0.000
869.04	-0.000
869.21	-0.000
869.38	-0.000
869.55	-0.000
869.72	-0.000
869.89	-0.000
870.06	-0.000
870.24	-0.000
870.41	-0.000
870.58	-0.000
870.75	-0.000
870.92	-0.000
871.09	-0.000
871.26	-0.000
871.43	-0.000
871.60	-0.000
871.77	-0.000
871.94	-0.000
872.11	-0.000
872.28	-0.000
872.45	-0.000
872.62	-0.000
872.79	-0.000
872.96	-0.000
873.13	-0.000
873.30	-0.000
873.47	-0.000
873.64	-0.000
873.81	-0.000
873.98	-0.000
874.15	-0.000
874.32	-0.000
874.49	-0.000
874.66	-0.000
874.83	-0.000
875.00	-0.000
875.17	-0.000
875.34	-0.000
875.51	-0.000
875.68	-0.000
875.85	-0.000
876.02	-0.000
876.19	-0.000
876.36	-0.000
876.53	-0.000
876.70	-0.000
876.87	-0.000
877.04	-0.000
877.21	-0.000
877.38	-0.000
877.55	-0.000
877.72	-0.000
877.89	-0.000
878.06	-0.000
878.23	-0.000
878.39	-0.000
878.56	-0.000
878.73	-0.000
878.90	-0.000
879.07	-0.000
879.24	-0.000
879.41	-0.000
879.58	-0.000
879.75	-0.000
879.92	-0.000
880.09	-0.000
880.26	-0.000
880.43	-0.000
880.60	-0.000
880.77	-0.000
880.94	-0.000
881.11	-0.000
881.27	-0.000
881.44	-0.000
881.61	-0.000
881.78	-0.000
881.95	-0.000
882.12	-0.000
882.29	-0.000
882.46	-0.000
882.63	-0.000
882.80	-0.000
882.97	-0.000
883.14	-0.000
883.30	-0.000
883.47	-0.000
883.64	-0.000
883.81	-0.000
883.98	-0.000
884.15	-0.000
884.32	-0.000
884.49	-0.000
884.66	-0.000
884.82	-0.000
884.99	-0.000
885.16	-0.000
885.33	-0.000
885.50	-0.000
885.67	-0.000
885.84	-0.000
886.01	-0.000
886.17	-0.000
886.34	-0.000
886.51	-0.000
886.68	-0.000
886.85	-0.000
887.02	-0.000
887.19	-0.000
887.36	-0.000
887.52	-0.000
887.69	-0.000
887.86	-0.000
888.03	-0.000
888.20	-0.000
888.37	-0.000
888.54	-0.000
888.70	-0.000
888.87	-0.000
889.04	-0.000
889.21	-0.000
889.38	-0.000
889.55	-0.000
889.71	-0.000
889.88	-0.000
890.05	-0.000
890.22	-0.000
890.39	-0.000
>>>>>End Processed Spectral Data<<<<<
