SpectraSuite Data File
++++++++++++++++++++++++++++++++++++
Date: Fri Jun 19 15:15:09 CEST 2015
User: introlabs
Dark Spectrum Present: Yes
Reference Spectrum Present: Yes
Number of Sampled Component Spectra: 1
Spectrometers: USB4H08886
Integration Time (usec): 745692 (USB4H08886)
Spectra Averaged: 5 (USB4H08886)
Boxcar Smoothing: 5 (USB4H08886)
Correct for Electrical Dark: Yes (USB4H08886)
Strobe/Lamp Enabled: No (USB4H08886)
Correct for Detector Non-linearity: Yes (USB4H08886)
Correct for Stray Light: Yes (USB4H08886)
Number of Pixels in Processed Spectrum: 3648
>>>>>Begin Processed Spectral Data<<<<<
178.14	-0.000
178.36	-0.000
178.57	-0.000
178.79	-0.000
179.01	-0.000
179.22	-0.000
179.44	-0.000
179.65	-0.000
179.87	-0.000
180.08	-0.000
180.30	-0.000
180.52	-0.000
180.73	-0.000
180.95	-0.000
181.16	-0.000
181.38	-0.000
181.59	-0.000
181.81	-0.000
182.03	-0.000
182.24	-0.000
182.46	-0.000
182.67	-0.000
182.89	-0.000
183.10	-0.000
183.32	-0.000
183.54	-0.000
183.75	-0.000
183.97	-0.000
184.18	-0.000
184.40	-0.000
184.61	-0.000
184.83	-0.000
185.04	-0.000
185.26	-0.000
185.48	-0.000
185.69	-0.000
185.91	-0.000
186.12	-0.000
186.34	-0.000
186.55	-0.000
186.77	-0.000
186.98	-0.000
187.20	-0.000
187.42	-0.000
187.63	-0.000
187.85	-0.000
188.06	-0.000
188.28	-0.000
188.49	-0.000
188.71	-0.000
188.92	-0.000
189.14	-0.000
189.36	-0.000
189.57	-0.000
189.79	-0.000
190.00	-0.000
190.22	-0.000
190.43	-0.000
190.65	-0.000
190.86	-0.000
191.08	-0.000
191.29	-0.000
191.51	-0.000
191.72	-0.000
191.94	-0.000
192.16	-0.000
192.37	-0.000
192.59	-0.000
192.80	-0.000
193.02	-0.000
193.23	-0.000
193.45	-0.000
193.66	-0.000
193.88	-0.000
194.09	-0.000
194.31	-0.000
194.52	-0.000
194.74	-0.000
194.95	-0.000
195.17	-0.000
195.38	-0.000
195.60	-0.000
195.81	-0.000
196.03	-0.000
196.25	-0.000
196.46	-0.000
196.68	-0.000
196.89	-0.000
197.11	-0.000
197.32	-0.000
197.54	-0.000
197.75	-0.000
197.97	-0.000
198.18	-0.000
198.40	-0.000
198.61	-0.000
198.83	-0.000
199.04	-0.000
199.26	-0.000
199.47	-0.000
199.69	-0.000
199.90	-0.000
200.12	-0.000
200.33	-0.000
200.55	-0.000
200.76	-0.000
200.98	-0.000
201.19	-0.000
201.41	-0.000
201.62	-0.000
201.84	-0.000
202.05	-0.000
202.27	-0.000
202.48	-0.000
202.70	-0.000
202.91	-0.000
203.13	-0.000
203.34	-0.000
203.56	-0.000
203.77	-0.000
203.99	-0.000
204.20	-0.000
204.42	-0.000
204.63	-0.000
204.85	-0.000
205.06	-0.000
205.28	-0.000
205.49	-0.000
205.71	-0.000
205.92	-0.000
206.14	-0.000
206.35	-0.000
206.56	-0.000
206.78	-0.000
206.99	-0.000
207.21	-0.000
207.42	-0.000
207.64	-0.000
207.85	-0.000
208.07	-0.000
208.28	-0.000
208.50	-0.000
208.71	-0.000
208.93	-0.000
209.14	-0.000
209.36	-0.000
209.57	-0.000
209.79	-0.000
210.00	-0.000
210.22	-0.000
210.43	-0.000
210.64	-0.000
210.86	-0.000
211.07	-0.000
211.29	-0.000
211.50	-0.000
211.72	-0.000
211.93	-0.000
212.15	-0.000
212.36	-0.000
212.58	-0.000
212.79	-0.000
213.01	-0.000
213.22	-0.000
213.43	-0.000
213.65	-0.000
213.86	-0.000
214.08	-0.000
214.29	-0.000
214.51	-0.000
214.72	-0.000
214.94	-0.000
215.15	-0.000
215.36	-0.000
215.58	-0.000
215.79	-0.000
216.01	-0.000
216.22	-0.000
216.44	-0.000
216.65	-0.000
216.87	-0.000
217.08	-0.000
217.29	-0.000
217.51	-0.000
217.72	-0.000
217.94	-0.000
218.15	-0.000
218.37	-0.000
218.58	-0.000
218.80	-0.000
219.01	-0.000
219.22	-0.000
219.44	-0.000
219.65	-0.000
219.87	-0.000
220.08	-0.000
220.30	-0.000
220.51	-0.000
220.72	-0.000
220.94	-0.000
221.15	-0.000
221.37	-0.000
221.58	-0.000
221.79	-0.000
222.01	-0.000
222.22	-0.000
222.44	-0.000
222.65	-0.000
222.87	-0.000
223.08	-0.000
223.29	-0.000
223.51	-0.000
223.72	-0.000
223.94	-0.000
224.15	-0.000
224.36	-0.000
224.58	-0.000
224.79	-0.000
225.01	-0.000
225.22	-0.000
225.44	-0.000
225.65	-0.000
225.86	-0.000
226.08	-0.000
226.29	-0.000
226.51	-0.000
226.72	-0.000
226.93	-0.000
227.15	-0.000
227.36	-0.000
227.58	-0.000
227.79	-0.000
228.00	-0.000
228.22	-0.000
228.43	-0.000
228.65	-0.000
228.86	-0.000
229.07	-0.000
229.29	-0.000
229.50	-0.000
229.72	-0.000
229.93	-0.000
230.14	-0.000
230.36	-0.000
230.57	-0.000
230.78	-0.000
231.00	-0.000
231.21	-0.000
231.43	-0.000
231.64	-0.000
231.85	-0.000
232.07	-0.000
232.28	-0.000
232.50	-0.000
232.71	-0.000
232.92	-0.000
233.14	-0.000
233.35	-0.000
233.56	-0.000
233.78	-0.000
233.99	-0.000
234.21	-0.000
234.42	-0.000
234.63	-0.000
234.85	-0.000
235.06	-0.000
235.27	-0.000
235.49	-0.000
235.70	-0.000
235.91	-0.000
236.13	-0.000
236.34	-0.000
236.56	-0.000
236.77	-0.000
236.98	-0.000
237.20	-0.000
237.41	-0.000
237.62	-0.000
237.84	-0.000
238.05	-0.000
238.26	-0.000
238.48	-0.000
238.69	-0.000
238.91	-0.000
239.12	-0.000
239.33	-0.000
239.55	-0.000
239.76	-0.000
239.97	-0.000
240.19	-0.000
240.40	-0.000
240.61	-0.000
240.83	-0.000
241.04	-0.000
241.25	-0.000
241.47	-0.000
241.68	-0.000
241.89	-0.000
242.11	-0.000
242.32	-0.000
242.53	-0.000
242.75	-0.000
242.96	-0.000
243.17	-0.000
243.39	-0.000
243.60	-0.000
243.81	-0.000
244.03	-0.000
244.24	-0.000
244.45	-0.000
244.67	-0.000
244.88	-0.000
245.09	-0.000
245.31	-0.000
245.52	-0.000
245.73	-0.000
245.95	-0.000
246.16	-0.000
246.37	-0.000
246.59	-0.000
246.80	-0.000
247.01	-0.000
247.23	-0.000
247.44	-0.000
247.65	-0.000
247.87	-0.000
248.08	-0.000
248.29	-0.000
248.51	-0.000
248.72	-0.000
248.93	-0.000
249.15	-0.000
249.36	-0.000
249.57	-0.000
249.78	-0.000
250.00	-0.000
250.21	-0.000
250.42	-0.000
250.64	-0.000
250.85	-0.000
251.06	-0.000
251.28	-0.000
251.49	-0.000
251.70	-0.000
251.92	-0.000
252.13	-0.000
252.34	-0.000
252.55	-0.000
252.77	-0.000
252.98	-0.000
253.19	-0.000
253.41	-0.000
253.62	-0.000
253.83	-0.000
254.05	-0.000
254.26	-0.000
254.47	-0.000
254.68	-0.000
254.90	-0.000
255.11	-0.000
255.32	-0.000
255.54	-0.000
255.75	-0.000
255.96	-0.000
256.17	-0.000
256.39	-0.000
256.60	-0.000
256.81	-0.000
257.03	-0.000
257.24	-0.000
257.45	-0.000
257.66	-0.000
257.88	-0.000
258.09	-0.000
258.30	-0.000
258.51	-0.000
258.73	-0.000
258.94	-0.000
259.15	-0.000
259.37	-0.000
259.58	-0.000
259.79	-0.000
260.00	-0.000
260.22	-0.000
260.43	-0.000
260.64	-0.000
260.85	-0.000
261.07	-0.000
261.28	-0.000
261.49	-0.000
261.71	-0.000
261.92	-0.000
262.13	-0.000
262.34	-0.000
262.56	-0.000
262.77	-0.000
262.98	-0.000
263.19	-0.000
263.41	-0.000
263.62	-0.000
263.83	-0.000
264.04	-0.000
264.26	-0.000
264.47	-0.000
264.68	-0.000
264.89	-0.000
265.11	-0.000
265.32	-0.000
265.53	-0.000
265.74	-0.000
265.96	-0.000
266.17	-0.000
266.38	-0.000
266.59	-0.000
266.81	-0.000
267.02	-0.000
267.23	-0.000
267.44	-0.000
267.65	-0.000
267.87	-0.000
268.08	-0.000
268.29	-0.000
268.50	-0.000
268.72	-0.000
268.93	-0.000
269.14	-0.000
269.35	-0.000
269.57	-0.000
269.78	-0.000
269.99	-0.000
270.20	-0.000
270.41	-0.000
270.63	-0.000
270.84	-0.000
271.05	-0.000
271.26	-0.000
271.48	-0.000
271.69	-0.000
271.90	-0.000
272.11	-0.000
272.32	-0.000
272.54	-0.000
272.75	-0.000
272.96	-0.000
273.17	-0.000
273.39	-0.000
273.60	-0.000
273.81	-0.000
274.02	-0.000
274.23	-0.000
274.45	-0.000
274.66	-0.000
274.87	-0.000
275.08	-0.000
275.29	-0.000
275.51	-0.000
275.72	-0.000
275.93	-0.000
276.14	-0.000
276.35	-0.000
276.57	-0.000
276.78	-0.000
276.99	-0.000
277.20	-0.000
277.41	-0.000
277.63	-0.000
277.84	-0.000
278.05	-0.000
278.26	-0.000
278.47	-0.000
278.69	-0.000
278.90	-0.000
279.11	-0.000
279.32	-0.000
279.53	-0.000
279.74	-0.000
279.96	-0.000
280.17	-0.000
280.38	-0.000
280.59	-0.000
280.80	-0.000
281.02	-0.000
281.23	-0.000
281.44	-0.000
281.65	-0.000
281.86	-0.000
282.07	-0.000
282.29	-0.000
282.50	-0.000
282.71	-0.000
282.92	-0.000
283.13	-0.000
283.35	-0.000
283.56	-0.000
283.77	-0.000
283.98	-0.000
284.19	-0.000
284.40	-0.000
284.62	-0.000
284.83	-0.000
285.04	-0.000
285.25	-0.000
285.46	-0.000
285.67	-0.000
285.88	-0.000
286.10	-0.000
286.31	-0.000
286.52	-0.000
286.73	-0.000
286.94	-0.000
287.15	-0.000
287.37	-0.000
287.58	-0.000
287.79	-0.000
288.00	-0.000
288.21	-0.000
288.42	-0.000
288.63	-0.000
288.85	-0.000
289.06	-0.000
289.27	-0.000
289.48	-0.000
289.69	-0.000
289.90	-0.000
290.11	-0.000
290.33	-0.000
290.54	-0.000
290.75	-0.000
290.96	-0.000
291.17	-0.000
291.38	-0.000
291.59	-0.000
291.81	-0.000
292.02	-0.000
292.23	-0.000
292.44	-0.000
292.65	-0.000
292.86	-0.000
293.07	-0.000
293.28	-0.000
293.50	-0.000
293.71	-0.000
293.92	-0.000
294.13	-0.000
294.34	-0.000
294.55	-0.000
294.76	-0.000
294.97	-0.000
295.19	-0.000
295.40	-0.000
295.61	-0.000
295.82	-0.000
296.03	-0.000
296.24	-0.000
296.45	2.216
296.66	1.819
296.87	1.844
297.09	1.922
297.30	2.151
297.51	1.747
297.72	1.717
297.93	1.800
298.14	1.772
298.35	1.723
298.56	1.690
298.77	1.814
298.99	1.780
299.20	1.760
299.41	1.731
299.62	1.678
299.83	1.676
300.04	1.611
300.25	1.603
300.46	1.631
300.67	1.604
300.88	1.564
301.10	1.568
301.31	1.642
301.52	1.578
301.73	1.522
301.94	1.522
302.15	1.532
302.36	1.485
302.57	1.423
302.78	1.435
302.99	1.473
303.20	1.489
303.41	1.403
303.63	1.386
303.84	1.391
304.05	1.390
304.26	1.332
304.47	1.337
304.68	1.335
304.89	1.328
305.10	1.290
305.31	1.276
305.52	1.319
305.73	1.313
305.94	1.276
306.15	1.269
306.37	1.288
306.58	1.297
306.79	1.266
307.00	1.290
307.21	1.325
307.42	1.318
307.63	1.285
307.84	1.253
308.05	1.288
308.26	1.285
308.47	1.267
308.68	1.261
308.89	1.256
309.10	1.256
309.31	1.217
309.52	1.208
309.73	1.222
309.95	1.220
310.16	1.190
310.37	1.177
310.58	1.193
310.79	1.190
311.00	1.190
311.21	1.192
311.42	1.195
311.63	1.191
311.84	1.174
312.05	1.174
312.26	1.192
312.47	1.203
312.68	1.181
312.89	1.166
313.10	1.170
313.31	1.141
313.52	1.145
313.73	1.147
313.94	1.148
314.15	1.131
314.36	1.109
314.57	1.103
314.78	1.091
314.99	1.086
315.21	1.076
315.42	1.079
315.63	1.092
315.84	1.071
316.05	1.056
316.26	1.063
316.47	1.081
316.68	1.078
316.89	1.060
317.10	1.080
317.31	1.084
317.52	1.086
317.73	1.066
317.94	1.062
318.15	1.103
318.36	1.100
318.57	1.087
318.78	1.074
318.99	1.107
319.20	1.106
319.41	1.072
319.62	1.074
319.83	1.088
320.04	1.085
320.25	1.073
320.46	1.040
320.67	1.044
320.88	1.038
321.09	1.026
321.30	1.011
321.51	1.025
321.72	1.023
321.93	1.009
322.14	0.999
322.35	1.025
322.56	1.028
322.77	1.017
322.98	1.026
323.19	1.033
323.40	1.041
323.61	1.020
323.82	1.015
324.03	1.020
324.24	1.017
324.45	1.005
324.66	0.987
324.87	0.983
325.08	0.982
325.29	0.965
325.50	0.958
325.71	0.961
325.92	0.969
326.13	0.955
326.34	0.955
326.55	0.962
326.76	0.963
326.97	0.951
327.18	0.945
327.39	0.970
327.60	0.972
327.80	0.974
328.01	0.973
328.22	0.973
328.43	0.977
328.64	0.966
328.85	0.970
329.06	0.971
329.27	0.971
329.48	0.968
329.69	0.948
329.90	0.958
330.11	0.950
330.32	0.945
330.53	0.938
330.74	0.938
330.95	0.936
331.16	0.922
331.37	0.930
331.58	0.930
331.79	0.930
332.00	0.922
332.21	0.915
332.42	0.919
332.63	0.909
332.83	0.905
333.04	0.908
333.25	0.920
333.46	0.920
333.67	0.906
333.88	0.909
334.09	0.919
334.30	0.916
334.51	0.908
334.72	0.905
334.93	0.908
335.14	0.907
335.35	0.899
335.56	0.894
335.77	0.900
335.98	0.898
336.18	0.892
336.39	0.884
336.60	0.888
336.81	0.885
337.02	0.885
337.23	0.889
337.44	0.892
337.65	0.892
337.86	0.883
338.07	0.877
338.28	0.882
338.49	0.881
338.70	0.874
338.91	0.880
339.11	0.887
339.32	0.883
339.53	0.871
339.74	0.868
339.95	0.865
340.16	0.863
340.37	0.857
340.58	0.855
340.79	0.857
341.00	0.856
341.21	0.847
341.41	0.847
341.62	0.848
341.83	0.849
342.04	0.845
342.25	0.856
342.46	0.860
342.67	0.858
342.88	0.852
343.09	0.851
343.30	0.857
343.50	0.860
343.71	0.851
343.92	0.849
344.13	0.853
344.34	0.853
344.55	0.836
344.76	0.836
344.97	0.841
345.18	0.840
345.38	0.838
345.59	0.833
345.80	0.831
346.01	0.829
346.22	0.825
346.43	0.819
346.64	0.827
346.85	0.827
347.06	0.820
347.26	0.819
347.47	0.821
347.68	0.816
347.89	0.813
348.10	0.808
348.31	0.814
348.52	0.812
348.73	0.811
348.93	0.808
349.14	0.809
349.35	0.810
349.56	0.804
349.77	0.800
349.98	0.806
350.19	0.803
350.39	0.798
350.60	0.794
350.81	0.811
351.02	0.809
351.23	0.806
351.44	0.808
351.65	0.810
351.86	0.808
352.06	0.807
352.27	0.807
352.48	0.807
352.69	0.807
352.90	0.802
353.11	0.788
353.31	0.795
353.52	0.790
353.73	0.783
353.94	0.784
354.15	0.789
354.36	0.789
354.57	0.781
354.77	0.784
354.98	0.783
355.19	0.783
355.40	0.782
355.61	0.788
355.82	0.793
356.02	0.792
356.23	0.786
356.44	0.788
356.65	0.790
356.86	0.791
357.07	0.785
357.27	0.787
357.48	0.789
357.69	0.785
357.90	0.769
358.11	0.765
358.32	0.769
358.52	0.771
358.73	0.762
358.94	0.764
359.15	0.767
359.36	0.768
359.56	0.764
359.77	0.761
359.98	0.768
360.19	0.768
360.40	0.765
360.61	0.766
360.81	0.764
361.02	0.765
361.23	0.758
361.44	0.756
361.65	0.758
361.85	0.756
362.06	0.755
362.27	0.757
362.48	0.757
362.69	0.759
362.89	0.753
363.10	0.754
363.31	0.757
363.52	0.761
363.73	0.756
363.93	0.755
364.14	0.757
364.35	0.758
364.56	0.748
364.77	0.750
364.97	0.752
365.18	0.753
365.39	0.748
365.60	0.745
365.81	0.746
366.01	0.747
366.22	0.744
366.43	0.744
366.64	0.745
366.84	0.750
367.05	0.747
367.26	0.746
367.47	0.747
367.68	0.746
367.88	0.743
368.09	0.740
368.30	0.742
368.51	0.742
368.71	0.741
368.92	0.745
369.13	0.743
369.34	0.743
369.55	0.741
369.75	0.741
369.96	0.748
370.17	0.749
370.38	0.747
370.58	0.746
370.79	0.750
371.00	0.749
371.21	0.742
371.41	0.747
371.62	0.750
371.83	0.747
372.04	0.745
372.24	0.738
372.45	0.738
372.66	0.739
372.87	0.736
373.07	0.732
373.28	0.733
373.49	0.737
373.70	0.728
373.90	0.728
374.11	0.737
374.32	0.737
374.53	0.737
374.73	0.738
374.94	0.739
375.15	0.739
375.36	0.737
375.56	0.745
375.77	0.744
375.98	0.745
376.19	0.742
376.39	0.735
376.60	0.739
376.81	0.739
377.02	0.737
377.22	0.735
377.43	0.735
377.64	0.735
377.84	0.726
378.05	0.731
378.26	0.736
378.47	0.735
378.67	0.731
378.88	0.728
379.09	0.729
379.30	0.730
379.50	0.728
379.71	0.730
379.92	0.734
380.12	0.733
380.33	0.726
380.54	0.722
380.75	0.728
380.95	0.729
381.16	0.727
381.37	0.728
381.57	0.729
381.78	0.729
381.99	0.728
382.20	0.727
382.40	0.730
382.61	0.730
382.82	0.727
383.02	0.721
383.23	0.724
383.44	0.725
383.64	0.723
383.85	0.725
384.06	0.728
384.27	0.726
384.47	0.725
384.68	0.726
384.89	0.731
385.09	0.732
385.30	0.731
385.51	0.730
385.71	0.733
385.92	0.733
386.13	0.732
386.33	0.734
386.54	0.735
386.75	0.734
386.95	0.730
387.16	0.726
387.37	0.729
387.58	0.728
387.78	0.727
387.99	0.725
388.20	0.727
388.40	0.724
388.61	0.720
388.82	0.723
389.02	0.725
389.23	0.725
389.44	0.724
389.64	0.724
389.85	0.735
390.06	0.734
390.26	0.734
390.47	0.733
390.68	0.735
390.88	0.733
391.09	0.729
391.30	0.728
391.50	0.728
391.71	0.727
391.92	0.725
392.12	0.717
392.33	0.719
392.53	0.718
392.74	0.718
392.95	0.718
393.15	0.721
393.36	0.723
393.57	0.721
393.77	0.725
393.98	0.726
394.19	0.726
394.39	0.726
394.60	0.727
394.81	0.729
395.01	0.727
395.22	0.726
395.43	0.727
395.63	0.732
395.84	0.733
396.04	0.730
396.25	0.732
396.46	0.733
396.66	0.731
396.87	0.729
397.08	0.726
397.28	0.728
397.49	0.729
397.69	0.726
397.90	0.720
398.11	0.721
398.31	0.722
398.52	0.718
398.73	0.720
398.93	0.719
399.14	0.718
399.34	0.718
399.55	0.719
399.76	0.719
399.96	0.720
400.17	0.718
400.37	0.717
400.58	0.723
400.79	0.725
400.99	0.722
401.20	0.728
401.41	0.730
401.61	0.732
401.82	0.737
402.02	0.737
402.23	0.739
402.44	0.738
402.64	0.739
402.85	0.734
403.05	0.732
403.26	0.731
403.47	0.725
403.67	0.724
403.88	0.724
404.08	0.718
404.29	0.716
404.50	0.716
404.70	0.716
404.91	0.716
405.11	0.713
405.32	0.713
405.52	0.713
405.73	0.713
405.94	0.712
406.14	0.714
406.35	0.717
406.55	0.716
406.76	0.713
406.97	0.714
407.17	0.717
407.38	0.716
407.58	0.715
407.79	0.718
407.99	0.720
408.20	0.722
408.41	0.717
408.61	0.715
408.82	0.716
409.02	0.716
409.23	0.714
409.43	0.713
409.64	0.714
409.84	0.713
410.05	0.710
410.26	0.709
410.46	0.708
410.67	0.707
410.87	0.709
411.08	0.710
411.28	0.712
411.49	0.713
411.69	0.711
411.90	0.713
412.11	0.714
412.31	0.715
412.52	0.714
412.72	0.715
412.93	0.716
413.13	0.715
413.34	0.711
413.54	0.712
413.75	0.714
413.95	0.714
414.16	0.710
414.37	0.713
414.57	0.714
414.78	0.716
414.98	0.714
415.19	0.716
415.39	0.713
415.60	0.715
415.80	0.715
416.01	0.713
416.21	0.714
416.42	0.715
416.62	0.709
416.83	0.710
417.03	0.709
417.24	0.709
417.44	0.707
417.65	0.706
417.86	0.707
418.06	0.705
418.27	0.703
418.47	0.705
418.68	0.705
418.88	0.706
419.09	0.704
419.29	0.704
419.50	0.704
419.70	0.704
419.91	0.702
420.11	0.700
420.32	0.702
420.52	0.702
420.73	0.701
420.93	0.702
421.14	0.703
421.34	0.703
421.55	0.700
421.75	0.700
421.96	0.701
422.16	0.702
422.37	0.700
422.57	0.697
422.78	0.698
422.98	0.694
423.19	0.692
423.39	0.690
423.60	0.694
423.80	0.695
424.01	0.694
424.21	0.696
424.42	0.697
424.62	0.697
424.83	0.696
425.03	0.697
425.23	0.699
425.44	0.700
425.64	0.700
425.85	0.699
426.05	0.699
426.26	0.700
426.46	0.696
426.67	0.696
426.87	0.700
427.08	0.700
427.28	0.698
427.49	0.699
427.69	0.699
427.90	0.698
428.10	0.695
428.31	0.695
428.51	0.697
428.71	0.696
428.92	0.697
429.12	0.693
429.33	0.695
429.53	0.699
429.74	0.704
429.94	0.703
430.15	0.703
430.35	0.703
430.56	0.701
430.76	0.699
430.96	0.700
431.17	0.697
431.37	0.695
431.58	0.692
431.78	0.688
431.99	0.681
432.19	0.683
432.40	0.685
432.60	0.685
432.80	0.687
433.01	0.685
433.21	0.685
433.42	0.687
433.62	0.688
433.83	0.688
434.03	0.691
434.23	0.693
434.44	0.692
434.64	0.689
434.85	0.694
435.05	0.695
435.26	0.695
435.46	0.694
435.66	0.694
435.87	0.694
436.07	0.694
436.28	0.690
436.48	0.687
436.69	0.687
436.89	0.687
437.09	0.681
437.30	0.680
437.50	0.680
437.71	0.691
437.91	0.690
438.11	0.691
438.32	0.695
438.52	0.695
438.73	0.694
438.93	0.692
439.13	0.692
439.34	0.695
439.54	0.692
439.75	0.693
439.95	0.683
440.15	0.687
440.36	0.685
440.56	0.683
440.77	0.683
440.97	0.684
441.17	0.683
441.38	0.684
441.58	0.682
441.79	0.681
441.99	0.680
442.19	0.679
442.40	0.676
442.60	0.676
442.81	0.674
443.01	0.674
443.21	0.674
443.42	0.673
443.62	0.672
443.82	0.671
444.03	0.672
444.23	0.672
444.44	0.672
444.64	0.672
444.84	0.673
445.05	0.672
445.25	0.671
445.45	0.671
445.66	0.673
445.86	0.672
446.06	0.673
446.27	0.673
446.47	0.675
446.68	0.673
446.88	0.672
447.08	0.672
447.29	0.673
447.49	0.674
447.69	0.673
447.90	0.672
448.10	0.675
448.30	0.672
448.51	0.674
448.71	0.671
448.91	0.673
449.12	0.672
449.32	0.673
449.52	0.672
449.73	0.676
449.93	0.675
450.14	0.677
450.34	0.676
450.54	0.678
450.75	0.675
450.95	0.675
451.15	0.674
451.36	0.677
451.56	0.673
451.76	0.672
451.97	0.669
452.17	0.669
452.37	0.668
452.58	0.665
452.78	0.664
452.98	0.666
453.19	0.665
453.39	0.666
453.59	0.665
453.79	0.665
454.00	0.666
454.20	0.665
454.40	0.664
454.61	0.666
454.81	0.667
455.01	0.665
455.22	0.665
455.42	0.667
455.62	0.664
455.83	0.664
456.03	0.668
456.23	0.668
456.44	0.669
456.64	0.668
456.84	0.668
457.04	0.668
457.25	0.668
457.45	0.665
457.65	0.664
457.86	0.666
458.06	0.664
458.26	0.660
458.47	0.660
458.67	0.661
458.87	0.661
459.07	0.659
459.28	0.661
459.48	0.663
459.68	0.663
459.89	0.662
460.09	0.660
460.29	0.661
460.49	0.662
460.70	0.661
460.90	0.661
461.10	0.662
461.31	0.662
461.51	0.659
461.71	0.661
461.91	0.662
462.12	0.662
462.32	0.661
462.52	0.661
462.72	0.664
462.93	0.665
463.13	0.664
463.33	0.665
463.53	0.666
463.74	0.666
463.94	0.661
464.14	0.662
464.35	0.663
464.55	0.664
464.75	0.662
464.95	0.659
465.16	0.660
465.36	0.659
465.56	0.658
465.76	0.657
465.97	0.657
466.17	0.658
466.37	0.655
466.57	0.657
466.78	0.658
466.98	0.657
467.18	0.655
467.38	0.654
467.59	0.656
467.79	0.657
467.99	0.657
468.19	0.657
468.39	0.660
468.60	0.660
468.80	0.658
469.00	0.659
469.20	0.660
469.41	0.661
469.61	0.661
469.81	0.661
470.01	0.660
470.22	0.660
470.42	0.659
470.62	0.657
470.82	0.658
471.02	0.657
471.23	0.656
471.43	0.657
471.63	0.659
471.83	0.659
472.04	0.657
472.24	0.656
472.44	0.662
472.64	0.662
472.84	0.660
473.05	0.660
473.25	0.663
473.45	0.662
473.65	0.661
473.85	0.661
474.06	0.662
474.26	0.662
474.46	0.663
474.66	0.659
474.86	0.659
475.07	0.659
475.27	0.657
475.47	0.654
475.67	0.655
475.87	0.657
476.08	0.653
476.28	0.654
476.48	0.655
476.68	0.653
476.88	0.652
477.09	0.653
477.29	0.655
477.49	0.655
477.69	0.654
477.89	0.655
478.09	0.654
478.30	0.656
478.50	0.653
478.70	0.653
478.90	0.654
479.10	0.656
479.31	0.657
479.51	0.655
479.71	0.656
479.91	0.656
480.11	0.654
480.31	0.654
480.52	0.653
480.72	0.653
480.92	0.652
481.12	0.650
481.32	0.647
481.52	0.646
481.72	0.646
481.93	0.649
482.13	0.649
482.33	0.649
482.53	0.647
482.73	0.648
482.93	0.649
483.14	0.649
483.34	0.649
483.54	0.649
483.74	0.648
483.94	0.648
484.14	0.644
484.34	0.644
484.55	0.645
484.75	0.644
484.95	0.642
485.15	0.642
485.35	0.642
485.55	0.641
485.75	0.640
485.96	0.640
486.16	0.642
486.36	0.641
486.56	0.640
486.76	0.640
486.96	0.640
487.16	0.639
487.36	0.638
487.57	0.638
487.77	0.638
487.97	0.638
488.17	0.636
488.37	0.635
488.57	0.636
488.77	0.635
488.97	0.634
489.18	0.634
489.38	0.636
489.58	0.637
489.78	0.637
489.98	0.636
490.18	0.637
490.38	0.637
490.58	0.636
490.78	0.636
490.98	0.638
491.19	0.638
491.39	0.638
491.59	0.636
491.79	0.639
491.99	0.639
492.19	0.639
492.39	0.642
492.59	0.642
492.79	0.644
492.99	0.645
493.20	0.645
493.40	0.645
493.60	0.646
493.80	0.645
494.00	0.642
494.20	0.642
494.40	0.642
494.60	0.639
494.80	0.643
495.00	0.642
495.20	0.641
495.40	0.640
495.61	0.641
495.81	0.641
496.01	0.645
496.21	0.646
496.41	0.645
496.61	0.646
496.81	0.645
497.01	0.640
497.21	0.639
497.41	0.640
497.61	0.639
497.81	0.637
498.01	0.637
498.21	0.635
498.41	0.633
498.61	0.633
498.82	0.634
499.02	0.636
499.22	0.636
499.42	0.635
499.62	0.637
499.82	0.638
500.02	0.640
500.22	0.638
500.42	0.640
500.62	0.641
500.82	0.641
501.02	0.639
501.22	0.639
501.42	0.639
501.62	0.642
501.82	0.641
502.02	0.641
502.22	0.640
502.42	0.642
502.62	0.639
502.82	0.640
503.02	0.640
503.22	0.639
503.42	0.638
503.63	0.638
503.83	0.635
504.03	0.634
504.23	0.633
504.43	0.634
504.63	0.635
504.83	0.634
505.03	0.634
505.23	0.635
505.43	0.637
505.63	0.638
505.83	0.637
506.03	0.639
506.23	0.641
506.43	0.641
506.63	0.641
506.83	0.639
507.03	0.640
507.23	0.641
507.43	0.638
507.63	0.639
507.83	0.639
508.03	0.639
508.23	0.638
508.43	0.637
508.63	0.638
508.83	0.639
509.03	0.640
509.23	0.639
509.43	0.640
509.63	0.640
509.83	0.638
510.03	0.641
510.23	0.642
510.43	0.643
510.63	0.644
510.83	0.644
511.03	0.645
511.23	0.643
511.43	0.643
511.63	0.644
511.83	0.646
512.03	0.646
512.22	0.643
512.42	0.643
512.62	0.643
512.82	0.642
513.02	0.642
513.22	0.641
513.42	0.643
513.62	0.646
513.82	0.644
514.02	0.644
514.22	0.645
514.42	0.645
514.62	0.645
514.82	0.645
515.02	0.648
515.22	0.651
515.42	0.650
515.62	0.652
515.82	0.651
516.02	0.652
516.22	0.652
516.42	0.653
516.62	0.655
516.82	0.656
517.01	0.655
517.21	0.653
517.41	0.657
517.61	0.658
517.81	0.654
518.01	0.653
518.21	0.652
518.41	0.651
518.61	0.651
518.81	0.651
519.01	0.652
519.21	0.651
519.41	0.650
519.61	0.645
519.81	0.647
520.00	0.648
520.20	0.648
520.40	0.652
520.60	0.653
520.80	0.652
521.00	0.652
521.20	0.653
521.40	0.658
521.60	0.659
521.80	0.657
522.00	0.657
522.20	0.660
522.39	0.659
522.59	0.655
522.79	0.656
522.99	0.658
523.19	0.657
523.39	0.655
523.59	0.653
523.79	0.656
523.99	0.658
524.19	0.658
524.38	0.657
524.58	0.658
524.78	0.659
524.98	0.657
525.18	0.660
525.38	0.660
525.58	0.661
525.78	0.659
525.98	0.657
526.18	0.657
526.37	0.656
526.57	0.658
526.77	0.658
526.97	0.658
527.17	0.658
527.37	0.654
527.57	0.656
527.77	0.657
527.96	0.658
528.16	0.656
528.36	0.657
528.56	0.660
528.76	0.658
528.96	0.658
529.16	0.659
529.36	0.662
529.55	0.662
529.75	0.659
529.95	0.659
530.15	0.660
530.35	0.663
530.55	0.661
530.75	0.661
530.94	0.662
531.14	0.662
531.34	0.661
531.54	0.659
531.74	0.663
531.94	0.666
532.13	0.665
532.33	0.666
532.53	0.664
532.73	0.664
532.93	0.662
533.13	0.663
533.33	0.663
533.52	0.664
533.72	0.667
533.92	0.665
534.12	0.662
534.32	0.663
534.52	0.661
534.71	0.663
534.91	0.666
535.11	0.667
535.31	0.665
535.51	0.667
535.71	0.669
535.90	0.665
536.10	0.666
536.30	0.668
536.50	0.668
536.70	0.668
536.89	0.666
537.09	0.666
537.29	0.667
537.49	0.668
537.69	0.666
537.89	0.667
538.08	0.666
538.28	0.665
538.48	0.665
538.68	0.667
538.88	0.669
539.07	0.669
539.27	0.667
539.47	0.667
539.67	0.667
539.87	0.668
540.06	0.666
540.26	0.666
540.46	0.668
540.66	0.666
540.86	0.664
541.05	0.664
541.25	0.665
541.45	0.665
541.65	0.663
541.84	0.665
542.04	0.665
542.24	0.665
542.44	0.664
542.64	0.665
542.83	0.667
543.03	0.668
543.23	0.666
543.43	0.666
543.62	0.668
543.82	0.668
544.02	0.667
544.22	0.668
544.42	0.671
544.61	0.672
544.81	0.670
545.01	0.669
545.21	0.670
545.40	0.671
545.60	0.670
545.80	0.673
546.00	0.673
546.19	0.672
546.39	0.672
546.59	0.669
546.79	0.671
546.98	0.671
547.18	0.671
547.38	0.672
547.58	0.674
547.77	0.674
547.97	0.670
548.17	0.672
548.37	0.673
548.56	0.672
548.76	0.672
548.96	0.673
549.16	0.675
549.35	0.674
549.55	0.672
549.75	0.672
549.95	0.675
550.14	0.676
550.34	0.674
550.54	0.679
550.73	0.683
550.93	0.684
551.13	0.681
551.33	0.679
551.52	0.680
551.72	0.680
551.92	0.678
552.12	0.679
552.31	0.679
552.51	0.679
552.71	0.674
552.90	0.675
553.10	0.675
553.30	0.676
553.50	0.675
553.69	0.676
553.89	0.677
554.09	0.677
554.28	0.674
554.48	0.676
554.68	0.677
554.87	0.677
555.07	0.674
555.27	0.674
555.47	0.675
555.66	0.676
555.86	0.675
556.06	0.677
556.25	0.678
556.45	0.686
556.65	0.684
556.84	0.687
557.04	0.690
557.24	0.692
557.43	0.691
557.63	0.694
557.83	0.695
558.02	0.696
558.22	0.700
558.42	0.700
558.61	0.693
558.81	0.694
559.01	0.691
559.21	0.690
559.40	0.691
559.60	0.692
559.80	0.688
559.99	0.690
560.19	0.692
560.39	0.686
560.58	0.684
560.78	0.684
560.97	0.687
561.17	0.686
561.37	0.684
561.56	0.684
561.76	0.686
561.96	0.685
562.15	0.683
562.35	0.685
562.55	0.686
562.74	0.686
562.94	0.684
563.14	0.682
563.33	0.682
563.53	0.683
563.73	0.681
563.92	0.682
564.12	0.684
564.31	0.687
564.51	0.685
564.71	0.687
564.90	0.689
565.10	0.691
565.30	0.694
565.49	0.695
565.69	0.697
565.89	0.696
566.08	0.694
566.28	0.697
566.47	0.697
566.67	0.696
566.87	0.694
567.06	0.695
567.26	0.701
567.46	0.697
567.65	0.697
567.85	0.698
568.04	0.702
568.24	0.701
568.44	0.698
568.63	0.696
568.83	0.697
569.02	0.696
569.22	0.692
569.42	0.688
569.61	0.690
569.81	0.688
570.00	0.686
570.20	0.687
570.40	0.688
570.59	0.688
570.79	0.686
570.98	0.684
571.18	0.685
571.38	0.685
571.57	0.682
571.77	0.680
571.96	0.684
572.16	0.681
572.35	0.676
572.55	0.677
572.75	0.675
572.94	0.675
573.14	0.674
573.33	0.674
573.53	0.674
573.73	0.674
573.92	0.672
574.12	0.670
574.31	0.672
574.51	0.674
574.70	0.671
574.90	0.673
575.09	0.675
575.29	0.675
575.49	0.673
575.68	0.673
575.88	0.674
576.07	0.675
576.27	0.673
576.46	0.671
576.66	0.670
576.86	0.669
577.05	0.667
577.25	0.665
577.44	0.666
577.64	0.667
577.83	0.665
578.03	0.666
578.22	0.666
578.42	0.666
578.61	0.664
578.81	0.664
579.00	0.664
579.20	0.664
579.40	0.662
579.59	0.661
579.79	0.661
579.98	0.661
580.18	0.660
580.37	0.660
580.57	0.662
580.76	0.666
580.96	0.664
581.15	0.666
581.35	0.668
581.54	0.668
581.74	0.668
581.93	0.669
582.13	0.670
582.32	0.667
582.52	0.666
582.71	0.665
582.91	0.661
583.10	0.660
583.30	0.659
583.49	0.658
583.69	0.662
583.88	0.663
584.08	0.661
584.27	0.664
584.47	0.666
584.66	0.667
584.86	0.667
585.05	0.669
585.25	0.672
585.44	0.672
585.64	0.671
585.83	0.667
586.03	0.667
586.22	0.666
586.42	0.662
586.61	0.663
586.81	0.665
587.00	0.665
587.20	0.662
587.39	0.662
587.59	0.664
587.78	0.664
587.98	0.665
588.17	0.667
588.37	0.669
588.56	0.671
588.76	0.667
588.95	0.667
589.15	0.671
589.34	0.674
589.54	0.673
589.73	0.674
589.92	0.677
590.12	0.677
590.31	0.675
590.51	0.681
590.70	0.682
590.90	0.683
591.09	0.682
591.29	0.680
591.48	0.680
591.68	0.680
591.87	0.679
592.06	0.679
592.26	0.681
592.45	0.679
592.65	0.673
592.84	0.672
593.04	0.675
593.23	0.677
593.43	0.675
593.62	0.674
593.81	0.675
594.01	0.674
594.20	0.671
594.40	0.670
594.59	0.672
594.79	0.673
594.98	0.671
595.17	0.671
595.37	0.672
595.56	0.674
595.76	0.674
595.95	0.675
596.14	0.679
596.34	0.680
596.53	0.679
596.73	0.681
596.92	0.682
597.12	0.685
597.31	0.684
597.50	0.684
597.70	0.686
597.89	0.685
598.09	0.681
598.28	0.682
598.47	0.684
598.67	0.683
598.86	0.679
599.06	0.681
599.25	0.680
599.44	0.678
599.64	0.676
599.83	0.673
600.03	0.675
600.22	0.676
600.41	0.676
600.61	0.674
600.80	0.675
601.00	0.675
601.19	0.671
601.38	0.670
601.58	0.673
601.77	0.674
601.96	0.676
602.16	0.677
602.35	0.685
602.55	0.683
602.74	0.684
602.93	0.687
603.13	0.692
603.32	0.694
603.51	0.694
603.71	0.697
603.90	0.698
604.09	0.699
604.29	0.696
604.48	0.691
604.68	0.692
604.87	0.690
605.06	0.687
605.26	0.684
605.45	0.684
605.64	0.683
605.84	0.679
606.03	0.677
606.22	0.676
606.42	0.675
606.61	0.671
606.80	0.671
607.00	0.673
607.19	0.673
607.38	0.671
607.58	0.672
607.77	0.675
607.96	0.674
608.16	0.673
608.35	0.677
608.54	0.680
608.74	0.683
608.93	0.687
609.12	0.690
609.32	0.692
609.51	0.696
609.70	0.695
609.90	0.697
610.09	0.701
610.28	0.707
610.48	0.702
610.67	0.704
610.86	0.705
611.06	0.700
611.25	0.698
611.44	0.699
611.64	0.699
611.83	0.702
612.02	0.699
612.21	0.697
612.41	0.695
612.60	0.694
612.79	0.691
612.99	0.690
613.18	0.692
613.37	0.690
613.57	0.687
613.76	0.689
613.95	0.686
614.14	0.684
614.34	0.682
614.53	0.682
614.72	0.685
614.92	0.685
615.11	0.683
615.30	0.680
615.49	0.680
615.69	0.683
615.88	0.679
616.07	0.681
616.26	0.683
616.46	0.684
616.65	0.682
616.84	0.681
617.04	0.682
617.23	0.685
617.42	0.686
617.61	0.690
617.81	0.690
618.00	0.691
618.19	0.690
618.38	0.694
618.58	0.698
618.77	0.699
618.96	0.698
619.15	0.700
619.35	0.700
619.54	0.701
619.73	0.697
619.92	0.699
620.12	0.704
620.31	0.704
620.50	0.699
620.69	0.699
620.89	0.702
621.08	0.702
621.27	0.703
621.46	0.702
621.66	0.705
621.85	0.706
622.04	0.703
622.23	0.703
622.43	0.703
622.62	0.703
622.81	0.702
623.00	0.702
623.19	0.705
623.39	0.703
623.58	0.701
623.77	0.700
623.96	0.703
624.16	0.703
624.35	0.699
624.54	0.702
624.73	0.705
624.92	0.703
625.12	0.700
625.31	0.700
625.50	0.702
625.69	0.703
625.88	0.699
626.08	0.698
626.27	0.699
626.46	0.698
626.65	0.695
626.84	0.694
627.04	0.699
627.23	0.700
627.42	0.697
627.61	0.698
627.80	0.701
628.00	0.702
628.19	0.701
628.38	0.705
628.57	0.707
628.76	0.707
628.96	0.704
629.15	0.705
629.34	0.707
629.53	0.708
629.72	0.703
629.91	0.704
630.11	0.708
630.30	0.708
630.49	0.710
630.68	0.711
630.87	0.714
631.06	0.716
631.26	0.711
631.45	0.713
631.64	0.720
631.83	0.721
632.02	0.719
632.21	0.716
632.41	0.723
632.60	0.718
632.79	0.718
632.98	0.718
633.17	0.719
633.36	0.722
633.55	0.718
633.75	0.714
633.94	0.715
634.13	0.715
634.32	0.713
634.51	0.708
634.70	0.710
634.89	0.709
635.09	0.705
635.28	0.706
635.47	0.705
635.66	0.708
635.85	0.704
636.04	0.706
636.23	0.710
636.43	0.711
636.62	0.710
636.81	0.708
637.00	0.711
637.19	0.714
637.38	0.712
637.57	0.712
637.76	0.715
637.95	0.716
638.15	0.713
638.34	0.710
638.53	0.712
638.72	0.714
638.91	0.711
639.10	0.710
639.29	0.710
639.48	0.710
639.67	0.710
639.87	0.708
640.06	0.713
640.25	0.713
640.44	0.714
640.63	0.715
640.82	0.717
641.01	0.717
641.20	0.717
641.39	0.720
641.58	0.722
641.78	0.720
641.97	0.716
642.16	0.729
642.35	0.730
642.54	0.729
642.73	0.723
642.92	0.722
643.11	0.726
643.30	0.725
643.49	0.720
643.68	0.721
643.87	0.723
644.06	0.723
644.25	0.704
644.45	0.707
644.64	0.708
644.83	0.709
645.02	0.705
645.21	0.704
645.40	0.705
645.59	0.705
645.78	0.700
645.97	0.701
646.16	0.702
646.35	0.701
646.54	0.699
646.73	0.701
646.92	0.701
647.11	0.701
647.30	0.697
647.49	0.699
647.68	0.698
647.88	0.697
648.07	0.691
648.26	0.694
648.45	0.695
648.64	0.692
648.83	0.690
649.02	0.693
649.21	0.704
649.40	0.704
649.59	0.699
649.78	0.700
649.97	0.713
650.16	0.713
650.35	0.707
650.54	0.710
650.73	0.719
650.92	0.715
651.11	0.708
651.30	0.705
651.49	0.708
651.68	0.708
651.87	0.706
652.06	0.696
652.25	0.700
652.44	0.704
652.63	0.703
652.82	0.704
653.01	0.706
653.20	0.704
653.39	0.692
653.58	0.690
653.77	0.690
653.96	0.685
654.15	0.677
654.34	0.674
654.53	0.669
654.72	0.663
654.91	0.653
655.10	0.648
655.29	0.647
655.48	0.645
655.67	0.639
655.86	0.636
656.05	0.635
656.24	0.634
656.43	0.630
656.62	0.628
656.81	0.627
657.00	0.624
657.19	0.620
657.38	0.619
657.57	0.617
657.76	0.619
657.95	0.617
658.14	0.619
658.33	0.621
658.51	0.626
658.70	0.626
658.89	0.628
659.08	0.638
659.27	0.646
659.46	0.648
659.65	0.655
659.84	0.658
660.03	0.662
660.22	0.662
660.41	0.667
660.60	0.666
660.79	0.668
660.98	0.674
661.17	0.672
661.36	0.671
661.55	0.672
661.74	0.670
661.92	0.673
662.11	0.675
662.30	0.674
662.49	0.668
662.68	0.668
662.87	0.671
663.06	0.665
663.25	0.667
663.44	0.668
663.63	0.669
663.82	0.667
664.01	0.663
664.20	0.662
664.38	0.663
664.57	0.664
664.76	0.663
664.95	0.664
665.14	0.668
665.33	0.663
665.52	0.670
665.71	0.673
665.90	0.672
666.09	0.672
666.28	0.670
666.46	0.668
666.65	0.668
666.84	0.666
667.03	0.661
667.22	0.659
667.41	0.661
667.60	0.650
667.79	0.644
667.98	0.646
668.16	0.648
668.35	0.648
668.54	0.645
668.73	0.647
668.92	0.647
669.11	0.646
669.30	0.641
669.49	0.636
669.67	0.638
669.86	0.641
670.05	0.639
670.24	0.636
670.43	0.635
670.62	0.633
670.81	0.628
671.00	0.629
671.18	0.629
671.37	0.628
671.56	0.627
671.75	0.626
671.94	0.622
672.13	0.620
672.32	0.616
672.50	0.615
672.69	0.615
672.88	0.615
673.07	0.611
673.26	0.613
673.45	0.614
673.63	0.614
673.82	0.610
674.01	0.612
674.20	0.612
674.39	0.611
674.58	0.610
674.76	0.611
674.95	0.609
675.14	0.609
675.33	0.605
675.52	0.603
675.71	0.603
675.89	0.603
676.08	0.598
676.27	0.599
676.46	0.599
676.65	0.599
676.84	0.598
677.02	0.599
677.21	0.601
677.40	0.600
677.59	0.597
677.78	0.598
677.96	0.600
678.15	0.600
678.34	0.598
678.53	0.598
678.72	0.597
678.90	0.595
679.09	0.590
679.28	0.588
679.47	0.588
679.66	0.588
679.84	0.586
680.03	0.583
680.22	0.581
680.41	0.583
680.60	0.579
680.78	0.579
680.97	0.580
681.16	0.581
681.35	0.579
681.53	0.578
681.72	0.579
681.91	0.580
682.10	0.578
682.29	0.581
682.47	0.578
682.66	0.577
682.85	0.575
683.04	0.573
683.22	0.574
683.41	0.576
683.60	0.575
683.79	0.576
683.97	0.576
684.16	0.574
684.35	0.570
684.54	0.572
684.72	0.573
684.91	0.574
685.10	0.572
685.29	0.572
685.47	0.569
685.66	0.568
685.85	0.565
686.04	0.564
686.22	0.567
686.41	0.570
686.60	0.567
686.79	0.570
686.97	0.571
687.16	0.572
687.35	0.570
687.54	0.573
687.72	0.576
687.91	0.576
688.10	0.577
688.29	0.577
688.47	0.575
688.66	0.575
688.85	0.572
689.03	0.569
689.22	0.574
689.41	0.573
689.60	0.570
689.78	0.568
689.97	0.568
690.16	0.566
690.34	0.562
690.53	0.561
690.72	0.562
690.91	0.560
691.09	0.558
691.28	0.552
691.47	0.551
691.65	0.550
691.84	0.548
692.03	0.547
692.21	0.544
692.40	0.544
692.59	0.541
692.77	0.540
692.96	0.541
693.15	0.541
693.34	0.539
693.52	0.539
693.71	0.539
693.90	0.539
694.08	0.540
694.27	0.541
694.46	0.550
694.64	0.551
694.83	0.551
695.02	0.550
695.20	0.550
695.39	0.550
695.58	0.550
695.76	0.551
695.95	0.550
696.14	0.548
696.32	0.547
696.51	0.538
696.70	0.537
696.88	0.539
697.07	0.537
697.26	0.539
697.44	0.539
697.63	0.539
697.81	0.537
698.00	0.536
698.19	0.535
698.37	0.535
698.56	0.534
698.75	0.535
698.93	0.534
699.12	0.534
699.31	0.533
699.49	0.532
699.68	0.533
699.87	0.535
700.05	0.536
700.24	0.535
700.42	0.537
700.61	0.536
700.80	0.534
700.98	0.534
701.17	0.535
701.36	0.534
701.54	0.534
701.73	0.534
701.91	0.532
702.10	0.531
702.29	0.529
702.47	0.528
702.66	0.530
702.84	0.531
703.03	0.529
703.22	0.530
703.40	0.530
703.59	0.531
703.77	0.531
703.96	0.532
704.15	0.532
704.33	0.533
704.52	0.533
704.70	0.531
704.89	0.531
705.08	0.530
705.26	0.526
705.45	0.527
705.63	0.526
705.82	0.523
706.00	0.522
706.19	0.521
706.38	0.521
706.56	0.521
706.75	0.519
706.93	0.518
707.12	0.519
707.30	0.519
707.49	0.516
707.68	0.515
707.86	0.514
708.05	0.514
708.23	0.512
708.42	0.511
708.60	0.513
708.79	0.513
708.98	0.512
709.16	0.511
709.35	0.512
709.53	0.516
709.72	0.515
709.90	0.517
710.09	0.518
710.27	0.521
710.46	0.524
710.64	0.523
710.83	0.524
711.02	0.526
711.20	0.526
711.39	0.525
711.57	0.522
711.76	0.523
711.94	0.521
712.13	0.523
712.31	0.522
712.50	0.518
712.68	0.515
712.87	0.516
713.05	0.516
713.24	0.516
713.42	0.515
713.61	0.516
713.79	0.517
713.98	0.517
714.16	0.517
714.35	0.516
714.54	0.517
714.72	0.518
714.91	0.515
715.09	0.521
715.28	0.525
715.46	0.524
715.65	0.522
715.83	0.521
716.02	0.523
716.20	0.519
716.39	0.519
716.57	0.520
716.76	0.522
716.94	0.523
717.12	0.515
717.31	0.516
717.49	0.520
717.68	0.522
717.86	0.522
718.05	0.523
718.23	0.526
718.42	0.528
718.60	0.529
718.79	0.536
718.97	0.538
719.16	0.539
719.34	0.536
719.53	0.536
719.71	0.536
719.90	0.537
720.08	0.534
720.27	0.534
720.45	0.534
720.63	0.533
720.82	0.528
721.00	0.530
721.19	0.532
721.37	0.532
721.56	0.532
721.74	0.535
721.93	0.544
722.11	0.549
722.30	0.548
722.48	0.552
722.66	0.553
722.85	0.554
723.03	0.554
723.22	0.553
723.40	0.556
723.59	0.556
723.77	0.561
723.95	0.554
724.14	0.557
724.32	0.559
724.51	0.560
724.69	0.560
724.88	0.560
725.06	0.559
725.24	0.559
725.43	0.561
725.61	0.564
725.80	0.557
725.98	0.556
726.16	0.552
726.35	0.557
726.53	0.555
726.72	0.554
726.90	0.565
727.09	0.565
727.27	0.571
727.45	0.568
727.64	0.577
727.82	0.584
728.01	0.588
728.19	0.586
728.37	0.591
728.56	0.596
728.74	0.602
728.92	0.590
729.11	0.593
729.29	0.591
729.48	0.593
729.66	0.582
729.84	0.581
730.03	0.584
730.21	0.586
730.40	0.578
730.58	0.578
730.76	0.577
730.95	0.579
731.13	0.578
731.31	0.592
731.50	0.600
731.68	0.603
731.86	0.601
732.05	0.614
732.23	0.616
732.42	0.620
732.60	0.624
732.78	0.629
732.97	0.647
733.15	0.654
733.33	0.643
733.52	0.649
733.70	0.660
733.88	0.668
734.07	0.655
734.25	0.680
734.43	0.687
734.62	0.689
734.80	0.684
734.98	0.672
735.17	0.677
735.35	0.683
735.53	0.672
735.72	0.675
735.90	0.696
736.08	0.716
736.27	0.695
736.45	0.704
736.63	0.715
736.82	0.728
737.00	0.731
737.18	0.741
737.37	0.769
737.55	0.789
737.73	0.785
737.92	0.785
738.10	0.778
738.28	0.795
738.46	0.785
738.65	0.796
738.83	0.815
739.01	0.864
739.20	0.856
739.38	0.841
739.56	0.833
739.75	0.836
739.93	0.812
740.11	0.837
740.29	0.834
740.48	0.838
740.66	0.820
740.84	0.810
741.03	0.774
741.21	0.785
741.39	0.768
741.57	0.780
741.76	0.793
741.94	0.795
742.12	0.764
742.31	0.772
742.49	0.786
742.67	0.807
742.85	0.826
743.04	0.830
743.22	0.836
743.40	0.884
743.58	0.869
743.77	0.886
743.95	0.915
744.13	0.958
744.31	0.943
744.50	0.940
744.68	0.941
744.86	0.911
745.04	0.926
745.23	0.989
745.41	0.971
745.59	0.976
745.77	0.946
745.96	0.938
746.14	0.945
746.32	0.939
746.50	0.932
746.69	0.916
746.87	0.927
747.05	0.909
747.23	0.842
747.42	0.828
747.60	0.852
747.78	0.855
747.96	0.879
748.14	0.842
748.33	0.867
748.51	0.865
748.69	0.859
748.87	0.884
749.06	0.880
749.24	0.880
749.42	0.867
749.60	0.850
749.78	0.857
749.97	0.818
750.15	0.810
750.33	0.810
750.51	0.828
750.69	0.830
750.88	0.834
751.06	0.844
751.24	0.861
751.42	0.854
751.60	0.848
751.79	0.912
751.97	0.952
752.15	0.952
752.33	0.929
752.51	0.988
752.69	0.997
752.88	0.973
753.06	1.016
753.24	1.001
753.42	1.033
753.60	1.182
753.78	1.055
753.97	1.068
754.15	1.082
754.33	1.106
754.51	0.996
754.69	0.986
754.87	1.011
755.06	0.949
755.24	0.952
755.42	0.959
755.60	0.865
755.78	0.872
755.96	0.824
756.15	0.827
756.33	0.824
756.51	0.838
756.69	0.825
756.87	0.791
757.05	0.803
757.23	0.790
757.42	0.761
757.60	0.762
757.78	0.753
757.96	0.753
758.14	0.737
758.32	0.726
758.50	0.739
758.69	0.739
758.87	0.733
759.05	0.736
759.23	0.742
759.41	0.743
759.59	0.736
759.77	0.755
759.95	0.776
760.13	0.820
760.32	0.821
760.50	0.816
760.68	0.836
760.86	0.841
761.04	0.820
761.22	0.826
761.40	0.867
761.58	0.871
761.76	0.848
761.95	0.834
762.13	0.793
762.31	0.795
762.49	0.768
762.67	0.786
762.85	0.795
763.03	0.790
763.21	0.774
763.39	0.756
763.57	0.753
763.75	0.748
763.94	0.735
764.12	0.736
764.30	0.758
764.48	0.763
764.66	0.730
764.84	0.728
765.02	0.759
765.20	0.765
765.38	0.748
765.56	0.755
765.74	0.789
765.92	0.787
766.10	0.793
766.28	0.785
766.46	0.808
766.65	0.807
766.83	0.796
767.01	0.785
767.19	0.789
767.37	0.789
767.55	0.779
767.73	0.761
767.91	0.765
768.09	0.755
768.27	0.745
768.45	0.736
768.63	0.739
768.81	0.742
768.99	0.718
769.17	0.739
769.35	0.753
769.53	0.749
769.71	0.732
769.89	0.738
770.07	0.743
770.25	0.728
770.43	0.708
770.61	0.731
770.79	0.736
770.97	0.745
771.15	0.718
771.33	0.716
771.51	0.718
771.69	0.728
771.87	0.735
772.05	0.739
772.24	0.745
772.42	0.755
772.60	0.735
772.78	0.790
772.96	0.814
773.14	0.811
773.32	0.797
773.49	0.803
773.67	0.802
773.85	0.785
774.03	0.776
774.21	0.806
774.39	0.813
774.57	0.835
774.75	0.768
774.93	0.765
775.11	0.783
775.29	0.789
775.47	0.793
775.65	0.802
775.83	0.815
776.01	0.837
776.19	0.794
776.37	0.798
776.55	0.799
776.73	0.796
776.91	0.790
777.09	0.772
777.27	0.768
777.45	0.756
777.63	0.736
777.81	0.734
777.99	0.721
778.17	0.722
778.35	0.703
778.53	0.692
778.71	0.698
778.89	0.688
779.07	0.680
779.24	0.685
779.42	0.686
779.60	0.703
779.78	0.699
779.96	0.702
780.14	0.708
780.32	0.723
780.50	0.708
780.68	0.705
780.86	0.697
781.04	0.714
781.22	0.720
781.40	0.730
781.58	0.719
781.75	0.712
781.93	0.697
782.11	0.695
782.29	0.682
782.47	0.681
782.65	0.671
782.83	0.697
783.01	0.688
783.19	0.681
783.37	0.670
783.55	0.673
783.72	0.689
783.90	0.702
784.08	0.698
784.26	0.708
784.44	0.728
784.62	0.731
784.80	0.701
784.98	0.709
785.16	0.715
785.33	0.727
785.51	0.714
785.69	0.701
785.87	0.698
786.05	0.708
786.23	0.707
786.41	0.702
786.59	0.708
786.77	0.708
786.94	0.696
787.12	0.698
787.30	0.699
787.48	0.698
787.66	0.689
787.84	0.690
788.02	0.679
788.19	0.674
788.37	0.663
788.55	0.663
788.73	0.662
788.91	0.656
789.09	0.640
789.27	0.630
789.44	0.640
789.62	0.645
789.80	0.653
789.98	0.677
790.16	0.664
790.34	0.660
790.51	0.650
790.69	0.667
790.87	0.672
791.05	0.668
791.23	0.662
791.41	0.662
791.58	0.668
791.76	0.648
791.94	0.621
792.12	0.630
792.30	0.632
792.48	0.631
792.65	0.627
792.83	0.633
793.01	0.639
793.19	0.640
793.37	0.627
793.54	0.626
793.72	0.636
793.90	0.635
794.08	0.627
794.26	0.626
794.43	0.633
794.61	0.617
794.79	0.609
794.97	0.609
795.15	0.613
795.32	0.617
795.50	0.606
795.68	0.600
795.86	0.603
796.04	0.604
796.21	0.599
796.39	0.597
796.57	0.608
796.75	0.615
796.92	0.615
797.10	0.617
797.28	0.617
797.46	0.621
797.64	0.625
797.81	0.633
797.99	0.636
798.17	0.641
798.35	0.638
798.52	0.641
798.70	0.635
798.88	0.645
799.06	0.646
799.23	0.649
799.41	0.657
799.59	0.649
799.77	0.638
799.94	0.645
800.12	0.652
800.30	0.668
800.48	0.668
800.65	0.670
800.83	0.660
801.01	0.652
801.19	0.653
801.36	0.648
801.54	0.650
801.72	0.660
801.90	0.649
802.07	0.644
802.25	0.630
802.43	0.616
802.60	0.612
802.78	0.618
802.96	0.620
803.14	0.613
803.31	0.613
803.49	0.614
803.67	0.610
803.84	0.614
804.02	0.609
804.20	0.611
804.38	0.615
804.55	0.613
804.73	0.601
804.91	0.603
805.08	0.614
805.26	0.611
805.44	0.674
805.61	0.676
805.79	0.675
805.97	0.675
806.15	0.669
806.32	0.664
806.50	0.668
806.68	0.669
806.85	0.660
807.03	0.651
807.21	0.664
807.38	0.600
807.56	0.591
807.74	0.601
807.91	0.606
808.09	0.608
808.27	0.626
808.44	0.651
808.62	0.657
808.80	0.661
808.97	0.657
809.15	0.653
809.33	0.668
809.50	0.676
809.68	0.662
809.86	0.669
810.03	0.697
810.21	0.679
810.39	0.663
810.56	0.669
810.74	0.689
810.91	0.757
811.09	0.750
811.27	0.769
811.44	0.772
811.62	0.773
811.80	0.758
811.97	0.730
812.15	0.729
812.33	0.723
812.50	0.710
812.68	0.701
812.85	0.649
813.03	0.650
813.21	0.620
813.38	0.614
813.56	0.616
813.74	0.625
813.91	0.633
814.09	0.658
814.26	0.652
814.44	0.656
814.62	0.647
814.79	0.649
814.97	0.651
815.14	0.654
815.32	0.657
815.50	0.672
815.67	0.674
815.85	0.665
816.02	0.657
816.20	0.665
816.38	0.676
816.55	0.680
816.73	0.680
816.90	0.690
817.08	0.717
817.26	0.726
817.43	0.709
817.61	0.733
817.78	0.752
817.96	0.732
818.13	0.724
818.31	0.724
818.49	0.736
818.66	0.727
818.84	0.715
819.01	0.696
819.19	0.698
819.36	0.699
819.54	0.671
819.71	0.709
819.89	0.719
820.07	0.728
820.24	0.724
820.42	0.723
820.59	0.741
820.77	0.763
820.94	0.756
821.12	0.774
821.29	0.787
821.47	0.790
821.64	0.733
821.82	0.749
822.00	0.748
822.17	0.746
822.35	0.738
822.52	0.739
822.70	0.728
822.87	0.737
823.05	0.720
823.22	0.733
823.40	0.755
823.57	0.779
823.75	0.759
823.92	0.779
824.10	0.795
824.27	0.836
824.45	0.826
824.62	0.881
824.80	0.890
824.97	0.899
825.15	0.888
825.32	0.901
825.50	0.897
825.67	0.912
825.85	0.898
826.02	0.915
826.20	0.931
826.37	1.042
826.55	0.969
826.72	1.141
826.90	1.206
827.07	1.246
827.25	1.200
827.42	1.335
827.60	1.432
827.77	1.544
827.95	1.537
828.12	1.630
828.30	1.349
828.47	1.467
828.65	1.169
828.82	1.208
829.00	1.250
829.17	1.310
829.34	1.305
829.52	1.334
829.69	-0.000
829.87	-0.000
830.04	-0.000
830.22	-0.000
830.39	-0.000
830.57	-0.000
830.74	-0.000
830.92	-0.000
831.09	-0.000
831.26	-0.000
831.44	-0.000
831.61	-0.000
831.79	-0.000
831.96	-0.000
832.14	-0.000
832.31	-0.000
832.49	-0.000
832.66	-0.000
832.83	-0.000
833.01	-0.000
833.18	-0.000
833.36	-0.000
833.53	-0.000
833.70	-0.000
833.88	-0.000
834.05	-0.000
834.23	-0.000
834.40	-0.000
834.58	-0.000
834.75	-0.000
834.92	-0.000
835.10	-0.000
835.27	-0.000
835.45	-0.000
835.62	-0.000
835.79	-0.000
835.97	-0.000
836.14	-0.000
836.32	-0.000
836.49	-0.000
836.66	-0.000
836.84	-0.000
837.01	-0.000
837.18	-0.000
837.36	-0.000
837.53	-0.000
837.71	-0.000
837.88	-0.000
838.05	-0.000
838.23	-0.000
838.40	-0.000
838.58	-0.000
838.75	-0.000
838.92	-0.000
839.10	-0.000
839.27	-0.000
839.44	-0.000
839.62	-0.000
839.79	-0.000
839.96	-0.000
840.14	-0.000
840.31	-0.000
840.48	-0.000
840.66	-0.000
840.83	-0.000
841.01	-0.000
841.18	-0.000
841.35	-0.000
841.53	-0.000
841.70	-0.000
841.87	-0.000
842.05	-0.000
842.22	-0.000
842.39	-0.000
842.57	-0.000
842.74	-0.000
842.91	-0.000
843.09	-0.000
843.26	-0.000
843.43	-0.000
843.60	-0.000
843.78	-0.000
843.95	-0.000
844.12	-0.000
844.30	-0.000
844.47	-0.000
844.64	-0.000
844.82	-0.000
844.99	-0.000
845.16	-0.000
845.34	-0.000
845.51	-0.000
845.68	-0.000
845.85	-0.000
846.03	-0.000
846.20	-0.000
846.37	-0.000
846.55	-0.000
846.72	-0.000
846.89	-0.000
847.06	-0.000
847.24	-0.000
847.41	-0.000
847.58	-0.000
847.76	-0.000
847.93	-0.000
848.10	-0.000
848.27	-0.000
848.45	-0.000
848.62	-0.000
848.79	-0.000
848.97	-0.000
849.14	-0.000
849.31	-0.000
849.48	-0.000
849.66	-0.000
849.83	-0.000
850.00	-0.000
850.17	-0.000
850.35	-0.000
850.52	-0.000
850.69	-0.000
850.86	-0.000
851.04	-0.000
851.21	-0.000
851.38	-0.000
851.55	-0.000
851.72	-0.000
851.90	-0.000
852.07	-0.000
852.24	-0.000
852.41	-0.000
852.59	-0.000
852.76	-0.000
852.93	-0.000
853.10	-0.000
853.28	-0.000
853.45	-0.000
853.62	-0.000
853.79	-0.000
853.96	-0.000
854.14	-0.000
854.31	-0.000
854.48	-0.000
854.65	-0.000
854.82	-0.000
855.00	-0.000
855.17	-0.000
855.34	-0.000
855.51	-0.000
855.68	-0.000
855.86	-0.000
856.03	-0.000
856.20	-0.000
856.37	-0.000
856.54	-0.000
856.72	-0.000
856.89	-0.000
857.06	-0.000
857.23	-0.000
857.40	-0.000
857.57	-0.000
857.75	-0.000
857.92	-0.000
858.09	-0.000
858.26	-0.000
858.43	-0.000
858.60	-0.000
858.78	-0.000
858.95	-0.000
859.12	-0.000
859.29	-0.000
859.46	-0.000
859.63	-0.000
859.81	-0.000
859.98	-0.000
860.15	-0.000
860.32	-0.000
860.49	-0.000
860.66	-0.000
860.83	-0.000
861.01	-0.000
861.18	-0.000
861.35	-0.000
861.52	-0.000
861.69	-0.000
861.86	-0.000
862.03	-0.000
862.21	-0.000
862.38	-0.000
862.55	-0.000
862.72	-0.000
862.89	-0.000
863.06	-0.000
863.23	-0.000
863.40	-0.000
863.58	-0.000
863.75	-0.000
863.92	-0.000
864.09	-0.000
864.26	-0.000
864.43	-0.000
864.60	-0.000
864.77	-0.000
864.94	-0.000
865.11	-0.000
865.29	-0.000
865.46	-0.000
865.63	-0.000
865.80	-0.000
865.97	-0.000
866.14	-0.000
866.31	-0.000
866.48	-0.000
866.65	-0.000
866.82	-0.000
866.99	-0.000
867.16	-0.000
867.34	-0.000
867.51	-0.000
867.68	-0.000
867.85	-0.000
868.02	-0.000
868.19	-0.000
868.36	-0.000
868.53	-0.000
868.70	-0.000
868.87	-0.000
869.04	-0.000
869.21	-0.000
869.38	-0.000
869.55	-0.000
869.72	-0.000
869.89	-0.000
870.06	-0.000
870.24	-0.000
870.41	-0.000
870.58	-0.000
870.75	-0.000
870.92	-0.000
871.09	-0.000
871.26	-0.000
871.43	-0.000
871.60	-0.000
871.77	-0.000
871.94	-0.000
872.11	-0.000
872.28	-0.000
872.45	-0.000
872.62	-0.000
872.79	-0.000
872.96	-0.000
873.13	-0.000
873.30	-0.000
873.47	-0.000
873.64	-0.000
873.81	-0.000
873.98	-0.000
874.15	-0.000
874.32	-0.000
874.49	-0.000
874.66	-0.000
874.83	-0.000
875.00	-0.000
875.17	-0.000
875.34	-0.000
875.51	-0.000
875.68	-0.000
875.85	-0.000
876.02	-0.000
876.19	-0.000
876.36	-0.000
876.53	-0.000
876.70	-0.000
876.87	-0.000
877.04	-0.000
877.21	-0.000
877.38	-0.000
877.55	-0.000
877.72	-0.000
877.89	-0.000
878.06	-0.000
878.23	-0.000
878.39	-0.000
878.56	-0.000
878.73	-0.000
878.90	-0.000
879.07	-0.000
879.24	-0.000
879.41	-0.000
879.58	-0.000
879.75	-0.000
879.92	-0.000
880.09	-0.000
880.26	-0.000
880.43	-0.000
880.60	-0.000
880.77	-0.000
880.94	-0.000
881.11	-0.000
881.27	-0.000
881.44	-0.000
881.61	-0.000
881.78	-0.000
881.95	-0.000
882.12	-0.000
882.29	-0.000
882.46	-0.000
882.63	-0.000
882.80	-0.000
882.97	-0.000
883.14	-0.000
883.30	-0.000
883.47	-0.000
883.64	-0.000
883.81	-0.000
883.98	-0.000
884.15	-0.000
884.32	-0.000
884.49	-0.000
884.66	-0.000
884.82	-0.000
884.99	-0.000
885.16	-0.000
885.33	-0.000
885.50	-0.000
885.67	-0.000
885.84	-0.000
886.01	-0.000
886.17	-0.000
886.34	-0.000
886.51	-0.000
886.68	-0.000
886.85	-0.000
887.02	-0.000
887.19	-0.000
887.36	-0.000
887.52	-0.000
887.69	-0.000
887.86	-0.000
888.03	-0.000
888.20	-0.000
888.37	-0.000
888.54	-0.000
888.70	-0.000
888.87	-0.000
889.04	-0.000
889.21	-0.000
889.38	-0.000
889.55	-0.000
889.71	-0.000
889.88	-0.000
890.05	-0.000
890.22	-0.000
890.39	-0.000
>>>>>End Processed Spectral Data<<<<<
