SpectraSuite Data File
++++++++++++++++++++++++++++++++++++
Date: Fri Jun 19 14:25:15 CEST 2015
User: introlabs
Dark Spectrum Present: Yes
Reference Spectrum Present: Yes
Number of Sampled Component Spectra: 1
Spectrometers: USB4H08886
Integration Time (usec): 745692 (USB4H08886)
Spectra Averaged: 5 (USB4H08886)
Boxcar Smoothing: 5 (USB4H08886)
Correct for Electrical Dark: Yes (USB4H08886)
Strobe/Lamp Enabled: No (USB4H08886)
Correct for Detector Non-linearity: Yes (USB4H08886)
Correct for Stray Light: Yes (USB4H08886)
Number of Pixels in Processed Spectrum: 3648
>>>>>Begin Processed Spectral Data<<<<<
178.14	-0.000
178.36	-0.000
178.57	-0.000
178.79	-0.000
179.01	-0.000
179.22	-0.000
179.44	-0.000
179.65	-0.000
179.87	-0.000
180.08	-0.000
180.30	-0.000
180.52	-0.000
180.73	-0.000
180.95	-0.000
181.16	-0.000
181.38	-0.000
181.59	-0.000
181.81	-0.000
182.03	-0.000
182.24	-0.000
182.46	-0.000
182.67	-0.000
182.89	-0.000
183.10	-0.000
183.32	-0.000
183.54	-0.000
183.75	-0.000
183.97	-0.000
184.18	-0.000
184.40	-0.000
184.61	-0.000
184.83	-0.000
185.04	-0.000
185.26	-0.000
185.48	-0.000
185.69	-0.000
185.91	-0.000
186.12	-0.000
186.34	-0.000
186.55	-0.000
186.77	-0.000
186.98	-0.000
187.20	-0.000
187.42	-0.000
187.63	-0.000
187.85	-0.000
188.06	-0.000
188.28	-0.000
188.49	-0.000
188.71	-0.000
188.92	-0.000
189.14	-0.000
189.36	-0.000
189.57	-0.000
189.79	-0.000
190.00	-0.000
190.22	-0.000
190.43	-0.000
190.65	-0.000
190.86	-0.000
191.08	-0.000
191.29	-0.000
191.51	-0.000
191.72	-0.000
191.94	-0.000
192.16	-0.000
192.37	-0.000
192.59	-0.000
192.80	-0.000
193.02	-0.000
193.23	-0.000
193.45	-0.000
193.66	-0.000
193.88	-0.000
194.09	-0.000
194.31	-0.000
194.52	-0.000
194.74	-0.000
194.95	-0.000
195.17	-0.000
195.38	-0.000
195.60	-0.000
195.81	-0.000
196.03	-0.000
196.25	-0.000
196.46	-0.000
196.68	-0.000
196.89	-0.000
197.11	-0.000
197.32	-0.000
197.54	-0.000
197.75	-0.000
197.97	-0.000
198.18	-0.000
198.40	-0.000
198.61	-0.000
198.83	-0.000
199.04	-0.000
199.26	-0.000
199.47	-0.000
199.69	-0.000
199.90	-0.000
200.12	-0.000
200.33	-0.000
200.55	-0.000
200.76	-0.000
200.98	-0.000
201.19	-0.000
201.41	-0.000
201.62	-0.000
201.84	-0.000
202.05	-0.000
202.27	-0.000
202.48	-0.000
202.70	-0.000
202.91	-0.000
203.13	-0.000
203.34	-0.000
203.56	-0.000
203.77	-0.000
203.99	-0.000
204.20	-0.000
204.42	-0.000
204.63	-0.000
204.85	-0.000
205.06	-0.000
205.28	-0.000
205.49	-0.000
205.71	-0.000
205.92	-0.000
206.14	-0.000
206.35	-0.000
206.56	-0.000
206.78	-0.000
206.99	-0.000
207.21	-0.000
207.42	-0.000
207.64	-0.000
207.85	-0.000
208.07	-0.000
208.28	-0.000
208.50	-0.000
208.71	-0.000
208.93	-0.000
209.14	-0.000
209.36	-0.000
209.57	-0.000
209.79	-0.000
210.00	-0.000
210.22	-0.000
210.43	-0.000
210.64	-0.000
210.86	-0.000
211.07	-0.000
211.29	-0.000
211.50	-0.000
211.72	-0.000
211.93	-0.000
212.15	-0.000
212.36	-0.000
212.58	-0.000
212.79	-0.000
213.01	-0.000
213.22	-0.000
213.43	-0.000
213.65	-0.000
213.86	-0.000
214.08	-0.000
214.29	-0.000
214.51	-0.000
214.72	-0.000
214.94	-0.000
215.15	-0.000
215.36	-0.000
215.58	-0.000
215.79	-0.000
216.01	-0.000
216.22	-0.000
216.44	-0.000
216.65	-0.000
216.87	-0.000
217.08	-0.000
217.29	-0.000
217.51	-0.000
217.72	-0.000
217.94	-0.000
218.15	-0.000
218.37	-0.000
218.58	-0.000
218.80	-0.000
219.01	-0.000
219.22	-0.000
219.44	-0.000
219.65	-0.000
219.87	-0.000
220.08	-0.000
220.30	-0.000
220.51	-0.000
220.72	-0.000
220.94	-0.000
221.15	-0.000
221.37	-0.000
221.58	-0.000
221.79	-0.000
222.01	-0.000
222.22	-0.000
222.44	-0.000
222.65	-0.000
222.87	-0.000
223.08	-0.000
223.29	-0.000
223.51	-0.000
223.72	-0.000
223.94	-0.000
224.15	-0.000
224.36	-0.000
224.58	-0.000
224.79	-0.000
225.01	-0.000
225.22	-0.000
225.44	-0.000
225.65	-0.000
225.86	-0.000
226.08	-0.000
226.29	-0.000
226.51	-0.000
226.72	-0.000
226.93	-0.000
227.15	-0.000
227.36	-0.000
227.58	-0.000
227.79	-0.000
228.00	-0.000
228.22	-0.000
228.43	-0.000
228.65	-0.000
228.86	-0.000
229.07	-0.000
229.29	-0.000
229.50	-0.000
229.72	-0.000
229.93	-0.000
230.14	-0.000
230.36	-0.000
230.57	-0.000
230.78	-0.000
231.00	-0.000
231.21	-0.000
231.43	-0.000
231.64	-0.000
231.85	-0.000
232.07	-0.000
232.28	-0.000
232.50	-0.000
232.71	-0.000
232.92	-0.000
233.14	-0.000
233.35	-0.000
233.56	-0.000
233.78	-0.000
233.99	-0.000
234.21	-0.000
234.42	-0.000
234.63	-0.000
234.85	-0.000
235.06	-0.000
235.27	-0.000
235.49	-0.000
235.70	-0.000
235.91	-0.000
236.13	-0.000
236.34	-0.000
236.56	-0.000
236.77	-0.000
236.98	-0.000
237.20	-0.000
237.41	-0.000
237.62	-0.000
237.84	-0.000
238.05	-0.000
238.26	-0.000
238.48	-0.000
238.69	-0.000
238.91	-0.000
239.12	-0.000
239.33	-0.000
239.55	-0.000
239.76	-0.000
239.97	-0.000
240.19	-0.000
240.40	-0.000
240.61	-0.000
240.83	-0.000
241.04	-0.000
241.25	-0.000
241.47	-0.000
241.68	-0.000
241.89	-0.000
242.11	-0.000
242.32	-0.000
242.53	-0.000
242.75	-0.000
242.96	-0.000
243.17	-0.000
243.39	-0.000
243.60	-0.000
243.81	-0.000
244.03	-0.000
244.24	-0.000
244.45	-0.000
244.67	-0.000
244.88	-0.000
245.09	-0.000
245.31	-0.000
245.52	-0.000
245.73	-0.000
245.95	-0.000
246.16	-0.000
246.37	-0.000
246.59	-0.000
246.80	-0.000
247.01	-0.000
247.23	-0.000
247.44	-0.000
247.65	-0.000
247.87	-0.000
248.08	-0.000
248.29	-0.000
248.51	-0.000
248.72	-0.000
248.93	-0.000
249.15	-0.000
249.36	-0.000
249.57	-0.000
249.78	-0.000
250.00	-0.000
250.21	-0.000
250.42	-0.000
250.64	-0.000
250.85	-0.000
251.06	-0.000
251.28	-0.000
251.49	-0.000
251.70	-0.000
251.92	-0.000
252.13	-0.000
252.34	-0.000
252.55	-0.000
252.77	-0.000
252.98	-0.000
253.19	-0.000
253.41	-0.000
253.62	-0.000
253.83	-0.000
254.05	-0.000
254.26	-0.000
254.47	-0.000
254.68	-0.000
254.90	-0.000
255.11	-0.000
255.32	-0.000
255.54	-0.000
255.75	-0.000
255.96	-0.000
256.17	-0.000
256.39	-0.000
256.60	-0.000
256.81	-0.000
257.03	-0.000
257.24	-0.000
257.45	-0.000
257.66	-0.000
257.88	-0.000
258.09	-0.000
258.30	-0.000
258.51	-0.000
258.73	-0.000
258.94	-0.000
259.15	-0.000
259.37	-0.000
259.58	-0.000
259.79	-0.000
260.00	-0.000
260.22	-0.000
260.43	-0.000
260.64	-0.000
260.85	-0.000
261.07	-0.000
261.28	-0.000
261.49	-0.000
261.71	-0.000
261.92	-0.000
262.13	-0.000
262.34	-0.000
262.56	-0.000
262.77	-0.000
262.98	-0.000
263.19	-0.000
263.41	-0.000
263.62	-0.000
263.83	-0.000
264.04	-0.000
264.26	-0.000
264.47	-0.000
264.68	-0.000
264.89	-0.000
265.11	-0.000
265.32	-0.000
265.53	-0.000
265.74	-0.000
265.96	-0.000
266.17	-0.000
266.38	-0.000
266.59	-0.000
266.81	-0.000
267.02	-0.000
267.23	-0.000
267.44	-0.000
267.65	-0.000
267.87	-0.000
268.08	-0.000
268.29	-0.000
268.50	-0.000
268.72	-0.000
268.93	-0.000
269.14	-0.000
269.35	-0.000
269.57	-0.000
269.78	-0.000
269.99	-0.000
270.20	-0.000
270.41	-0.000
270.63	-0.000
270.84	-0.000
271.05	-0.000
271.26	-0.000
271.48	-0.000
271.69	-0.000
271.90	-0.000
272.11	-0.000
272.32	-0.000
272.54	-0.000
272.75	-0.000
272.96	-0.000
273.17	-0.000
273.39	-0.000
273.60	-0.000
273.81	-0.000
274.02	-0.000
274.23	-0.000
274.45	-0.000
274.66	-0.000
274.87	-0.000
275.08	-0.000
275.29	-0.000
275.51	-0.000
275.72	-0.000
275.93	-0.000
276.14	-0.000
276.35	-0.000
276.57	-0.000
276.78	-0.000
276.99	-0.000
277.20	-0.000
277.41	-0.000
277.63	-0.000
277.84	-0.000
278.05	-0.000
278.26	-0.000
278.47	-0.000
278.69	-0.000
278.90	-0.000
279.11	-0.000
279.32	-0.000
279.53	-0.000
279.74	-0.000
279.96	-0.000
280.17	-0.000
280.38	-0.000
280.59	-0.000
280.80	-0.000
281.02	-0.000
281.23	-0.000
281.44	-0.000
281.65	-0.000
281.86	-0.000
282.07	-0.000
282.29	-0.000
282.50	-0.000
282.71	-0.000
282.92	-0.000
283.13	-0.000
283.35	-0.000
283.56	-0.000
283.77	-0.000
283.98	-0.000
284.19	-0.000
284.40	-0.000
284.62	-0.000
284.83	-0.000
285.04	-0.000
285.25	-0.000
285.46	-0.000
285.67	-0.000
285.88	-0.000
286.10	-0.000
286.31	-0.000
286.52	-0.000
286.73	-0.000
286.94	-0.000
287.15	-0.000
287.37	-0.000
287.58	-0.000
287.79	-0.000
288.00	-0.000
288.21	-0.000
288.42	-0.000
288.63	-0.000
288.85	-0.000
289.06	-0.000
289.27	-0.000
289.48	-0.000
289.69	-0.000
289.90	-0.000
290.11	-0.000
290.33	-0.000
290.54	-0.000
290.75	-0.000
290.96	-0.000
291.17	-0.000
291.38	-0.000
291.59	-0.000
291.81	-0.000
292.02	-0.000
292.23	-0.000
292.44	-0.000
292.65	-0.000
292.86	-0.000
293.07	-0.000
293.28	-0.000
293.50	-0.000
293.71	-0.000
293.92	-0.000
294.13	-0.000
294.34	-0.000
294.55	-0.000
294.76	-0.000
294.97	-0.000
295.19	-0.000
295.40	-0.000
295.61	-0.000
295.82	-0.000
296.03	-0.000
296.24	-0.000
296.45	2.104
296.66	1.754
296.87	1.784
297.09	1.871
297.30	2.124
297.51	1.713
297.72	1.685
297.93	1.782
298.14	1.746
298.35	1.711
298.56	1.702
298.77	1.853
298.99	1.815
299.20	1.774
299.41	1.742
299.62	1.686
299.83	1.677
300.04	1.606
300.25	1.598
300.46	1.639
300.67	1.610
300.88	1.547
301.10	1.554
301.31	1.634
301.52	1.569
301.73	1.503
301.94	1.510
302.15	1.528
302.36	1.482
302.57	1.417
302.78	1.428
302.99	1.474
303.20	1.491
303.41	1.393
303.63	1.376
303.84	1.390
304.05	1.392
304.26	1.326
304.47	1.330
304.68	1.331
304.89	1.321
305.10	1.278
305.31	1.266
305.52	1.310
305.73	1.304
305.94	1.263
306.15	1.253
306.37	1.272
306.58	1.282
306.79	1.253
307.00	1.276
307.21	1.317
307.42	1.314
307.63	1.277
307.84	1.247
308.05	1.286
308.26	1.286
308.47	1.260
308.68	1.259
308.89	1.258
309.10	1.255
309.31	1.215
309.52	1.208
309.73	1.222
309.95	1.215
310.16	1.181
310.37	1.170
310.58	1.190
310.79	1.191
311.00	1.186
311.21	1.190
311.42	1.193
311.63	1.188
311.84	1.168
312.05	1.169
312.26	1.193
312.47	1.207
312.68	1.181
312.89	1.163
313.10	1.170
313.31	1.142
313.52	1.143
313.73	1.144
313.94	1.146
314.15	1.129
314.36	1.103
314.57	1.096
314.78	1.082
314.99	1.078
315.21	1.067
315.42	1.071
315.63	1.084
315.84	1.060
316.05	1.045
316.26	1.052
316.47	1.069
316.68	1.067
316.89	1.047
317.10	1.068
317.31	1.073
317.52	1.073
317.73	1.053
317.94	1.052
318.15	1.096
318.36	1.095
318.57	1.079
318.78	1.069
318.99	1.105
319.20	1.103
319.41	1.067
319.62	1.069
319.83	1.082
320.04	1.077
320.25	1.062
320.46	1.031
320.67	1.036
320.88	1.032
321.09	1.018
321.30	1.001
321.51	1.016
321.72	1.017
321.93	1.000
322.14	0.992
322.35	1.020
322.56	1.023
322.77	1.008
322.98	1.018
323.19	1.026
323.40	1.031
323.61	1.010
323.82	1.005
324.03	1.010
324.24	1.008
324.45	0.995
324.66	0.976
324.87	0.972
325.08	0.975
325.29	0.955
325.50	0.947
325.71	0.953
325.92	0.963
326.13	0.948
326.34	0.949
326.55	0.958
326.76	0.956
326.97	0.946
327.18	0.940
327.39	0.964
327.60	0.966
327.80	0.968
328.01	0.966
328.22	0.964
328.43	0.970
328.64	0.957
328.85	0.961
329.06	0.965
329.27	0.963
329.48	0.958
329.69	0.940
329.90	0.949
330.11	0.942
330.32	0.935
330.53	0.930
330.74	0.930
330.95	0.928
331.16	0.912
331.37	0.921
331.58	0.922
331.79	0.922
332.00	0.911
332.21	0.905
332.42	0.909
332.63	0.900
332.83	0.895
333.04	0.897
333.25	0.909
333.46	0.908
333.67	0.893
333.88	0.896
334.09	0.905
334.30	0.903
334.51	0.893
334.72	0.888
334.93	0.893
335.14	0.892
335.35	0.884
335.56	0.879
335.77	0.888
335.98	0.886
336.18	0.879
336.39	0.873
336.60	0.878
336.81	0.876
337.02	0.876
337.23	0.880
337.44	0.882
337.65	0.884
337.86	0.874
338.07	0.869
338.28	0.874
338.49	0.872
338.70	0.864
338.91	0.871
339.11	0.878
339.32	0.874
339.53	0.862
339.74	0.860
339.95	0.858
340.16	0.856
340.37	0.849
340.58	0.848
340.79	0.851
341.00	0.853
341.21	0.841
341.41	0.841
341.62	0.843
341.83	0.845
342.04	0.840
342.25	0.850
342.46	0.855
342.67	0.853
342.88	0.845
343.09	0.843
343.30	0.850
343.50	0.853
343.71	0.843
343.92	0.841
344.13	0.844
344.34	0.844
344.55	0.828
344.76	0.827
344.97	0.831
345.18	0.829
345.38	0.827
345.59	0.821
345.80	0.821
346.01	0.820
346.22	0.814
346.43	0.809
346.64	0.817
346.85	0.816
347.06	0.809
347.26	0.811
347.47	0.815
347.68	0.810
347.89	0.806
348.10	0.801
348.31	0.808
348.52	0.808
348.73	0.804
348.93	0.801
349.14	0.804
349.35	0.803
349.56	0.796
349.77	0.792
349.98	0.798
350.19	0.796
350.39	0.790
350.60	0.786
350.81	0.802
351.02	0.802
351.23	0.796
351.44	0.800
351.65	0.803
351.86	0.801
352.06	0.799
352.27	0.799
352.48	0.801
352.69	0.800
352.90	0.794
353.11	0.781
353.31	0.788
353.52	0.784
353.73	0.775
353.94	0.776
354.15	0.782
354.36	0.780
354.57	0.772
354.77	0.775
354.98	0.774
355.19	0.774
355.40	0.772
355.61	0.778
355.82	0.783
356.02	0.783
356.23	0.777
356.44	0.779
356.65	0.783
356.86	0.783
357.07	0.776
357.27	0.779
357.48	0.781
357.69	0.778
357.90	0.762
358.11	0.758
358.32	0.762
358.52	0.764
358.73	0.754
358.94	0.757
359.15	0.762
359.36	0.762
359.56	0.758
359.77	0.755
359.98	0.761
360.19	0.761
360.40	0.758
360.61	0.758
360.81	0.757
361.02	0.758
361.23	0.750
361.44	0.749
361.65	0.750
361.85	0.749
362.06	0.746
362.27	0.749
362.48	0.750
362.69	0.753
362.89	0.745
363.10	0.747
363.31	0.752
363.52	0.754
363.73	0.749
363.93	0.748
364.14	0.751
364.35	0.753
364.56	0.743
364.77	0.745
364.97	0.747
365.18	0.748
365.39	0.743
365.60	0.740
365.81	0.741
366.01	0.741
366.22	0.738
366.43	0.738
366.64	0.740
366.84	0.745
367.05	0.742
367.26	0.741
367.47	0.743
367.68	0.744
367.88	0.740
368.09	0.739
368.30	0.740
368.51	0.741
368.71	0.740
368.92	0.743
369.13	0.742
369.34	0.741
369.55	0.740
369.75	0.739
369.96	0.746
370.17	0.746
370.38	0.742
370.58	0.742
370.79	0.747
371.00	0.745
371.21	0.737
371.41	0.743
371.62	0.747
371.83	0.742
372.04	0.741
372.24	0.733
372.45	0.735
372.66	0.735
372.87	0.732
373.07	0.728
373.28	0.729
373.49	0.733
373.70	0.722
373.90	0.721
374.11	0.730
374.32	0.730
374.53	0.729
374.73	0.730
374.94	0.732
375.15	0.732
375.36	0.730
375.56	0.738
375.77	0.739
375.98	0.739
376.19	0.736
376.39	0.730
376.60	0.734
376.81	0.734
377.02	0.731
377.22	0.730
377.43	0.730
377.64	0.730
377.84	0.721
378.05	0.725
378.26	0.732
378.47	0.731
378.67	0.728
378.88	0.725
379.09	0.725
379.30	0.726
379.50	0.724
379.71	0.725
379.92	0.729
380.12	0.728
380.33	0.719
380.54	0.716
380.75	0.723
380.95	0.723
381.16	0.721
381.37	0.721
381.57	0.723
381.78	0.723
381.99	0.723
382.20	0.722
382.40	0.725
382.61	0.725
382.82	0.722
383.02	0.715
383.23	0.719
383.44	0.718
383.64	0.716
383.85	0.719
384.06	0.721
384.27	0.719
384.47	0.717
384.68	0.717
384.89	0.723
385.09	0.723
385.30	0.721
385.51	0.720
385.71	0.723
385.92	0.724
386.13	0.723
386.33	0.726
386.54	0.727
386.75	0.727
386.95	0.723
387.16	0.718
387.37	0.720
387.58	0.720
387.78	0.719
387.99	0.717
388.20	0.719
388.40	0.715
388.61	0.711
388.82	0.714
389.02	0.716
389.23	0.716
389.44	0.715
389.64	0.716
389.85	0.726
390.06	0.727
390.26	0.727
390.47	0.727
390.68	0.729
390.88	0.727
391.09	0.722
391.30	0.721
391.50	0.721
391.71	0.720
391.92	0.717
392.12	0.710
392.33	0.710
392.53	0.709
392.74	0.709
392.95	0.709
393.15	0.711
393.36	0.713
393.57	0.711
393.77	0.715
393.98	0.717
394.19	0.717
394.39	0.716
394.60	0.718
394.81	0.720
395.01	0.718
395.22	0.716
395.43	0.717
395.63	0.722
395.84	0.723
396.04	0.719
396.25	0.721
396.46	0.723
396.66	0.721
396.87	0.718
397.08	0.715
397.28	0.718
397.49	0.719
397.69	0.715
397.90	0.710
398.11	0.712
398.31	0.713
398.52	0.709
398.73	0.710
398.93	0.709
399.14	0.708
399.34	0.707
399.55	0.708
399.76	0.708
399.96	0.709
400.17	0.708
400.37	0.705
400.58	0.712
400.79	0.714
400.99	0.711
401.20	0.717
401.41	0.719
401.61	0.720
401.82	0.725
402.02	0.725
402.23	0.725
402.44	0.725
402.64	0.726
402.85	0.720
403.05	0.720
403.26	0.719
403.47	0.713
403.67	0.712
403.88	0.712
404.08	0.706
404.29	0.704
404.50	0.704
404.70	0.705
404.91	0.703
405.11	0.700
405.32	0.700
405.52	0.701
405.73	0.701
405.94	0.699
406.14	0.702
406.35	0.705
406.55	0.705
406.76	0.702
406.97	0.703
407.17	0.705
407.38	0.705
407.58	0.703
407.79	0.705
407.99	0.707
408.20	0.709
408.41	0.705
408.61	0.702
408.82	0.703
409.02	0.704
409.23	0.701
409.43	0.700
409.64	0.702
409.84	0.702
410.05	0.699
410.26	0.698
410.46	0.697
410.67	0.696
410.87	0.697
411.08	0.699
411.28	0.700
411.49	0.701
411.69	0.699
411.90	0.700
412.11	0.701
412.31	0.702
412.52	0.700
412.72	0.701
412.93	0.703
413.13	0.702
413.34	0.699
413.54	0.700
413.75	0.702
413.95	0.701
414.16	0.697
414.37	0.700
414.57	0.701
414.78	0.704
414.98	0.701
415.19	0.702
415.39	0.699
415.60	0.701
415.80	0.701
416.01	0.699
416.21	0.702
416.42	0.701
416.62	0.696
416.83	0.697
417.03	0.695
417.24	0.696
417.44	0.693
417.65	0.693
417.86	0.693
418.06	0.691
418.27	0.689
418.47	0.690
418.68	0.691
418.88	0.692
419.09	0.690
419.29	0.691
419.50	0.692
419.70	0.691
419.91	0.690
420.11	0.688
420.32	0.691
420.52	0.690
420.73	0.689
420.93	0.690
421.14	0.692
421.34	0.690
421.55	0.686
421.75	0.686
421.96	0.687
422.16	0.688
422.37	0.687
422.57	0.684
422.78	0.686
422.98	0.683
423.19	0.681
423.39	0.679
423.60	0.683
423.80	0.685
424.01	0.684
424.21	0.686
424.42	0.687
424.62	0.687
424.83	0.686
425.03	0.686
425.23	0.688
425.44	0.687
425.64	0.688
425.85	0.687
426.05	0.688
426.26	0.688
426.46	0.684
426.67	0.683
426.87	0.688
427.08	0.688
427.28	0.687
427.49	0.688
427.69	0.689
427.90	0.688
428.10	0.684
428.31	0.684
428.51	0.685
428.71	0.685
428.92	0.685
429.12	0.682
429.33	0.683
429.53	0.687
429.74	0.691
429.94	0.691
430.15	0.691
430.35	0.691
430.56	0.688
430.76	0.688
430.96	0.689
431.17	0.687
431.37	0.684
431.58	0.682
431.78	0.679
431.99	0.672
432.19	0.674
432.40	0.675
432.60	0.676
432.80	0.678
433.01	0.676
433.21	0.676
433.42	0.677
433.62	0.678
433.83	0.678
434.03	0.680
434.23	0.683
434.44	0.682
434.64	0.680
434.85	0.685
435.05	0.686
435.26	0.686
435.46	0.684
435.66	0.684
435.87	0.683
436.07	0.683
436.28	0.679
436.48	0.676
436.69	0.676
436.89	0.676
437.09	0.670
437.30	0.669
437.50	0.669
437.71	0.682
437.91	0.680
438.11	0.682
438.32	0.685
438.52	0.686
438.73	0.685
438.93	0.683
439.13	0.683
439.34	0.687
439.54	0.685
439.75	0.684
439.95	0.674
440.15	0.678
440.36	0.677
440.56	0.676
440.77	0.676
440.97	0.676
441.17	0.675
441.38	0.676
441.58	0.673
441.79	0.673
441.99	0.672
442.19	0.670
442.40	0.668
442.60	0.668
442.81	0.665
443.01	0.665
443.21	0.666
443.42	0.666
443.62	0.664
443.82	0.664
444.03	0.666
444.23	0.665
444.44	0.666
444.64	0.665
444.84	0.666
445.05	0.666
445.25	0.663
445.45	0.663
445.66	0.666
445.86	0.664
446.06	0.665
446.27	0.665
446.47	0.668
446.68	0.666
446.88	0.665
447.08	0.664
447.29	0.666
447.49	0.666
447.69	0.666
447.90	0.665
448.10	0.669
448.30	0.666
448.51	0.667
448.71	0.665
448.91	0.667
449.12	0.666
449.32	0.668
449.52	0.667
449.73	0.670
449.93	0.669
450.14	0.669
450.34	0.668
450.54	0.671
450.75	0.668
450.95	0.668
451.15	0.668
451.36	0.670
451.56	0.667
451.76	0.666
451.97	0.663
452.17	0.664
452.37	0.662
452.58	0.658
452.78	0.658
452.98	0.659
453.19	0.659
453.39	0.659
453.59	0.658
453.79	0.658
454.00	0.659
454.20	0.658
454.40	0.658
454.61	0.661
454.81	0.661
455.01	0.660
455.22	0.661
455.42	0.663
455.62	0.661
455.83	0.660
456.03	0.663
456.23	0.665
456.44	0.666
456.64	0.665
456.84	0.664
457.04	0.665
457.25	0.664
457.45	0.661
457.65	0.659
457.86	0.660
458.06	0.658
458.26	0.654
458.47	0.653
458.67	0.655
458.87	0.655
459.07	0.653
459.28	0.655
459.48	0.658
459.68	0.658
459.89	0.657
460.09	0.656
460.29	0.658
460.49	0.659
460.70	0.658
460.90	0.657
461.10	0.658
461.31	0.657
461.51	0.654
461.71	0.655
461.91	0.657
462.12	0.656
462.32	0.655
462.52	0.656
462.72	0.659
462.93	0.659
463.13	0.658
463.33	0.659
463.53	0.660
463.74	0.660
463.94	0.655
464.14	0.656
464.35	0.658
464.55	0.658
464.75	0.656
464.95	0.653
465.16	0.655
465.36	0.654
465.56	0.653
465.76	0.652
465.97	0.652
466.17	0.653
466.37	0.651
466.57	0.652
466.78	0.653
466.98	0.653
467.18	0.652
467.38	0.651
467.59	0.652
467.79	0.653
467.99	0.652
468.19	0.654
468.39	0.656
468.60	0.656
468.80	0.654
469.00	0.655
469.20	0.657
469.41	0.657
469.61	0.656
469.81	0.656
470.01	0.656
470.22	0.656
470.42	0.654
470.62	0.651
470.82	0.653
471.02	0.652
471.23	0.650
471.43	0.650
471.63	0.653
471.83	0.652
472.04	0.651
472.24	0.650
472.44	0.655
472.64	0.655
472.84	0.653
473.05	0.653
473.25	0.656
473.45	0.655
473.65	0.653
473.85	0.654
474.06	0.656
474.26	0.656
474.46	0.657
474.66	0.653
474.86	0.655
475.07	0.655
475.27	0.653
475.47	0.650
475.67	0.651
475.87	0.652
476.08	0.648
476.28	0.650
476.48	0.651
476.68	0.649
476.88	0.647
477.09	0.648
477.29	0.650
477.49	0.651
477.69	0.650
477.89	0.650
478.09	0.649
478.30	0.652
478.50	0.649
478.70	0.649
478.90	0.650
479.10	0.652
479.31	0.653
479.51	0.650
479.71	0.651
479.91	0.651
480.11	0.650
480.31	0.650
480.52	0.649
480.72	0.649
480.92	0.648
481.12	0.646
481.32	0.644
481.52	0.642
481.72	0.642
481.93	0.645
482.13	0.646
482.33	0.645
482.53	0.644
482.73	0.644
482.93	0.645
483.14	0.645
483.34	0.644
483.54	0.645
483.74	0.644
483.94	0.643
484.14	0.639
484.34	0.639
484.55	0.640
484.75	0.640
484.95	0.638
485.15	0.638
485.35	0.638
485.55	0.637
485.75	0.635
485.96	0.636
486.16	0.638
486.36	0.637
486.56	0.635
486.76	0.636
486.96	0.636
487.16	0.636
487.36	0.634
487.57	0.633
487.77	0.634
487.97	0.635
488.17	0.633
488.37	0.632
488.57	0.633
488.77	0.633
488.97	0.631
489.18	0.630
489.38	0.633
489.58	0.634
489.78	0.633
489.98	0.633
490.18	0.632
490.38	0.633
490.58	0.632
490.78	0.633
490.98	0.635
491.19	0.636
491.39	0.635
491.59	0.633
491.79	0.636
491.99	0.636
492.19	0.636
492.39	0.639
492.59	0.639
492.79	0.641
492.99	0.641
493.20	0.641
493.40	0.640
493.60	0.642
493.80	0.641
494.00	0.639
494.20	0.640
494.40	0.639
494.60	0.636
494.80	0.640
495.00	0.640
495.20	0.638
495.40	0.636
495.61	0.638
495.81	0.638
496.01	0.642
496.21	0.642
496.41	0.641
496.61	0.642
496.81	0.641
497.01	0.636
497.21	0.635
497.41	0.637
497.61	0.636
497.81	0.633
498.01	0.633
498.21	0.631
498.41	0.629
498.61	0.629
498.82	0.630
499.02	0.633
499.22	0.633
499.42	0.633
499.62	0.633
499.82	0.635
500.02	0.636
500.22	0.635
500.42	0.637
500.62	0.638
500.82	0.638
501.02	0.636
501.22	0.636
501.42	0.636
501.62	0.638
501.82	0.638
502.02	0.639
502.22	0.638
502.42	0.640
502.62	0.637
502.82	0.638
503.02	0.638
503.22	0.638
503.42	0.636
503.63	0.636
503.83	0.634
504.03	0.632
504.23	0.630
504.43	0.631
504.63	0.631
504.83	0.631
505.03	0.630
505.23	0.631
505.43	0.633
505.63	0.633
505.83	0.632
506.03	0.634
506.23	0.637
506.43	0.637
506.63	0.636
506.83	0.635
507.03	0.637
507.23	0.637
507.43	0.634
507.63	0.635
507.83	0.636
508.03	0.637
508.23	0.636
508.43	0.634
508.63	0.636
508.83	0.637
509.03	0.638
509.23	0.637
509.43	0.638
509.63	0.638
509.83	0.636
510.03	0.638
510.23	0.640
510.43	0.641
510.63	0.641
510.83	0.641
511.03	0.642
511.23	0.639
511.43	0.639
511.63	0.640
511.83	0.643
512.03	0.642
512.22	0.639
512.42	0.639
512.62	0.640
512.82	0.639
513.02	0.638
513.22	0.639
513.42	0.641
513.62	0.643
513.82	0.641
514.02	0.641
514.22	0.642
514.42	0.643
514.62	0.642
514.82	0.643
515.02	0.646
515.22	0.648
515.42	0.647
515.62	0.649
515.82	0.648
516.02	0.650
516.22	0.650
516.42	0.650
516.62	0.652
516.82	0.653
517.01	0.651
517.21	0.650
517.41	0.654
517.61	0.655
517.81	0.651
518.01	0.651
518.21	0.651
518.41	0.649
518.61	0.648
518.81	0.648
519.01	0.649
519.21	0.649
519.41	0.647
519.61	0.642
519.81	0.645
520.00	0.645
520.20	0.645
520.40	0.648
520.60	0.649
520.80	0.649
521.00	0.650
521.20	0.651
521.40	0.656
521.60	0.656
521.80	0.655
522.00	0.655
522.20	0.658
522.39	0.657
522.59	0.653
522.79	0.655
522.99	0.657
523.19	0.655
523.39	0.653
523.59	0.651
523.79	0.655
523.99	0.657
524.19	0.656
524.38	0.654
524.58	0.656
524.78	0.656
524.98	0.654
525.18	0.656
525.38	0.658
525.58	0.657
525.78	0.655
525.98	0.653
526.18	0.654
526.37	0.653
526.57	0.655
526.77	0.655
526.97	0.656
527.17	0.657
527.37	0.653
527.57	0.656
527.77	0.658
527.96	0.658
528.16	0.657
528.36	0.657
528.56	0.659
528.76	0.657
528.96	0.656
529.16	0.657
529.36	0.660
529.55	0.659
529.75	0.656
529.95	0.656
530.15	0.658
530.35	0.661
530.55	0.658
530.75	0.659
530.94	0.660
531.14	0.660
531.34	0.659
531.54	0.657
531.74	0.660
531.94	0.664
532.13	0.662
532.33	0.664
532.53	0.662
532.73	0.662
532.93	0.660
533.13	0.661
533.33	0.661
533.52	0.660
533.72	0.663
533.92	0.661
534.12	0.659
534.32	0.659
534.52	0.656
534.71	0.659
534.91	0.662
535.11	0.664
535.31	0.662
535.51	0.664
535.71	0.667
535.90	0.663
536.10	0.665
536.30	0.667
536.50	0.667
536.70	0.668
536.89	0.665
537.09	0.664
537.29	0.666
537.49	0.667
537.69	0.664
537.89	0.665
538.08	0.665
538.28	0.663
538.48	0.664
538.68	0.666
538.88	0.667
539.07	0.668
539.27	0.665
539.47	0.664
539.67	0.665
539.87	0.666
540.06	0.664
540.26	0.665
540.46	0.668
540.66	0.665
540.86	0.662
541.05	0.662
541.25	0.664
541.45	0.664
541.65	0.662
541.84	0.664
542.04	0.664
542.24	0.664
542.44	0.663
542.64	0.665
542.83	0.668
543.03	0.669
543.23	0.666
543.43	0.667
543.62	0.669
543.82	0.669
544.02	0.668
544.22	0.668
544.42	0.672
544.61	0.672
544.81	0.668
545.01	0.666
545.21	0.668
545.40	0.668
545.60	0.666
545.80	0.669
546.00	0.669
546.19	0.669
546.39	0.667
546.59	0.665
546.79	0.667
546.98	0.667
547.18	0.666
547.38	0.667
547.58	0.670
547.77	0.671
547.97	0.667
548.17	0.669
548.37	0.669
548.56	0.669
548.76	0.668
548.96	0.670
549.16	0.673
549.35	0.673
549.55	0.670
549.75	0.671
549.95	0.674
550.14	0.675
550.34	0.672
550.54	0.677
550.73	0.681
550.93	0.682
551.13	0.678
551.33	0.677
551.52	0.678
551.72	0.679
551.92	0.676
552.12	0.677
552.31	0.677
552.51	0.677
552.71	0.672
552.90	0.672
553.10	0.674
553.30	0.674
553.50	0.673
553.69	0.674
553.89	0.675
554.09	0.675
554.28	0.672
554.48	0.673
554.68	0.675
554.87	0.676
555.07	0.673
555.27	0.673
555.47	0.674
555.66	0.675
555.86	0.673
556.06	0.675
556.25	0.676
556.45	0.684
556.65	0.682
556.84	0.685
557.04	0.687
557.24	0.689
557.43	0.688
557.63	0.692
557.83	0.693
558.02	0.694
558.22	0.698
558.42	0.699
558.61	0.692
558.81	0.693
559.01	0.689
559.21	0.688
559.40	0.689
559.60	0.690
559.80	0.685
559.99	0.686
560.19	0.689
560.39	0.683
560.58	0.681
560.78	0.681
560.97	0.685
561.17	0.683
561.37	0.681
561.56	0.682
561.76	0.683
561.96	0.683
562.15	0.680
562.35	0.682
562.55	0.683
562.74	0.683
562.94	0.682
563.14	0.680
563.33	0.681
563.53	0.681
563.73	0.678
563.92	0.680
564.12	0.683
564.31	0.686
564.51	0.684
564.71	0.686
564.90	0.689
565.10	0.691
565.30	0.693
565.49	0.694
565.69	0.696
565.89	0.697
566.08	0.694
566.28	0.696
566.47	0.697
566.67	0.695
566.87	0.691
567.06	0.693
567.26	0.699
567.46	0.694
567.65	0.693
567.85	0.695
568.04	0.698
568.24	0.697
568.44	0.694
568.63	0.692
568.83	0.694
569.02	0.693
569.22	0.689
569.42	0.684
569.61	0.687
569.81	0.685
570.00	0.684
570.20	0.684
570.40	0.686
570.59	0.685
570.79	0.683
570.98	0.681
571.18	0.683
571.38	0.683
571.57	0.680
571.77	0.678
571.96	0.682
572.16	0.679
572.35	0.674
572.55	0.675
572.75	0.674
572.94	0.674
573.14	0.672
573.33	0.672
573.53	0.672
573.73	0.672
573.92	0.669
574.12	0.667
574.31	0.670
574.51	0.671
574.70	0.668
574.90	0.669
575.09	0.672
575.29	0.672
575.49	0.669
575.68	0.670
575.88	0.671
576.07	0.673
576.27	0.670
576.46	0.669
576.66	0.668
576.86	0.668
577.05	0.665
577.25	0.664
577.44	0.666
577.64	0.665
577.83	0.663
578.03	0.665
578.22	0.664
578.42	0.663
578.61	0.662
578.81	0.662
579.00	0.663
579.20	0.662
579.40	0.661
579.59	0.660
579.79	0.660
579.98	0.660
580.18	0.659
580.37	0.660
580.57	0.662
580.76	0.666
580.96	0.664
581.15	0.665
581.35	0.667
581.54	0.667
581.74	0.666
581.93	0.668
582.13	0.669
582.32	0.666
582.52	0.664
582.71	0.663
582.91	0.660
583.10	0.660
583.30	0.658
583.49	0.658
583.69	0.662
583.88	0.662
584.08	0.661
584.27	0.664
584.47	0.667
584.66	0.668
584.86	0.667
585.05	0.669
585.25	0.672
585.44	0.671
585.64	0.669
585.83	0.666
586.03	0.667
586.22	0.665
586.42	0.661
586.61	0.663
586.81	0.665
587.00	0.665
587.20	0.662
587.39	0.663
587.59	0.665
587.78	0.666
587.98	0.666
588.17	0.667
588.37	0.670
588.56	0.672
588.76	0.668
588.95	0.668
589.15	0.673
589.34	0.675
589.54	0.673
589.73	0.674
589.92	0.677
590.12	0.677
590.31	0.675
590.51	0.680
590.70	0.681
590.90	0.682
591.09	0.679
591.29	0.678
591.48	0.678
591.68	0.679
591.87	0.677
592.06	0.676
592.26	0.678
592.45	0.677
592.65	0.671
592.84	0.671
593.04	0.674
593.23	0.676
593.43	0.673
593.62	0.672
593.81	0.673
594.01	0.673
594.20	0.671
594.40	0.670
594.59	0.672
594.79	0.673
594.98	0.671
595.17	0.670
595.37	0.671
595.56	0.674
595.76	0.673
595.95	0.674
596.14	0.677
596.34	0.678
596.53	0.676
596.73	0.678
596.92	0.679
597.12	0.682
597.31	0.681
597.50	0.681
597.70	0.683
597.89	0.682
598.09	0.678
598.28	0.680
598.47	0.682
598.67	0.681
598.86	0.677
599.06	0.679
599.25	0.679
599.44	0.677
599.64	0.674
599.83	0.671
600.03	0.674
600.22	0.675
600.41	0.675
600.61	0.672
600.80	0.675
601.00	0.675
601.19	0.671
601.38	0.670
601.58	0.673
601.77	0.674
601.96	0.676
602.16	0.677
602.35	0.686
602.55	0.684
602.74	0.685
602.93	0.687
603.13	0.692
603.32	0.694
603.51	0.693
603.71	0.696
603.90	0.698
604.09	0.698
604.29	0.695
604.48	0.689
604.68	0.691
604.87	0.689
605.06	0.685
605.26	0.682
605.45	0.683
605.64	0.682
605.84	0.677
606.03	0.676
606.22	0.675
606.42	0.675
606.61	0.671
606.80	0.670
607.00	0.672
607.19	0.673
607.38	0.672
607.58	0.673
607.77	0.676
607.96	0.675
608.16	0.673
608.35	0.678
608.54	0.681
608.74	0.684
608.93	0.689
609.12	0.693
609.32	0.695
609.51	0.698
609.70	0.697
609.90	0.698
610.09	0.703
610.28	0.708
610.48	0.702
610.67	0.704
610.86	0.705
611.06	0.699
611.25	0.696
611.44	0.697
611.64	0.696
611.83	0.699
612.02	0.696
612.21	0.696
612.41	0.694
612.60	0.693
612.79	0.689
612.99	0.689
613.18	0.691
613.37	0.689
613.57	0.685
613.76	0.687
613.95	0.685
614.14	0.684
614.34	0.681
614.53	0.682
614.72	0.685
614.92	0.685
615.11	0.682
615.30	0.679
615.49	0.681
615.69	0.684
615.88	0.680
616.07	0.681
616.26	0.684
616.46	0.685
616.65	0.681
616.84	0.680
617.04	0.681
617.23	0.684
617.42	0.686
617.61	0.689
617.81	0.690
618.00	0.691
618.19	0.690
618.38	0.693
618.58	0.697
618.77	0.699
618.96	0.699
619.15	0.701
619.35	0.703
619.54	0.703
619.73	0.697
619.92	0.700
620.12	0.704
620.31	0.705
620.50	0.700
620.69	0.700
620.89	0.703
621.08	0.702
621.27	0.702
621.46	0.701
621.66	0.705
621.85	0.706
622.04	0.701
622.23	0.702
622.43	0.703
622.62	0.703
622.81	0.701
623.00	0.701
623.19	0.705
623.39	0.704
623.58	0.700
623.77	0.699
623.96	0.702
624.16	0.702
624.35	0.696
624.54	0.699
624.73	0.703
624.92	0.701
625.12	0.698
625.31	0.699
625.50	0.702
625.69	0.702
625.88	0.699
626.08	0.698
626.27	0.700
626.46	0.702
626.65	0.699
626.84	0.699
627.04	0.704
627.23	0.703
627.42	0.698
627.61	0.701
627.80	0.704
628.00	0.703
628.19	0.702
628.38	0.705
628.57	0.708
628.76	0.707
628.96	0.703
629.15	0.703
629.34	0.706
629.53	0.707
629.72	0.701
629.91	0.701
630.11	0.707
630.30	0.707
630.49	0.709
630.68	0.708
630.87	0.713
631.06	0.715
631.26	0.710
631.45	0.712
631.64	0.720
631.83	0.723
632.02	0.720
632.21	0.718
632.41	0.726
632.60	0.721
632.79	0.720
632.98	0.719
633.17	0.720
633.36	0.723
633.55	0.719
633.75	0.715
633.94	0.716
634.13	0.716
634.32	0.713
634.51	0.707
634.70	0.709
634.89	0.709
635.09	0.706
635.28	0.706
635.47	0.708
635.66	0.711
635.85	0.706
636.04	0.708
636.23	0.713
636.43	0.714
636.62	0.713
636.81	0.712
637.00	0.715
637.19	0.718
637.38	0.714
637.57	0.714
637.76	0.716
637.95	0.717
638.15	0.713
638.34	0.709
638.53	0.714
638.72	0.716
638.91	0.713
639.10	0.710
639.29	0.710
639.48	0.711
639.67	0.711
639.87	0.709
640.06	0.715
640.25	0.714
640.44	0.715
640.63	0.715
640.82	0.717
641.01	0.717
641.20	0.716
641.39	0.718
641.58	0.720
641.78	0.719
641.97	0.715
642.16	0.729
642.35	0.730
642.54	0.730
642.73	0.724
642.92	0.722
643.11	0.726
643.30	0.724
643.49	0.719
643.68	0.722
643.87	0.724
644.06	0.724
644.25	0.704
644.45	0.707
644.64	0.708
644.83	0.709
645.02	0.706
645.21	0.705
645.40	0.708
645.59	0.708
645.78	0.701
645.97	0.703
646.16	0.705
646.35	0.703
646.54	0.700
646.73	0.701
646.92	0.701
647.11	0.701
647.30	0.697
647.49	0.699
647.68	0.700
647.88	0.700
648.07	0.693
648.26	0.696
648.45	0.699
648.64	0.696
648.83	0.693
649.02	0.696
649.21	0.707
649.40	0.706
649.59	0.701
649.78	0.702
649.97	0.716
650.16	0.715
650.35	0.709
650.54	0.711
650.73	0.719
650.92	0.716
651.11	0.709
651.30	0.706
651.49	0.711
651.68	0.711
651.87	0.707
652.06	0.697
652.25	0.701
652.44	0.703
652.63	0.700
652.82	0.701
653.01	0.701
653.20	0.699
653.39	0.688
653.58	0.686
653.77	0.685
653.96	0.681
654.15	0.673
654.34	0.671
654.53	0.667
654.72	0.661
654.91	0.651
655.10	0.647
655.29	0.645
655.48	0.643
655.67	0.637
655.86	0.635
656.05	0.634
656.24	0.633
656.43	0.627
656.62	0.626
656.81	0.627
657.00	0.625
657.19	0.622
657.38	0.622
657.57	0.621
657.76	0.624
657.95	0.622
658.14	0.625
658.33	0.628
658.51	0.633
658.70	0.633
658.89	0.635
659.08	0.644
659.27	0.651
659.46	0.651
659.65	0.658
659.84	0.660
660.03	0.663
660.22	0.663
660.41	0.668
660.60	0.667
660.79	0.669
660.98	0.674
661.17	0.673
661.36	0.672
661.55	0.672
661.74	0.671
661.92	0.674
662.11	0.677
662.30	0.676
662.49	0.670
662.68	0.669
662.87	0.673
663.06	0.667
663.25	0.667
663.44	0.668
663.63	0.669
663.82	0.667
664.01	0.662
664.20	0.661
664.38	0.663
664.57	0.663
664.76	0.662
664.95	0.662
665.14	0.667
665.33	0.662
665.52	0.669
665.71	0.673
665.90	0.673
666.09	0.674
666.28	0.671
666.46	0.669
666.65	0.670
666.84	0.668
667.03	0.662
667.22	0.660
667.41	0.664
667.60	0.654
667.79	0.647
667.98	0.648
668.16	0.650
668.35	0.650
668.54	0.646
668.73	0.647
668.92	0.648
669.11	0.647
669.30	0.641
669.49	0.636
669.67	0.638
669.86	0.640
670.05	0.638
670.24	0.635
670.43	0.633
670.62	0.633
670.81	0.627
671.00	0.628
671.18	0.628
671.37	0.628
671.56	0.626
671.75	0.625
671.94	0.622
672.13	0.620
672.32	0.615
672.50	0.614
672.69	0.615
672.88	0.616
673.07	0.611
673.26	0.614
673.45	0.615
673.63	0.614
673.82	0.611
674.01	0.613
674.20	0.613
674.39	0.612
674.58	0.611
674.76	0.610
674.95	0.609
675.14	0.608
675.33	0.603
675.52	0.602
675.71	0.602
675.89	0.602
676.08	0.597
676.27	0.597
676.46	0.597
676.65	0.597
676.84	0.597
677.02	0.599
677.21	0.601
677.40	0.600
677.59	0.598
677.78	0.598
677.96	0.601
678.15	0.600
678.34	0.598
678.53	0.599
678.72	0.598
678.90	0.595
679.09	0.590
679.28	0.587
679.47	0.588
679.66	0.588
679.84	0.585
680.03	0.582
680.22	0.581
680.41	0.583
680.60	0.579
680.78	0.578
680.97	0.581
681.16	0.581
681.35	0.579
681.53	0.577
681.72	0.579
681.91	0.581
682.10	0.580
682.29	0.582
682.47	0.580
682.66	0.579
682.85	0.578
683.04	0.576
683.22	0.577
683.41	0.579
683.60	0.578
683.79	0.578
683.97	0.578
684.16	0.576
684.35	0.572
684.54	0.573
684.72	0.574
684.91	0.575
685.10	0.573
685.29	0.574
685.47	0.571
685.66	0.570
685.85	0.567
686.04	0.566
686.22	0.569
686.41	0.571
686.60	0.569
686.79	0.572
686.97	0.573
687.16	0.574
687.35	0.571
687.54	0.575
687.72	0.579
687.91	0.578
688.10	0.580
688.29	0.580
688.47	0.578
688.66	0.577
688.85	0.573
689.03	0.570
689.22	0.575
689.41	0.575
689.60	0.570
689.78	0.567
689.97	0.568
690.16	0.565
690.34	0.561
690.53	0.561
690.72	0.562
690.91	0.560
691.09	0.558
691.28	0.552
691.47	0.550
691.65	0.549
691.84	0.547
692.03	0.546
692.21	0.544
692.40	0.544
692.59	0.541
692.77	0.539
692.96	0.541
693.15	0.542
693.34	0.539
693.52	0.539
693.71	0.540
693.90	0.541
694.08	0.541
694.27	0.542
694.46	0.552
694.64	0.553
694.83	0.552
695.02	0.551
695.20	0.551
695.39	0.551
695.58	0.550
695.76	0.551
695.95	0.550
696.14	0.549
696.32	0.547
696.51	0.537
696.70	0.537
696.88	0.538
697.07	0.538
697.26	0.539
697.44	0.540
697.63	0.539
697.81	0.537
698.00	0.537
698.19	0.536
698.37	0.536
698.56	0.536
698.75	0.536
698.93	0.536
699.12	0.535
699.31	0.534
699.49	0.533
699.68	0.534
699.87	0.536
700.05	0.536
700.24	0.535
700.42	0.537
700.61	0.536
700.80	0.534
700.98	0.534
701.17	0.535
701.36	0.534
701.54	0.533
701.73	0.535
701.91	0.532
702.10	0.532
702.29	0.531
702.47	0.530
702.66	0.531
702.84	0.533
703.03	0.530
703.22	0.532
703.40	0.532
703.59	0.533
703.77	0.533
703.96	0.533
704.15	0.534
704.33	0.533
704.52	0.532
704.70	0.532
704.89	0.532
705.08	0.531
705.26	0.526
705.45	0.526
705.63	0.526
705.82	0.523
706.00	0.521
706.19	0.521
706.38	0.521
706.56	0.521
706.75	0.519
706.93	0.517
707.12	0.519
707.30	0.519
707.49	0.517
707.68	0.514
707.86	0.513
708.05	0.514
708.23	0.511
708.42	0.512
708.60	0.515
708.79	0.515
708.98	0.513
709.16	0.512
709.35	0.514
709.53	0.518
709.72	0.517
709.90	0.519
710.09	0.521
710.27	0.523
710.46	0.526
710.64	0.524
710.83	0.526
711.02	0.527
711.20	0.526
711.39	0.525
711.57	0.523
711.76	0.524
711.94	0.521
712.13	0.521
712.31	0.520
712.50	0.516
712.68	0.513
712.87	0.514
713.05	0.515
713.24	0.515
713.42	0.515
713.61	0.515
713.79	0.515
713.98	0.516
714.16	0.517
714.35	0.518
714.54	0.519
714.72	0.520
714.91	0.517
715.09	0.523
715.28	0.526
715.46	0.526
715.65	0.523
715.83	0.523
716.02	0.526
716.20	0.522
716.39	0.521
716.57	0.522
716.76	0.523
716.94	0.524
717.12	0.516
717.31	0.517
717.49	0.520
717.68	0.522
717.86	0.521
718.05	0.524
718.23	0.527
718.42	0.529
718.60	0.530
718.79	0.538
718.97	0.541
719.16	0.542
719.34	0.539
719.53	0.538
719.71	0.539
719.90	0.540
720.08	0.536
720.27	0.536
720.45	0.536
720.63	0.534
720.82	0.529
721.00	0.531
721.19	0.534
721.37	0.534
721.56	0.534
721.74	0.536
721.93	0.545
722.11	0.552
722.30	0.552
722.48	0.556
722.66	0.557
722.85	0.556
723.03	0.556
723.22	0.555
723.40	0.558
723.59	0.559
723.77	0.563
723.95	0.557
724.14	0.559
724.32	0.560
724.51	0.559
724.69	0.560
724.88	0.561
725.06	0.559
725.24	0.559
725.43	0.561
725.61	0.564
725.80	0.557
725.98	0.554
726.16	0.550
726.35	0.556
726.53	0.555
726.72	0.554
726.90	0.564
727.09	0.565
727.27	0.571
727.45	0.568
727.64	0.578
727.82	0.588
728.01	0.593
728.19	0.590
728.37	0.595
728.56	0.599
728.74	0.605
728.92	0.593
729.11	0.595
729.29	0.593
729.48	0.594
729.66	0.583
729.84	0.582
730.03	0.586
730.21	0.587
730.40	0.577
730.58	0.578
730.76	0.579
730.95	0.581
731.13	0.580
731.31	0.594
731.50	0.604
731.68	0.607
731.86	0.603
732.05	0.617
732.23	0.620
732.42	0.624
732.60	0.626
732.78	0.631
732.97	0.649
733.15	0.655
733.33	0.643
733.52	0.649
733.70	0.660
733.88	0.668
734.07	0.653
734.25	0.678
734.43	0.687
734.62	0.690
734.80	0.684
734.98	0.676
735.17	0.685
735.35	0.692
735.53	0.677
735.72	0.681
735.90	0.702
736.08	0.719
736.27	0.696
736.45	0.703
736.63	0.716
736.82	0.725
737.00	0.724
737.18	0.732
737.37	0.762
737.55	0.787
737.73	0.780
737.92	0.785
738.10	0.785
738.28	0.806
738.46	0.795
738.65	0.806
738.83	0.825
739.01	0.881
739.20	0.870
739.38	0.851
739.56	0.841
739.75	0.846
739.93	0.811
740.11	0.831
740.29	0.829
740.48	0.837
740.66	0.817
740.84	0.814
741.03	0.779
741.21	0.789
741.39	0.772
741.57	0.786
741.76	0.801
741.94	0.807
742.12	0.772
742.31	0.778
742.49	0.798
742.67	0.817
742.85	0.827
743.04	0.829
743.22	0.840
743.40	0.890
743.58	0.870
743.77	0.890
743.95	0.920
744.13	0.970
744.31	0.948
744.50	0.940
744.68	0.942
744.86	0.920
745.04	0.932
745.23	0.990
745.41	0.972
745.59	0.971
745.77	0.933
745.96	0.926
746.14	0.935
746.32	0.937
746.50	0.925
746.69	0.907
746.87	0.918
747.05	0.902
747.23	0.832
747.42	0.820
747.60	0.852
747.78	0.859
747.96	0.886
748.14	0.846
748.33	0.872
748.51	0.869
748.69	0.864
748.87	0.891
749.06	0.892
749.24	0.895
749.42	0.883
749.60	0.861
749.78	0.869
749.97	0.825
750.15	0.815
750.33	0.818
750.51	0.841
750.69	0.844
750.88	0.846
751.06	0.856
751.24	0.876
751.42	0.866
751.60	0.858
751.79	0.923
751.97	0.966
752.15	0.963
752.33	0.930
752.51	0.990
752.69	1.007
752.88	0.973
753.06	1.009
753.24	0.988
753.42	1.025
753.60	1.183
753.78	1.049
753.97	1.068
754.15	1.096
754.33	1.129
754.51	1.010
754.69	0.992
754.87	1.026
755.06	0.957
755.24	0.960
755.42	0.965
755.60	0.867
755.78	0.872
755.96	0.819
756.15	0.819
756.33	0.825
756.51	0.843
756.69	0.828
756.87	0.796
757.05	0.816
757.23	0.799
757.42	0.769
757.60	0.770
757.78	0.762
757.96	0.762
758.14	0.744
758.32	0.727
758.50	0.739
758.69	0.740
758.87	0.733
759.05	0.731
759.23	0.743
759.41	0.743
759.59	0.737
759.77	0.758
759.95	0.784
760.13	0.830
760.32	0.828
760.50	0.822
760.68	0.847
760.86	0.849
761.04	0.826
761.22	0.830
761.40	0.873
761.58	0.875
761.76	0.849
761.95	0.831
762.13	0.793
762.31	0.795
762.49	0.767
762.67	0.783
762.85	0.797
763.03	0.791
763.21	0.772
763.39	0.757
763.57	0.760
763.75	0.754
763.94	0.740
764.12	0.739
764.30	0.766
764.48	0.770
764.66	0.734
764.84	0.731
765.02	0.769
765.20	0.777
765.38	0.758
765.56	0.762
765.74	0.803
765.92	0.803
766.10	0.809
766.28	0.798
766.46	0.826
766.65	0.829
766.83	0.813
767.01	0.797
767.19	0.802
767.37	0.802
767.55	0.788
767.73	0.770
767.91	0.771
768.09	0.761
768.27	0.750
768.45	0.740
768.63	0.745
768.81	0.751
768.99	0.725
769.17	0.749
769.35	0.764
769.53	0.763
769.71	0.741
769.89	0.751
770.07	0.758
770.25	0.740
770.43	0.716
770.61	0.737
770.79	0.740
770.97	0.750
771.15	0.719
771.33	0.720
771.51	0.723
771.69	0.735
771.87	0.746
772.05	0.747
772.24	0.757
772.42	0.770
772.60	0.749
772.78	0.807
772.96	0.834
773.14	0.830
773.32	0.810
773.49	0.816
773.67	0.813
773.85	0.791
774.03	0.782
774.21	0.811
774.39	0.820
774.57	0.841
774.75	0.771
774.93	0.769
775.11	0.792
775.29	0.796
775.47	0.795
775.65	0.802
775.83	0.817
776.01	0.842
776.19	0.796
776.37	0.795
776.55	0.798
776.73	0.795
776.91	0.788
777.09	0.771
777.27	0.772
777.45	0.762
777.63	0.741
777.81	0.737
777.99	0.721
778.17	0.721
778.35	0.704
778.53	0.691
778.71	0.699
778.89	0.685
779.07	0.671
779.24	0.679
779.42	0.681
779.60	0.699
779.78	0.696
779.96	0.702
780.14	0.711
780.32	0.728
780.50	0.712
780.68	0.712
780.86	0.707
781.04	0.725
781.22	0.726
781.40	0.738
781.58	0.731
781.75	0.723
781.93	0.707
782.11	0.706
782.29	0.695
782.47	0.695
782.65	0.682
782.83	0.707
783.01	0.703
783.19	0.698
783.37	0.683
783.55	0.684
783.72	0.701
783.90	0.711
784.08	0.702
784.26	0.711
784.44	0.730
784.62	0.731
784.80	0.700
784.98	0.704
785.16	0.708
785.33	0.720
785.51	0.707
785.69	0.696
785.87	0.694
786.05	0.706
786.23	0.701
786.41	0.697
786.59	0.704
786.77	0.706
786.94	0.694
787.12	0.700
787.30	0.704
787.48	0.700
787.66	0.687
787.84	0.690
788.02	0.681
788.19	0.680
788.37	0.668
788.55	0.670
788.73	0.671
788.91	0.666
789.09	0.650
789.27	0.637
789.44	0.650
789.62	0.657
789.80	0.665
789.98	0.690
790.16	0.679
790.34	0.676
790.51	0.661
790.69	0.678
790.87	0.685
791.05	0.683
791.23	0.677
791.41	0.677
791.58	0.684
791.76	0.665
791.94	0.636
792.12	0.644
792.30	0.647
792.48	0.646
792.65	0.640
792.83	0.646
793.01	0.653
793.19	0.651
793.37	0.638
793.54	0.633
793.72	0.644
793.90	0.641
794.08	0.630
794.26	0.632
794.43	0.640
794.61	0.625
794.79	0.614
794.97	0.612
795.15	0.619
795.32	0.623
795.50	0.613
795.68	0.607
795.86	0.612
796.04	0.612
796.21	0.606
796.39	0.606
796.57	0.619
796.75	0.627
796.92	0.627
797.10	0.632
797.28	0.633
797.46	0.637
797.64	0.639
797.81	0.647
797.99	0.652
798.17	0.655
798.35	0.648
798.52	0.650
798.70	0.646
798.88	0.655
799.06	0.652
799.23	0.655
799.41	0.663
799.59	0.656
799.77	0.644
799.94	0.652
800.12	0.662
800.30	0.681
800.48	0.681
800.65	0.680
800.83	0.669
801.01	0.662
801.19	0.661
801.36	0.658
801.54	0.661
801.72	0.670
801.90	0.656
802.07	0.650
802.25	0.633
802.43	0.617
802.60	0.612
802.78	0.619
802.96	0.626
803.14	0.619
803.31	0.615
803.49	0.617
803.67	0.615
803.84	0.618
804.02	0.611
804.20	0.615
804.38	0.621
804.55	0.620
804.73	0.607
804.91	0.605
805.08	0.615
805.26	0.612
805.44	0.673
805.61	0.677
805.79	0.679
805.97	0.679
806.15	0.670
806.32	0.666
806.50	0.675
806.68	0.677
806.85	0.668
807.03	0.661
807.21	0.676
807.38	0.610
807.56	0.598
807.74	0.608
807.91	0.612
808.09	0.615
808.27	0.633
808.44	0.657
808.62	0.664
808.80	0.666
808.97	0.661
809.15	0.658
809.33	0.676
809.50	0.682
809.68	0.669
809.86	0.679
810.03	0.710
810.21	0.690
810.39	0.672
810.56	0.677
810.74	0.700
810.91	0.771
811.09	0.761
811.27	0.782
811.44	0.787
811.62	0.789
811.80	0.772
811.97	0.740
812.15	0.739
812.33	0.734
812.50	0.721
812.68	0.709
812.85	0.653
813.03	0.654
813.21	0.624
813.38	0.620
813.56	0.622
813.74	0.631
813.91	0.639
814.09	0.667
814.26	0.661
814.44	0.665
814.62	0.655
814.79	0.660
814.97	0.664
815.14	0.667
815.32	0.668
815.50	0.684
815.67	0.686
815.85	0.675
816.02	0.664
816.20	0.674
816.38	0.688
816.55	0.693
816.73	0.691
816.90	0.703
817.08	0.731
817.26	0.738
817.43	0.715
817.61	0.739
817.78	0.763
817.96	0.743
818.13	0.729
818.31	0.729
818.49	0.742
818.66	0.733
818.84	0.715
819.01	0.697
819.19	0.702
819.36	0.707
819.54	0.679
819.71	0.716
819.89	0.728
820.07	0.743
820.24	0.737
820.42	0.739
820.59	0.760
820.77	0.781
820.94	0.772
821.12	0.791
821.29	0.806
821.47	0.806
821.64	0.744
821.82	0.759
822.00	0.754
822.17	0.749
822.35	0.740
822.52	0.741
822.70	0.734
822.87	0.744
823.05	0.722
823.22	0.731
823.40	0.758
823.57	0.780
823.75	0.760
823.92	0.788
824.10	0.811
824.27	0.850
824.45	0.837
824.62	0.895
824.80	0.909
824.97	0.919
825.15	0.912
825.32	0.924
825.50	0.926
825.67	0.935
825.85	0.907
826.02	0.926
826.20	0.952
826.37	1.076
826.55	0.995
826.72	1.182
826.90	1.258
827.07	1.307
827.25	1.238
827.42	1.400
827.60	1.540
827.77	1.701
827.95	1.624
828.12	1.731
828.30	1.386
828.47	1.518
828.65	1.167
828.82	1.208
829.00	1.250
829.17	1.315
829.34	1.301
829.52	1.336
829.69	-0.000
829.87	-0.000
830.04	-0.000
830.22	-0.000
830.39	-0.000
830.57	-0.000
830.74	-0.000
830.92	-0.000
831.09	-0.000
831.26	-0.000
831.44	-0.000
831.61	-0.000
831.79	-0.000
831.96	-0.000
832.14	-0.000
832.31	-0.000
832.49	-0.000
832.66	-0.000
832.83	-0.000
833.01	-0.000
833.18	-0.000
833.36	-0.000
833.53	-0.000
833.70	-0.000
833.88	-0.000
834.05	-0.000
834.23	-0.000
834.40	-0.000
834.58	-0.000
834.75	-0.000
834.92	-0.000
835.10	-0.000
835.27	-0.000
835.45	-0.000
835.62	-0.000
835.79	-0.000
835.97	-0.000
836.14	-0.000
836.32	-0.000
836.49	-0.000
836.66	-0.000
836.84	-0.000
837.01	-0.000
837.18	-0.000
837.36	-0.000
837.53	-0.000
837.71	-0.000
837.88	-0.000
838.05	-0.000
838.23	-0.000
838.40	-0.000
838.58	-0.000
838.75	-0.000
838.92	-0.000
839.10	-0.000
839.27	-0.000
839.44	-0.000
839.62	-0.000
839.79	-0.000
839.96	-0.000
840.14	-0.000
840.31	-0.000
840.48	-0.000
840.66	-0.000
840.83	-0.000
841.01	-0.000
841.18	-0.000
841.35	-0.000
841.53	-0.000
841.70	-0.000
841.87	-0.000
842.05	-0.000
842.22	-0.000
842.39	-0.000
842.57	-0.000
842.74	-0.000
842.91	-0.000
843.09	-0.000
843.26	-0.000
843.43	-0.000
843.60	-0.000
843.78	-0.000
843.95	-0.000
844.12	-0.000
844.30	-0.000
844.47	-0.000
844.64	-0.000
844.82	-0.000
844.99	-0.000
845.16	-0.000
845.34	-0.000
845.51	-0.000
845.68	-0.000
845.85	-0.000
846.03	-0.000
846.20	-0.000
846.37	-0.000
846.55	-0.000
846.72	-0.000
846.89	-0.000
847.06	-0.000
847.24	-0.000
847.41	-0.000
847.58	-0.000
847.76	-0.000
847.93	-0.000
848.10	-0.000
848.27	-0.000
848.45	-0.000
848.62	-0.000
848.79	-0.000
848.97	-0.000
849.14	-0.000
849.31	-0.000
849.48	-0.000
849.66	-0.000
849.83	-0.000
850.00	-0.000
850.17	-0.000
850.35	-0.000
850.52	-0.000
850.69	-0.000
850.86	-0.000
851.04	-0.000
851.21	-0.000
851.38	-0.000
851.55	-0.000
851.72	-0.000
851.90	-0.000
852.07	-0.000
852.24	-0.000
852.41	-0.000
852.59	-0.000
852.76	-0.000
852.93	-0.000
853.10	-0.000
853.28	-0.000
853.45	-0.000
853.62	-0.000
853.79	-0.000
853.96	-0.000
854.14	-0.000
854.31	-0.000
854.48	-0.000
854.65	-0.000
854.82	-0.000
855.00	-0.000
855.17	-0.000
855.34	-0.000
855.51	-0.000
855.68	-0.000
855.86	-0.000
856.03	-0.000
856.20	-0.000
856.37	-0.000
856.54	-0.000
856.72	-0.000
856.89	-0.000
857.06	-0.000
857.23	-0.000
857.40	-0.000
857.57	-0.000
857.75	-0.000
857.92	-0.000
858.09	-0.000
858.26	-0.000
858.43	-0.000
858.60	-0.000
858.78	-0.000
858.95	-0.000
859.12	-0.000
859.29	-0.000
859.46	-0.000
859.63	-0.000
859.81	-0.000
859.98	-0.000
860.15	-0.000
860.32	-0.000
860.49	-0.000
860.66	-0.000
860.83	-0.000
861.01	-0.000
861.18	-0.000
861.35	-0.000
861.52	-0.000
861.69	-0.000
861.86	-0.000
862.03	-0.000
862.21	-0.000
862.38	-0.000
862.55	-0.000
862.72	-0.000
862.89	-0.000
863.06	-0.000
863.23	-0.000
863.40	-0.000
863.58	-0.000
863.75	-0.000
863.92	-0.000
864.09	-0.000
864.26	-0.000
864.43	-0.000
864.60	-0.000
864.77	-0.000
864.94	-0.000
865.11	-0.000
865.29	-0.000
865.46	-0.000
865.63	-0.000
865.80	-0.000
865.97	-0.000
866.14	-0.000
866.31	-0.000
866.48	-0.000
866.65	-0.000
866.82	-0.000
866.99	-0.000
867.16	-0.000
867.34	-0.000
867.51	-0.000
867.68	-0.000
867.85	-0.000
868.02	-0.000
868.19	-0.000
868.36	-0.000
868.53	-0.000
868.70	-0.000
868.87	-0.000
869.04	-0.000
869.21	-0.000
869.38	-0.000
869.55	-0.000
869.72	-0.000
869.89	-0.000
870.06	-0.000
870.24	-0.000
870.41	-0.000
870.58	-0.000
870.75	-0.000
870.92	-0.000
871.09	-0.000
871.26	-0.000
871.43	-0.000
871.60	-0.000
871.77	-0.000
871.94	-0.000
872.11	-0.000
872.28	-0.000
872.45	-0.000
872.62	-0.000
872.79	-0.000
872.96	-0.000
873.13	-0.000
873.30	-0.000
873.47	-0.000
873.64	-0.000
873.81	-0.000
873.98	-0.000
874.15	-0.000
874.32	-0.000
874.49	-0.000
874.66	-0.000
874.83	-0.000
875.00	-0.000
875.17	-0.000
875.34	-0.000
875.51	-0.000
875.68	-0.000
875.85	-0.000
876.02	-0.000
876.19	-0.000
876.36	-0.000
876.53	-0.000
876.70	-0.000
876.87	-0.000
877.04	-0.000
877.21	-0.000
877.38	-0.000
877.55	-0.000
877.72	-0.000
877.89	-0.000
878.06	-0.000
878.23	-0.000
878.39	-0.000
878.56	-0.000
878.73	-0.000
878.90	-0.000
879.07	-0.000
879.24	-0.000
879.41	-0.000
879.58	-0.000
879.75	-0.000
879.92	-0.000
880.09	-0.000
880.26	-0.000
880.43	-0.000
880.60	-0.000
880.77	-0.000
880.94	-0.000
881.11	-0.000
881.27	-0.000
881.44	-0.000
881.61	-0.000
881.78	-0.000
881.95	-0.000
882.12	-0.000
882.29	-0.000
882.46	-0.000
882.63	-0.000
882.80	-0.000
882.97	-0.000
883.14	-0.000
883.30	-0.000
883.47	-0.000
883.64	-0.000
883.81	-0.000
883.98	-0.000
884.15	-0.000
884.32	-0.000
884.49	-0.000
884.66	-0.000
884.82	-0.000
884.99	-0.000
885.16	-0.000
885.33	-0.000
885.50	-0.000
885.67	-0.000
885.84	-0.000
886.01	-0.000
886.17	-0.000
886.34	-0.000
886.51	-0.000
886.68	-0.000
886.85	-0.000
887.02	-0.000
887.19	-0.000
887.36	-0.000
887.52	-0.000
887.69	-0.000
887.86	-0.000
888.03	-0.000
888.20	-0.000
888.37	-0.000
888.54	-0.000
888.70	-0.000
888.87	-0.000
889.04	-0.000
889.21	-0.000
889.38	-0.000
889.55	-0.000
889.71	-0.000
889.88	-0.000
890.05	-0.000
890.22	-0.000
890.39	-0.000
>>>>>End Processed Spectral Data<<<<<
