SpectraSuite Data File
++++++++++++++++++++++++++++++++++++
Date: Fri Jun 19 14:05:39 CEST 2015
User: introlabs
Dark Spectrum Present: Yes
Reference Spectrum Present: Yes
Number of Sampled Component Spectra: 1
Spectrometers: USB4H08886
Integration Time (usec): 745692 (USB4H08886)
Spectra Averaged: 5 (USB4H08886)
Boxcar Smoothing: 5 (USB4H08886)
Correct for Electrical Dark: Yes (USB4H08886)
Strobe/Lamp Enabled: No (USB4H08886)
Correct for Detector Non-linearity: Yes (USB4H08886)
Correct for Stray Light: Yes (USB4H08886)
Number of Pixels in Processed Spectrum: 3648
>>>>>Begin Processed Spectral Data<<<<<
178.14	-0.000
178.36	-0.000
178.57	-0.000
178.79	-0.000
179.01	-0.000
179.22	-0.000
179.44	-0.000
179.65	-0.000
179.87	-0.000
180.08	-0.000
180.30	-0.000
180.52	-0.000
180.73	-0.000
180.95	-0.000
181.16	-0.000
181.38	-0.000
181.59	-0.000
181.81	-0.000
182.03	-0.000
182.24	-0.000
182.46	-0.000
182.67	-0.000
182.89	-0.000
183.10	-0.000
183.32	-0.000
183.54	-0.000
183.75	-0.000
183.97	-0.000
184.18	-0.000
184.40	-0.000
184.61	-0.000
184.83	-0.000
185.04	-0.000
185.26	-0.000
185.48	-0.000
185.69	-0.000
185.91	-0.000
186.12	-0.000
186.34	-0.000
186.55	-0.000
186.77	-0.000
186.98	-0.000
187.20	-0.000
187.42	-0.000
187.63	-0.000
187.85	-0.000
188.06	-0.000
188.28	-0.000
188.49	-0.000
188.71	-0.000
188.92	-0.000
189.14	-0.000
189.36	-0.000
189.57	-0.000
189.79	-0.000
190.00	-0.000
190.22	-0.000
190.43	-0.000
190.65	-0.000
190.86	-0.000
191.08	-0.000
191.29	-0.000
191.51	-0.000
191.72	-0.000
191.94	-0.000
192.16	-0.000
192.37	-0.000
192.59	-0.000
192.80	-0.000
193.02	-0.000
193.23	-0.000
193.45	-0.000
193.66	-0.000
193.88	-0.000
194.09	-0.000
194.31	-0.000
194.52	-0.000
194.74	-0.000
194.95	-0.000
195.17	-0.000
195.38	-0.000
195.60	-0.000
195.81	-0.000
196.03	-0.000
196.25	-0.000
196.46	-0.000
196.68	-0.000
196.89	-0.000
197.11	-0.000
197.32	-0.000
197.54	-0.000
197.75	-0.000
197.97	-0.000
198.18	-0.000
198.40	-0.000
198.61	-0.000
198.83	-0.000
199.04	-0.000
199.26	-0.000
199.47	-0.000
199.69	-0.000
199.90	-0.000
200.12	-0.000
200.33	-0.000
200.55	-0.000
200.76	-0.000
200.98	-0.000
201.19	-0.000
201.41	-0.000
201.62	-0.000
201.84	-0.000
202.05	-0.000
202.27	-0.000
202.48	-0.000
202.70	-0.000
202.91	-0.000
203.13	-0.000
203.34	-0.000
203.56	-0.000
203.77	-0.000
203.99	-0.000
204.20	-0.000
204.42	-0.000
204.63	-0.000
204.85	-0.000
205.06	-0.000
205.28	-0.000
205.49	-0.000
205.71	-0.000
205.92	-0.000
206.14	-0.000
206.35	-0.000
206.56	-0.000
206.78	-0.000
206.99	-0.000
207.21	-0.000
207.42	-0.000
207.64	-0.000
207.85	-0.000
208.07	-0.000
208.28	-0.000
208.50	-0.000
208.71	-0.000
208.93	-0.000
209.14	-0.000
209.36	-0.000
209.57	-0.000
209.79	-0.000
210.00	-0.000
210.22	-0.000
210.43	-0.000
210.64	-0.000
210.86	-0.000
211.07	-0.000
211.29	-0.000
211.50	-0.000
211.72	-0.000
211.93	-0.000
212.15	-0.000
212.36	-0.000
212.58	-0.000
212.79	-0.000
213.01	-0.000
213.22	-0.000
213.43	-0.000
213.65	-0.000
213.86	-0.000
214.08	-0.000
214.29	-0.000
214.51	-0.000
214.72	-0.000
214.94	-0.000
215.15	-0.000
215.36	-0.000
215.58	-0.000
215.79	-0.000
216.01	-0.000
216.22	-0.000
216.44	-0.000
216.65	-0.000
216.87	-0.000
217.08	-0.000
217.29	-0.000
217.51	-0.000
217.72	-0.000
217.94	-0.000
218.15	-0.000
218.37	-0.000
218.58	-0.000
218.80	-0.000
219.01	-0.000
219.22	-0.000
219.44	-0.000
219.65	-0.000
219.87	-0.000
220.08	-0.000
220.30	-0.000
220.51	-0.000
220.72	-0.000
220.94	-0.000
221.15	-0.000
221.37	-0.000
221.58	-0.000
221.79	-0.000
222.01	-0.000
222.22	-0.000
222.44	-0.000
222.65	-0.000
222.87	-0.000
223.08	-0.000
223.29	-0.000
223.51	-0.000
223.72	-0.000
223.94	-0.000
224.15	-0.000
224.36	-0.000
224.58	-0.000
224.79	-0.000
225.01	-0.000
225.22	-0.000
225.44	-0.000
225.65	-0.000
225.86	-0.000
226.08	-0.000
226.29	-0.000
226.51	-0.000
226.72	-0.000
226.93	-0.000
227.15	-0.000
227.36	-0.000
227.58	-0.000
227.79	-0.000
228.00	-0.000
228.22	-0.000
228.43	-0.000
228.65	-0.000
228.86	-0.000
229.07	-0.000
229.29	-0.000
229.50	-0.000
229.72	-0.000
229.93	-0.000
230.14	-0.000
230.36	-0.000
230.57	-0.000
230.78	-0.000
231.00	-0.000
231.21	-0.000
231.43	-0.000
231.64	-0.000
231.85	-0.000
232.07	-0.000
232.28	-0.000
232.50	-0.000
232.71	-0.000
232.92	-0.000
233.14	-0.000
233.35	-0.000
233.56	-0.000
233.78	-0.000
233.99	-0.000
234.21	-0.000
234.42	-0.000
234.63	-0.000
234.85	-0.000
235.06	-0.000
235.27	-0.000
235.49	-0.000
235.70	-0.000
235.91	-0.000
236.13	-0.000
236.34	-0.000
236.56	-0.000
236.77	-0.000
236.98	-0.000
237.20	-0.000
237.41	-0.000
237.62	-0.000
237.84	-0.000
238.05	-0.000
238.26	-0.000
238.48	-0.000
238.69	-0.000
238.91	-0.000
239.12	-0.000
239.33	-0.000
239.55	-0.000
239.76	-0.000
239.97	-0.000
240.19	-0.000
240.40	-0.000
240.61	-0.000
240.83	-0.000
241.04	-0.000
241.25	-0.000
241.47	-0.000
241.68	-0.000
241.89	-0.000
242.11	-0.000
242.32	-0.000
242.53	-0.000
242.75	-0.000
242.96	-0.000
243.17	-0.000
243.39	-0.000
243.60	-0.000
243.81	-0.000
244.03	-0.000
244.24	-0.000
244.45	-0.000
244.67	-0.000
244.88	-0.000
245.09	-0.000
245.31	-0.000
245.52	-0.000
245.73	-0.000
245.95	-0.000
246.16	-0.000
246.37	-0.000
246.59	-0.000
246.80	-0.000
247.01	-0.000
247.23	-0.000
247.44	-0.000
247.65	-0.000
247.87	-0.000
248.08	-0.000
248.29	-0.000
248.51	-0.000
248.72	-0.000
248.93	-0.000
249.15	-0.000
249.36	-0.000
249.57	-0.000
249.78	-0.000
250.00	-0.000
250.21	-0.000
250.42	-0.000
250.64	-0.000
250.85	-0.000
251.06	-0.000
251.28	-0.000
251.49	-0.000
251.70	-0.000
251.92	-0.000
252.13	-0.000
252.34	-0.000
252.55	-0.000
252.77	-0.000
252.98	-0.000
253.19	-0.000
253.41	-0.000
253.62	-0.000
253.83	-0.000
254.05	-0.000
254.26	-0.000
254.47	-0.000
254.68	-0.000
254.90	-0.000
255.11	-0.000
255.32	-0.000
255.54	-0.000
255.75	-0.000
255.96	-0.000
256.17	-0.000
256.39	-0.000
256.60	-0.000
256.81	-0.000
257.03	-0.000
257.24	-0.000
257.45	-0.000
257.66	-0.000
257.88	-0.000
258.09	-0.000
258.30	-0.000
258.51	-0.000
258.73	-0.000
258.94	-0.000
259.15	-0.000
259.37	-0.000
259.58	-0.000
259.79	-0.000
260.00	-0.000
260.22	-0.000
260.43	-0.000
260.64	-0.000
260.85	-0.000
261.07	-0.000
261.28	-0.000
261.49	-0.000
261.71	-0.000
261.92	-0.000
262.13	-0.000
262.34	-0.000
262.56	-0.000
262.77	-0.000
262.98	-0.000
263.19	-0.000
263.41	-0.000
263.62	-0.000
263.83	-0.000
264.04	-0.000
264.26	-0.000
264.47	-0.000
264.68	-0.000
264.89	-0.000
265.11	-0.000
265.32	-0.000
265.53	-0.000
265.74	-0.000
265.96	-0.000
266.17	-0.000
266.38	-0.000
266.59	-0.000
266.81	-0.000
267.02	-0.000
267.23	-0.000
267.44	-0.000
267.65	-0.000
267.87	-0.000
268.08	-0.000
268.29	-0.000
268.50	-0.000
268.72	-0.000
268.93	-0.000
269.14	-0.000
269.35	-0.000
269.57	-0.000
269.78	-0.000
269.99	-0.000
270.20	-0.000
270.41	-0.000
270.63	-0.000
270.84	-0.000
271.05	-0.000
271.26	-0.000
271.48	-0.000
271.69	-0.000
271.90	-0.000
272.11	-0.000
272.32	-0.000
272.54	-0.000
272.75	-0.000
272.96	-0.000
273.17	-0.000
273.39	-0.000
273.60	-0.000
273.81	-0.000
274.02	-0.000
274.23	-0.000
274.45	-0.000
274.66	-0.000
274.87	-0.000
275.08	-0.000
275.29	-0.000
275.51	-0.000
275.72	-0.000
275.93	-0.000
276.14	-0.000
276.35	-0.000
276.57	-0.000
276.78	-0.000
276.99	-0.000
277.20	-0.000
277.41	-0.000
277.63	-0.000
277.84	-0.000
278.05	-0.000
278.26	-0.000
278.47	-0.000
278.69	-0.000
278.90	-0.000
279.11	-0.000
279.32	-0.000
279.53	-0.000
279.74	-0.000
279.96	-0.000
280.17	-0.000
280.38	-0.000
280.59	-0.000
280.80	-0.000
281.02	-0.000
281.23	-0.000
281.44	-0.000
281.65	-0.000
281.86	-0.000
282.07	-0.000
282.29	-0.000
282.50	-0.000
282.71	-0.000
282.92	-0.000
283.13	-0.000
283.35	-0.000
283.56	-0.000
283.77	-0.000
283.98	-0.000
284.19	-0.000
284.40	-0.000
284.62	-0.000
284.83	-0.000
285.04	-0.000
285.25	-0.000
285.46	-0.000
285.67	-0.000
285.88	-0.000
286.10	-0.000
286.31	-0.000
286.52	-0.000
286.73	-0.000
286.94	-0.000
287.15	-0.000
287.37	-0.000
287.58	-0.000
287.79	-0.000
288.00	-0.000
288.21	-0.000
288.42	-0.000
288.63	-0.000
288.85	-0.000
289.06	-0.000
289.27	-0.000
289.48	-0.000
289.69	-0.000
289.90	-0.000
290.11	-0.000
290.33	-0.000
290.54	-0.000
290.75	-0.000
290.96	-0.000
291.17	-0.000
291.38	-0.000
291.59	-0.000
291.81	-0.000
292.02	-0.000
292.23	-0.000
292.44	-0.000
292.65	-0.000
292.86	-0.000
293.07	-0.000
293.28	-0.000
293.50	-0.000
293.71	-0.000
293.92	-0.000
294.13	-0.000
294.34	-0.000
294.55	-0.000
294.76	-0.000
294.97	-0.000
295.19	-0.000
295.40	-0.000
295.61	-0.000
295.82	-0.000
296.03	-0.000
296.24	-0.000
296.45	-0.000
296.66	2.174
296.87	2.238
297.09	2.508
297.30	-0.000
297.51	2.087
297.72	2.008
297.93	2.230
298.14	2.134
298.35	2.013
298.56	1.965
298.77	2.252
298.99	2.189
299.20	2.097
299.41	2.032
299.62	1.937
299.83	1.906
300.04	1.792
300.25	1.778
300.46	1.834
300.67	1.792
300.88	1.697
301.10	1.706
301.31	1.815
301.52	1.719
301.73	1.636
301.94	1.631
302.15	1.660
302.36	1.597
302.57	1.511
302.78	1.523
302.99	1.573
303.20	1.595
303.41	1.474
303.63	1.449
303.84	1.459
304.05	1.455
304.26	1.384
304.47	1.385
304.68	1.385
304.89	1.372
305.10	1.319
305.31	1.306
305.52	1.354
305.73	1.349
305.94	1.307
306.15	1.297
306.37	1.319
306.58	1.331
306.79	1.296
307.00	1.320
307.21	1.366
307.42	1.362
307.63	1.324
307.84	1.284
308.05	1.322
308.26	1.322
308.47	1.293
308.68	1.294
308.89	1.293
309.10	1.287
309.31	1.241
309.52	1.232
309.73	1.247
309.95	1.239
310.16	1.209
310.37	1.198
310.58	1.214
310.79	1.214
311.00	1.206
311.21	1.208
311.42	1.209
311.63	1.204
311.84	1.183
312.05	1.185
312.26	1.206
312.47	1.217
312.68	1.191
312.89	1.176
313.10	1.183
313.31	1.153
313.52	1.153
313.73	1.154
313.94	1.160
314.15	1.141
314.36	1.117
314.57	1.111
314.78	1.098
314.99	1.093
315.21	1.079
315.42	1.082
315.63	1.097
315.84	1.074
316.05	1.060
316.26	1.066
316.47	1.086
316.68	1.082
316.89	1.060
317.10	1.082
317.31	1.088
317.52	1.089
317.73	1.070
317.94	1.066
318.15	1.113
318.36	1.112
318.57	1.094
318.78	1.083
318.99	1.120
319.20	1.117
319.41	1.079
319.62	1.081
319.83	1.095
320.04	1.090
320.25	1.075
320.46	1.040
320.67	1.043
320.88	1.038
321.09	1.023
321.30	1.008
321.51	1.025
321.72	1.025
321.93	1.007
322.14	1.000
322.35	1.027
322.56	1.030
322.77	1.016
322.98	1.029
323.19	1.038
323.40	1.044
323.61	1.020
323.82	1.015
324.03	1.021
324.24	1.019
324.45	1.004
324.66	0.984
324.87	0.980
325.08	0.980
325.29	0.959
325.50	0.952
325.71	0.957
325.92	0.966
326.13	0.952
326.34	0.952
326.55	0.961
326.76	0.960
326.97	0.950
327.18	0.944
327.39	0.970
327.60	0.971
327.80	0.969
328.01	0.967
328.22	0.969
328.43	0.972
328.64	0.961
328.85	0.965
329.06	0.967
329.27	0.966
329.48	0.962
329.69	0.943
329.90	0.954
330.11	0.949
330.32	0.941
330.53	0.933
330.74	0.933
330.95	0.930
331.16	0.916
331.37	0.923
331.58	0.923
331.79	0.924
332.00	0.915
332.21	0.910
332.42	0.914
332.63	0.905
332.83	0.900
333.04	0.902
333.25	0.915
333.46	0.914
333.67	0.900
333.88	0.903
334.09	0.912
334.30	0.908
334.51	0.898
334.72	0.894
334.93	0.896
335.14	0.895
335.35	0.888
335.56	0.883
335.77	0.892
335.98	0.890
336.18	0.883
336.39	0.876
336.60	0.880
336.81	0.878
337.02	0.877
337.23	0.883
337.44	0.886
337.65	0.888
337.86	0.878
338.07	0.873
338.28	0.879
338.49	0.877
338.70	0.870
338.91	0.878
339.11	0.885
339.32	0.880
339.53	0.868
339.74	0.864
339.95	0.860
340.16	0.858
340.37	0.850
340.58	0.849
340.79	0.852
341.00	0.851
341.21	0.840
341.41	0.840
341.62	0.842
341.83	0.843
342.04	0.838
342.25	0.849
342.46	0.852
342.67	0.851
342.88	0.843
343.09	0.843
343.30	0.850
343.50	0.852
343.71	0.843
343.92	0.841
344.13	0.846
344.34	0.845
344.55	0.829
344.76	0.828
344.97	0.832
345.18	0.832
345.38	0.830
345.59	0.825
345.80	0.825
346.01	0.823
346.22	0.819
346.43	0.812
346.64	0.820
346.85	0.820
347.06	0.813
347.26	0.814
347.47	0.817
347.68	0.812
347.89	0.809
348.10	0.804
348.31	0.811
348.52	0.811
348.73	0.810
348.93	0.807
349.14	0.809
349.35	0.808
349.56	0.802
349.77	0.797
349.98	0.802
350.19	0.799
350.39	0.794
350.60	0.790
350.81	0.805
351.02	0.803
351.23	0.798
351.44	0.802
351.65	0.804
351.86	0.801
352.06	0.800
352.27	0.801
352.48	0.803
352.69	0.802
352.90	0.796
353.11	0.784
353.31	0.791
353.52	0.786
353.73	0.778
353.94	0.780
354.15	0.786
354.36	0.786
354.57	0.777
354.77	0.779
354.98	0.780
355.19	0.780
355.40	0.779
355.61	0.786
355.82	0.790
356.02	0.789
356.23	0.782
356.44	0.784
356.65	0.786
356.86	0.786
357.07	0.779
357.27	0.781
357.48	0.783
357.69	0.778
357.90	0.762
358.11	0.759
358.32	0.763
358.52	0.765
358.73	0.756
358.94	0.759
359.15	0.763
359.36	0.764
359.56	0.759
359.77	0.756
359.98	0.763
360.19	0.763
360.40	0.759
360.61	0.761
360.81	0.759
361.02	0.760
361.23	0.752
361.44	0.752
361.65	0.752
361.85	0.751
362.06	0.750
362.27	0.752
362.48	0.753
362.69	0.755
362.89	0.749
363.10	0.751
363.31	0.755
363.52	0.758
363.73	0.752
363.93	0.753
364.14	0.756
364.35	0.758
364.56	0.747
364.77	0.748
364.97	0.750
365.18	0.751
365.39	0.746
365.60	0.743
365.81	0.743
366.01	0.743
366.22	0.739
366.43	0.738
366.64	0.740
366.84	0.746
367.05	0.743
367.26	0.742
367.47	0.744
367.68	0.744
367.88	0.740
368.09	0.738
368.30	0.742
368.51	0.741
368.71	0.740
368.92	0.744
369.13	0.743
369.34	0.743
369.55	0.741
369.75	0.741
369.96	0.748
370.17	0.748
370.38	0.744
370.58	0.742
370.79	0.748
371.00	0.746
371.21	0.738
371.41	0.742
371.62	0.746
371.83	0.741
372.04	0.739
372.24	0.732
372.45	0.733
372.66	0.734
372.87	0.732
373.07	0.729
373.28	0.730
373.49	0.733
373.70	0.723
373.90	0.722
374.11	0.732
374.32	0.731
374.53	0.731
374.73	0.732
374.94	0.734
375.15	0.734
375.36	0.731
375.56	0.741
375.77	0.741
375.98	0.741
376.19	0.738
376.39	0.732
376.60	0.736
376.81	0.737
377.02	0.734
377.22	0.732
377.43	0.731
377.64	0.732
377.84	0.723
378.05	0.728
378.26	0.734
378.47	0.733
378.67	0.729
378.88	0.727
379.09	0.728
379.30	0.728
379.50	0.726
379.71	0.729
379.92	0.733
380.12	0.732
380.33	0.723
380.54	0.719
380.75	0.727
380.95	0.727
381.16	0.725
381.37	0.726
381.57	0.727
381.78	0.728
381.99	0.727
382.20	0.725
382.40	0.728
382.61	0.728
382.82	0.725
383.02	0.718
383.23	0.722
383.44	0.720
383.64	0.718
383.85	0.720
384.06	0.723
384.27	0.721
384.47	0.719
384.68	0.719
384.89	0.726
385.09	0.725
385.30	0.724
385.51	0.722
385.71	0.726
385.92	0.727
386.13	0.725
386.33	0.728
386.54	0.728
386.75	0.727
386.95	0.723
387.16	0.718
387.37	0.721
387.58	0.721
387.78	0.719
387.99	0.716
388.20	0.718
388.40	0.715
388.61	0.710
388.82	0.713
389.02	0.716
389.23	0.716
389.44	0.715
389.64	0.715
389.85	0.726
390.06	0.726
390.26	0.727
390.47	0.725
390.68	0.728
390.88	0.726
391.09	0.723
391.30	0.721
391.50	0.721
391.71	0.721
391.92	0.719
392.12	0.711
392.33	0.712
392.53	0.711
392.74	0.712
392.95	0.711
393.15	0.714
393.36	0.715
393.57	0.714
393.77	0.717
393.98	0.719
394.19	0.718
394.39	0.717
394.60	0.719
394.81	0.722
395.01	0.719
395.22	0.717
395.43	0.718
395.63	0.723
395.84	0.724
396.04	0.720
396.25	0.722
396.46	0.724
396.66	0.723
396.87	0.720
397.08	0.717
397.28	0.719
397.49	0.720
397.69	0.716
397.90	0.711
398.11	0.713
398.31	0.714
398.52	0.710
398.73	0.711
398.93	0.709
399.14	0.708
399.34	0.706
399.55	0.707
399.76	0.707
399.96	0.708
400.17	0.706
400.37	0.704
400.58	0.711
400.79	0.713
400.99	0.710
401.20	0.717
401.41	0.720
401.61	0.721
401.82	0.727
402.02	0.727
402.23	0.728
402.44	0.728
402.64	0.728
402.85	0.723
403.05	0.722
403.26	0.721
403.47	0.713
403.67	0.712
403.88	0.712
404.08	0.706
404.29	0.704
404.50	0.704
404.70	0.704
404.91	0.703
405.11	0.699
405.32	0.700
405.52	0.700
405.73	0.700
405.94	0.699
406.14	0.702
406.35	0.704
406.55	0.704
406.76	0.702
406.97	0.702
407.17	0.704
407.38	0.704
407.58	0.703
407.79	0.706
407.99	0.709
408.20	0.709
408.41	0.705
408.61	0.703
408.82	0.704
409.02	0.704
409.23	0.703
409.43	0.702
409.64	0.703
409.84	0.703
410.05	0.699
410.26	0.697
410.46	0.697
410.67	0.697
410.87	0.698
411.08	0.700
411.28	0.700
411.49	0.702
411.69	0.699
411.90	0.701
412.11	0.702
412.31	0.703
412.52	0.702
412.72	0.702
412.93	0.703
413.13	0.703
413.34	0.699
413.54	0.700
413.75	0.701
413.95	0.700
414.16	0.696
414.37	0.699
414.57	0.699
414.78	0.701
414.98	0.699
415.19	0.700
415.39	0.697
415.60	0.699
415.80	0.699
416.01	0.697
416.21	0.700
416.42	0.700
416.62	0.695
416.83	0.695
417.03	0.695
417.24	0.695
417.44	0.693
417.65	0.692
417.86	0.692
418.06	0.690
418.27	0.689
418.47	0.690
418.68	0.691
418.88	0.692
419.09	0.690
419.29	0.691
419.50	0.692
419.70	0.691
419.91	0.690
420.11	0.688
420.32	0.690
420.52	0.689
420.73	0.689
420.93	0.689
421.14	0.691
421.34	0.690
421.55	0.686
421.75	0.686
421.96	0.688
422.16	0.687
422.37	0.686
422.57	0.683
422.78	0.685
422.98	0.681
423.19	0.679
423.39	0.677
423.60	0.681
423.80	0.682
424.01	0.680
424.21	0.683
424.42	0.684
424.62	0.684
424.83	0.684
425.03	0.684
425.23	0.686
425.44	0.687
425.64	0.688
425.85	0.687
426.05	0.688
426.26	0.689
426.46	0.684
426.67	0.684
426.87	0.689
427.08	0.689
427.28	0.687
427.49	0.687
427.69	0.688
427.90	0.686
428.10	0.683
428.31	0.683
428.51	0.684
428.71	0.684
428.92	0.685
429.12	0.682
429.33	0.683
429.53	0.687
429.74	0.691
429.94	0.691
430.15	0.691
430.35	0.691
430.56	0.688
430.76	0.687
430.96	0.688
431.17	0.685
431.37	0.683
431.58	0.681
431.78	0.677
431.99	0.670
432.19	0.672
432.40	0.673
432.60	0.674
432.80	0.677
433.01	0.674
433.21	0.675
433.42	0.676
433.62	0.677
433.83	0.676
434.03	0.679
434.23	0.682
434.44	0.681
434.64	0.679
434.85	0.683
435.05	0.684
435.26	0.685
435.46	0.683
435.66	0.683
435.87	0.683
436.07	0.683
436.28	0.679
436.48	0.676
436.69	0.676
436.89	0.676
437.09	0.669
437.30	0.669
437.50	0.669
437.71	0.682
437.91	0.680
438.11	0.681
438.32	0.686
438.52	0.686
438.73	0.685
438.93	0.683
439.13	0.683
439.34	0.686
439.54	0.684
439.75	0.684
439.95	0.674
440.15	0.678
440.36	0.676
440.56	0.675
440.77	0.676
440.97	0.676
441.17	0.675
441.38	0.676
441.58	0.674
441.79	0.673
441.99	0.672
442.19	0.671
442.40	0.668
442.60	0.668
442.81	0.665
443.01	0.666
443.21	0.667
443.42	0.666
443.62	0.665
443.82	0.665
444.03	0.666
444.23	0.666
444.44	0.666
444.64	0.666
444.84	0.668
445.05	0.668
445.25	0.665
445.45	0.665
445.66	0.668
445.86	0.667
446.06	0.668
446.27	0.667
446.47	0.671
446.68	0.669
446.88	0.667
447.08	0.666
447.29	0.668
447.49	0.668
447.69	0.667
447.90	0.665
448.10	0.669
448.30	0.667
448.51	0.668
448.71	0.665
448.91	0.668
449.12	0.667
449.32	0.668
449.52	0.667
449.73	0.670
449.93	0.670
450.14	0.671
450.34	0.670
450.54	0.673
450.75	0.670
450.95	0.670
451.15	0.669
451.36	0.672
451.56	0.668
451.76	0.667
451.97	0.664
452.17	0.665
452.37	0.663
452.58	0.660
452.78	0.659
452.98	0.662
453.19	0.661
453.39	0.662
453.59	0.660
453.79	0.661
454.00	0.662
454.20	0.661
454.40	0.662
454.61	0.664
454.81	0.664
455.01	0.663
455.22	0.664
455.42	0.666
455.62	0.664
455.83	0.663
456.03	0.666
456.23	0.667
456.44	0.667
456.64	0.666
456.84	0.666
457.04	0.667
457.25	0.666
457.45	0.662
457.65	0.661
457.86	0.662
458.06	0.661
458.26	0.657
458.47	0.656
458.67	0.658
458.87	0.658
459.07	0.655
459.28	0.657
459.48	0.660
459.68	0.660
459.89	0.659
460.09	0.658
460.29	0.659
460.49	0.661
460.70	0.660
460.90	0.660
461.10	0.660
461.31	0.660
461.51	0.657
461.71	0.660
461.91	0.661
462.12	0.661
462.32	0.660
462.52	0.661
462.72	0.664
462.93	0.664
463.13	0.662
463.33	0.663
463.53	0.665
463.74	0.664
463.94	0.659
464.14	0.659
464.35	0.661
464.55	0.661
464.75	0.659
464.95	0.656
465.16	0.658
465.36	0.658
465.56	0.657
465.76	0.656
465.97	0.657
466.17	0.658
466.37	0.655
466.57	0.656
466.78	0.657
466.98	0.657
467.18	0.655
467.38	0.653
467.59	0.655
467.79	0.656
467.99	0.655
468.19	0.656
468.39	0.659
468.60	0.659
468.80	0.657
469.00	0.658
469.20	0.658
469.41	0.659
469.61	0.658
469.81	0.659
470.01	0.658
470.22	0.659
470.42	0.657
470.62	0.655
470.82	0.657
471.02	0.656
471.23	0.654
471.43	0.655
471.63	0.658
471.83	0.657
472.04	0.655
472.24	0.654
472.44	0.659
472.64	0.659
472.84	0.657
473.05	0.657
473.25	0.659
473.45	0.659
473.65	0.657
473.85	0.657
474.06	0.659
474.26	0.659
474.46	0.660
474.66	0.656
474.86	0.657
475.07	0.657
475.27	0.655
475.47	0.652
475.67	0.653
475.87	0.655
476.08	0.651
476.28	0.652
476.48	0.654
476.68	0.653
476.88	0.650
477.09	0.651
477.29	0.653
477.49	0.654
477.69	0.653
477.89	0.653
478.09	0.652
478.30	0.654
478.50	0.651
478.70	0.650
478.90	0.651
479.10	0.654
479.31	0.655
479.51	0.652
479.71	0.653
479.91	0.653
480.11	0.652
480.31	0.652
480.52	0.651
480.72	0.651
480.92	0.649
481.12	0.648
481.32	0.645
481.52	0.643
481.72	0.644
481.93	0.647
482.13	0.647
482.33	0.647
482.53	0.645
482.73	0.646
482.93	0.647
483.14	0.647
483.34	0.646
483.54	0.647
483.74	0.646
483.94	0.646
484.14	0.641
484.34	0.641
484.55	0.642
484.75	0.642
484.95	0.640
485.15	0.640
485.35	0.640
485.55	0.639
485.75	0.637
485.96	0.638
486.16	0.639
486.36	0.639
486.56	0.637
486.76	0.637
486.96	0.638
487.16	0.637
487.36	0.636
487.57	0.635
487.77	0.636
487.97	0.637
488.17	0.635
488.37	0.634
488.57	0.635
488.77	0.635
488.97	0.633
489.18	0.633
489.38	0.635
489.58	0.636
489.78	0.635
489.98	0.635
490.18	0.634
490.38	0.636
490.58	0.635
490.78	0.635
490.98	0.637
491.19	0.637
491.39	0.637
491.59	0.635
491.79	0.638
491.99	0.639
492.19	0.638
492.39	0.641
492.59	0.641
492.79	0.643
492.99	0.643
493.20	0.643
493.40	0.644
493.60	0.645
493.80	0.643
494.00	0.641
494.20	0.642
494.40	0.642
494.60	0.639
494.80	0.643
495.00	0.642
495.20	0.641
495.40	0.640
495.61	0.642
495.81	0.641
496.01	0.645
496.21	0.646
496.41	0.644
496.61	0.644
496.81	0.643
497.01	0.638
497.21	0.638
497.41	0.638
497.61	0.638
497.81	0.635
498.01	0.635
498.21	0.634
498.41	0.632
498.61	0.632
498.82	0.634
499.02	0.636
499.22	0.637
499.42	0.636
499.62	0.638
499.82	0.638
500.02	0.639
500.22	0.638
500.42	0.640
500.62	0.640
500.82	0.640
501.02	0.639
501.22	0.639
501.42	0.639
501.62	0.641
501.82	0.640
502.02	0.641
502.22	0.640
502.42	0.642
502.62	0.639
502.82	0.640
503.02	0.640
503.22	0.640
503.42	0.638
503.63	0.638
503.83	0.636
504.03	0.635
504.23	0.633
504.43	0.634
504.63	0.635
504.83	0.634
505.03	0.633
505.23	0.635
505.43	0.636
505.63	0.637
505.83	0.637
506.03	0.639
506.23	0.641
506.43	0.641
506.63	0.641
506.83	0.639
507.03	0.641
507.23	0.641
507.43	0.638
507.63	0.639
507.83	0.639
508.03	0.639
508.23	0.639
508.43	0.637
508.63	0.639
508.83	0.639
509.03	0.641
509.23	0.640
509.43	0.641
509.63	0.641
509.83	0.640
510.03	0.642
510.23	0.644
510.43	0.644
510.63	0.644
510.83	0.644
511.03	0.645
511.23	0.643
511.43	0.643
511.63	0.645
511.83	0.647
512.03	0.647
512.22	0.644
512.42	0.644
512.62	0.645
512.82	0.645
513.02	0.644
513.22	0.644
513.42	0.645
513.62	0.648
513.82	0.645
514.02	0.645
514.22	0.646
514.42	0.646
514.62	0.646
514.82	0.646
515.02	0.648
515.22	0.651
515.42	0.650
515.62	0.653
515.82	0.652
516.02	0.653
516.22	0.654
516.42	0.655
516.62	0.657
516.82	0.658
517.01	0.656
517.21	0.656
517.41	0.659
517.61	0.660
517.81	0.656
518.01	0.655
518.21	0.655
518.41	0.654
518.61	0.653
518.81	0.654
519.01	0.654
519.21	0.654
519.41	0.653
519.61	0.648
519.81	0.650
520.00	0.651
520.20	0.651
520.40	0.654
520.60	0.655
520.80	0.653
521.00	0.653
521.20	0.654
521.40	0.660
521.60	0.660
521.80	0.659
522.00	0.659
522.20	0.661
522.39	0.660
522.59	0.657
522.79	0.660
522.99	0.662
523.19	0.660
523.39	0.658
523.59	0.655
523.79	0.659
523.99	0.661
524.19	0.660
524.38	0.659
524.58	0.660
524.78	0.661
524.98	0.658
525.18	0.660
525.38	0.661
525.58	0.661
525.78	0.660
525.98	0.658
526.18	0.658
526.37	0.657
526.57	0.659
526.77	0.658
526.97	0.659
527.17	0.659
527.37	0.655
527.57	0.658
527.77	0.660
527.96	0.660
528.16	0.659
528.36	0.660
528.56	0.662
528.76	0.660
528.96	0.659
529.16	0.661
529.36	0.664
529.55	0.664
529.75	0.661
529.95	0.661
530.15	0.662
530.35	0.664
530.55	0.662
530.75	0.663
530.94	0.664
531.14	0.664
531.34	0.662
531.54	0.661
531.74	0.664
531.94	0.668
532.13	0.666
532.33	0.667
532.53	0.667
532.73	0.666
532.93	0.664
533.13	0.665
533.33	0.666
533.52	0.666
533.72	0.669
533.92	0.667
534.12	0.665
534.32	0.666
534.52	0.663
534.71	0.665
534.91	0.668
535.11	0.670
535.31	0.668
535.51	0.670
535.71	0.672
535.90	0.669
536.10	0.671
536.30	0.672
536.50	0.672
536.70	0.672
536.89	0.670
537.09	0.669
537.29	0.671
537.49	0.672
537.69	0.670
537.89	0.670
538.08	0.670
538.28	0.667
538.48	0.668
538.68	0.670
538.88	0.672
539.07	0.671
539.27	0.670
539.47	0.669
539.67	0.669
539.87	0.669
540.06	0.667
540.26	0.669
540.46	0.671
540.66	0.668
540.86	0.666
541.05	0.666
541.25	0.668
541.45	0.668
541.65	0.667
541.84	0.669
542.04	0.670
542.24	0.670
542.44	0.668
542.64	0.670
542.83	0.673
543.03	0.673
543.23	0.671
543.43	0.671
543.62	0.673
543.82	0.673
544.02	0.672
544.22	0.672
544.42	0.676
544.61	0.677
544.81	0.674
545.01	0.672
545.21	0.675
545.40	0.676
545.60	0.674
545.80	0.677
546.00	0.677
546.19	0.676
546.39	0.675
546.59	0.672
546.79	0.673
546.98	0.673
547.18	0.672
547.38	0.673
547.58	0.675
547.77	0.675
547.97	0.671
548.17	0.673
548.37	0.674
548.56	0.674
548.76	0.673
548.96	0.675
549.16	0.677
549.35	0.678
549.55	0.675
549.75	0.676
549.95	0.679
550.14	0.680
550.34	0.679
550.54	0.683
550.73	0.687
550.93	0.688
551.13	0.684
551.33	0.683
551.52	0.684
551.72	0.684
551.92	0.681
552.12	0.682
552.31	0.683
552.51	0.683
552.71	0.678
552.90	0.678
553.10	0.679
553.30	0.679
553.50	0.678
553.69	0.680
553.89	0.680
554.09	0.680
554.28	0.676
554.48	0.678
554.68	0.679
554.87	0.679
555.07	0.676
555.27	0.676
555.47	0.678
555.66	0.679
555.86	0.678
556.06	0.680
556.25	0.682
556.45	0.690
556.65	0.688
556.84	0.692
557.04	0.696
557.24	0.698
557.43	0.698
557.63	0.700
557.83	0.702
558.02	0.703
558.22	0.706
558.42	0.707
558.61	0.700
558.81	0.700
559.01	0.696
559.21	0.695
559.40	0.695
559.60	0.695
559.80	0.691
559.99	0.692
560.19	0.694
560.39	0.687
560.58	0.685
560.78	0.685
560.97	0.689
561.17	0.688
561.37	0.686
561.56	0.688
561.76	0.689
561.96	0.689
562.15	0.686
562.35	0.689
562.55	0.691
562.74	0.690
562.94	0.689
563.14	0.687
563.33	0.687
563.53	0.687
563.73	0.685
563.92	0.686
564.12	0.689
564.31	0.691
564.51	0.689
564.71	0.691
564.90	0.693
565.10	0.695
565.30	0.697
565.49	0.699
565.69	0.701
565.89	0.701
566.08	0.698
566.28	0.700
566.47	0.702
566.67	0.700
566.87	0.696
567.06	0.699
567.26	0.705
567.46	0.700
567.65	0.698
567.85	0.700
568.04	0.703
568.24	0.702
568.44	0.699
568.63	0.697
568.83	0.700
569.02	0.698
569.22	0.693
569.42	0.689
569.61	0.692
569.81	0.691
570.00	0.688
570.20	0.689
570.40	0.690
570.59	0.690
570.79	0.687
570.98	0.685
571.18	0.686
571.38	0.686
571.57	0.683
571.77	0.681
571.96	0.684
572.16	0.681
572.35	0.676
572.55	0.677
572.75	0.676
572.94	0.676
573.14	0.674
573.33	0.674
573.53	0.674
573.73	0.674
573.92	0.672
574.12	0.670
574.31	0.673
574.51	0.674
574.70	0.671
574.90	0.672
575.09	0.674
575.29	0.674
575.49	0.672
575.68	0.673
575.88	0.674
576.07	0.675
576.27	0.673
576.46	0.671
576.66	0.670
576.86	0.669
577.05	0.667
577.25	0.665
577.44	0.667
577.64	0.667
577.83	0.665
578.03	0.666
578.22	0.666
578.42	0.665
578.61	0.664
578.81	0.665
579.00	0.666
579.20	0.665
579.40	0.664
579.59	0.663
579.79	0.663
579.98	0.663
580.18	0.661
580.37	0.661
580.57	0.664
580.76	0.669
580.96	0.666
581.15	0.667
581.35	0.670
581.54	0.669
581.74	0.668
581.93	0.670
582.13	0.671
582.32	0.669
582.52	0.667
582.71	0.666
582.91	0.662
583.10	0.662
583.30	0.660
583.49	0.660
583.69	0.664
583.88	0.665
584.08	0.665
584.27	0.667
584.47	0.670
584.66	0.671
584.86	0.670
585.05	0.672
585.25	0.675
585.44	0.675
585.64	0.673
585.83	0.670
586.03	0.671
586.22	0.669
586.42	0.666
586.61	0.667
586.81	0.670
587.00	0.670
587.20	0.667
587.39	0.668
587.59	0.670
587.78	0.671
587.98	0.671
588.17	0.672
588.37	0.674
588.56	0.676
588.76	0.672
588.95	0.673
589.15	0.676
589.34	0.678
589.54	0.676
589.73	0.677
589.92	0.680
590.12	0.680
590.31	0.677
590.51	0.682
590.70	0.683
590.90	0.684
591.09	0.682
591.29	0.680
591.48	0.681
591.68	0.682
591.87	0.681
592.06	0.680
592.26	0.683
592.45	0.682
592.65	0.676
592.84	0.676
593.04	0.678
593.23	0.680
593.43	0.678
593.62	0.677
593.81	0.678
594.01	0.677
594.20	0.675
594.40	0.674
594.59	0.676
594.79	0.677
594.98	0.675
595.17	0.675
595.37	0.675
595.56	0.677
595.76	0.676
595.95	0.677
596.14	0.680
596.34	0.681
596.53	0.679
596.73	0.681
596.92	0.683
597.12	0.686
597.31	0.686
597.50	0.685
597.70	0.688
597.89	0.687
598.09	0.684
598.28	0.686
598.47	0.688
598.67	0.687
598.86	0.683
599.06	0.685
599.25	0.684
599.44	0.682
599.64	0.679
599.83	0.676
600.03	0.679
600.22	0.680
600.41	0.680
600.61	0.677
600.80	0.679
601.00	0.680
601.19	0.676
601.38	0.675
601.58	0.677
601.77	0.679
601.96	0.680
602.16	0.680
602.35	0.690
602.55	0.687
602.74	0.688
602.93	0.689
603.13	0.695
603.32	0.697
603.51	0.696
603.71	0.699
603.90	0.701
604.09	0.701
604.29	0.698
604.48	0.692
604.68	0.694
604.87	0.693
605.06	0.690
605.26	0.686
605.45	0.686
605.64	0.685
605.84	0.680
606.03	0.679
606.22	0.678
606.42	0.678
606.61	0.675
606.80	0.674
607.00	0.677
607.19	0.677
607.38	0.675
607.58	0.677
607.77	0.680
607.96	0.679
608.16	0.678
608.35	0.683
608.54	0.686
608.74	0.689
608.93	0.694
609.12	0.696
609.32	0.699
609.51	0.703
609.70	0.702
609.90	0.704
610.09	0.709
610.28	0.714
610.48	0.708
610.67	0.709
610.86	0.710
611.06	0.704
611.25	0.702
611.44	0.703
611.64	0.702
611.83	0.704
612.02	0.700
612.21	0.699
612.41	0.697
612.60	0.696
612.79	0.693
612.99	0.693
613.18	0.695
613.37	0.692
613.57	0.690
613.76	0.692
613.95	0.689
614.14	0.689
614.34	0.686
614.53	0.687
614.72	0.691
614.92	0.691
615.11	0.688
615.30	0.685
615.49	0.687
615.69	0.689
615.88	0.685
616.07	0.687
616.26	0.689
616.46	0.690
616.65	0.687
616.84	0.686
617.04	0.688
617.23	0.692
617.42	0.692
617.61	0.696
617.81	0.697
618.00	0.699
618.19	0.697
618.38	0.700
618.58	0.704
618.77	0.705
618.96	0.704
619.15	0.706
619.35	0.708
619.54	0.708
619.73	0.702
619.92	0.704
620.12	0.709
620.31	0.710
620.50	0.704
620.69	0.704
620.89	0.707
621.08	0.707
621.27	0.707
621.46	0.706
621.66	0.710
621.85	0.711
622.04	0.708
622.23	0.709
622.43	0.709
622.62	0.709
622.81	0.709
623.00	0.709
623.19	0.713
623.39	0.712
623.58	0.709
623.77	0.708
623.96	0.711
624.16	0.710
624.35	0.705
624.54	0.708
624.73	0.713
624.92	0.710
625.12	0.708
625.31	0.709
625.50	0.712
625.69	0.713
625.88	0.709
626.08	0.708
626.27	0.710
626.46	0.710
626.65	0.707
626.84	0.707
627.04	0.713
627.23	0.712
627.42	0.707
627.61	0.709
627.80	0.712
628.00	0.713
628.19	0.712
628.38	0.716
628.57	0.718
628.76	0.717
628.96	0.714
629.15	0.715
629.34	0.718
629.53	0.718
629.72	0.712
629.91	0.712
630.11	0.716
630.30	0.717
630.49	0.719
630.68	0.719
630.87	0.723
631.06	0.725
631.26	0.719
631.45	0.721
631.64	0.729
631.83	0.731
632.02	0.729
632.21	0.729
632.41	0.736
632.60	0.731
632.79	0.729
632.98	0.729
633.17	0.730
633.36	0.732
633.55	0.728
633.75	0.724
633.94	0.727
634.13	0.727
634.32	0.724
634.51	0.718
634.70	0.721
634.89	0.720
635.09	0.717
635.28	0.718
635.47	0.720
635.66	0.723
635.85	0.718
636.04	0.720
636.23	0.725
636.43	0.725
636.62	0.724
636.81	0.723
637.00	0.726
637.19	0.728
637.38	0.725
637.57	0.725
637.76	0.726
637.95	0.728
638.15	0.724
638.34	0.720
638.53	0.724
638.72	0.725
638.91	0.722
639.10	0.720
639.29	0.721
639.48	0.721
639.67	0.720
639.87	0.719
640.06	0.724
640.25	0.723
640.44	0.724
640.63	0.724
640.82	0.727
641.01	0.727
641.20	0.727
641.39	0.729
641.58	0.731
641.78	0.730
641.97	0.725
642.16	0.739
642.35	0.742
642.54	0.740
642.73	0.734
642.92	0.732
643.11	0.737
643.30	0.737
643.49	0.732
643.68	0.735
643.87	0.737
644.06	0.738
644.25	0.717
644.45	0.717
644.64	0.720
644.83	0.720
645.02	0.717
645.21	0.716
645.40	0.718
645.59	0.717
645.78	0.711
645.97	0.713
646.16	0.715
646.35	0.714
646.54	0.712
646.73	0.714
646.92	0.716
647.11	0.715
647.30	0.711
647.49	0.712
647.68	0.712
647.88	0.710
648.07	0.702
648.26	0.706
648.45	0.708
648.64	0.704
648.83	0.701
649.02	0.703
649.21	0.714
649.40	0.712
649.59	0.707
649.78	0.708
649.97	0.723
650.16	0.722
650.35	0.716
650.54	0.719
650.73	0.728
650.92	0.725
651.11	0.717
651.30	0.716
651.49	0.720
651.68	0.721
651.87	0.717
652.06	0.707
652.25	0.711
652.44	0.713
652.63	0.709
652.82	0.709
653.01	0.708
653.20	0.706
653.39	0.693
653.58	0.691
653.77	0.691
653.96	0.686
654.15	0.677
654.34	0.674
654.53	0.670
654.72	0.664
654.91	0.655
655.10	0.652
655.29	0.650
655.48	0.648
655.67	0.642
655.86	0.639
656.05	0.638
656.24	0.638
656.43	0.633
656.62	0.632
656.81	0.632
657.00	0.629
657.19	0.627
657.38	0.627
657.57	0.627
657.76	0.629
657.95	0.627
658.14	0.631
658.33	0.634
658.51	0.640
658.70	0.639
658.89	0.641
659.08	0.651
659.27	0.657
659.46	0.657
659.65	0.665
659.84	0.668
660.03	0.672
660.22	0.672
660.41	0.677
660.60	0.676
660.79	0.679
660.98	0.685
661.17	0.684
661.36	0.684
661.55	0.685
661.74	0.682
661.92	0.686
662.11	0.688
662.30	0.686
662.49	0.679
662.68	0.678
662.87	0.682
663.06	0.676
663.25	0.677
663.44	0.676
663.63	0.677
663.82	0.675
664.01	0.670
664.20	0.668
664.38	0.670
664.57	0.670
664.76	0.669
664.95	0.669
665.14	0.674
665.33	0.669
665.52	0.677
665.71	0.681
665.90	0.681
666.09	0.683
666.28	0.681
666.46	0.679
666.65	0.681
666.84	0.679
667.03	0.673
667.22	0.670
667.41	0.674
667.60	0.663
667.79	0.656
667.98	0.658
668.16	0.659
668.35	0.659
668.54	0.655
668.73	0.656
668.92	0.656
669.11	0.655
669.30	0.650
669.49	0.646
669.67	0.648
669.86	0.650
670.05	0.646
670.24	0.644
670.43	0.642
670.62	0.642
670.81	0.637
671.00	0.638
671.18	0.638
671.37	0.636
671.56	0.634
671.75	0.632
671.94	0.629
672.13	0.627
672.32	0.622
672.50	0.622
672.69	0.622
672.88	0.622
673.07	0.618
673.26	0.620
673.45	0.621
673.63	0.620
673.82	0.617
674.01	0.619
674.20	0.619
674.39	0.619
674.58	0.618
674.76	0.618
674.95	0.616
675.14	0.616
675.33	0.612
675.52	0.611
675.71	0.611
675.89	0.611
676.08	0.607
676.27	0.606
676.46	0.606
676.65	0.605
676.84	0.605
677.02	0.607
677.21	0.609
677.40	0.607
677.59	0.605
677.78	0.606
677.96	0.608
678.15	0.607
678.34	0.605
678.53	0.607
678.72	0.607
678.90	0.603
679.09	0.599
679.28	0.596
679.47	0.596
679.66	0.595
679.84	0.592
680.03	0.589
680.22	0.588
680.41	0.590
680.60	0.586
680.78	0.585
680.97	0.588
681.16	0.588
681.35	0.587
681.53	0.586
681.72	0.586
681.91	0.588
682.10	0.587
682.29	0.589
682.47	0.586
682.66	0.586
682.85	0.584
683.04	0.583
683.22	0.582
683.41	0.584
683.60	0.583
683.79	0.584
683.97	0.583
684.16	0.582
684.35	0.578
684.54	0.580
684.72	0.581
684.91	0.582
685.10	0.579
685.29	0.581
685.47	0.578
685.66	0.577
685.85	0.575
686.04	0.574
686.22	0.577
686.41	0.580
686.60	0.577
686.79	0.580
686.97	0.581
687.16	0.582
687.35	0.579
687.54	0.583
687.72	0.586
687.91	0.586
688.10	0.588
688.29	0.587
688.47	0.585
688.66	0.585
688.85	0.581
689.03	0.579
689.22	0.584
689.41	0.584
689.60	0.579
689.78	0.577
689.97	0.577
690.16	0.574
690.34	0.570
690.53	0.569
690.72	0.570
690.91	0.568
691.09	0.565
691.28	0.559
691.47	0.557
691.65	0.557
691.84	0.554
692.03	0.553
692.21	0.551
692.40	0.551
692.59	0.549
692.77	0.548
692.96	0.549
693.15	0.550
693.34	0.548
693.52	0.548
693.71	0.548
693.90	0.549
694.08	0.550
694.27	0.550
694.46	0.560
694.64	0.560
694.83	0.559
695.02	0.558
695.20	0.557
695.39	0.557
695.58	0.557
695.76	0.558
695.95	0.557
696.14	0.557
696.32	0.555
696.51	0.545
696.70	0.546
696.88	0.547
697.07	0.546
697.26	0.547
697.44	0.548
697.63	0.547
697.81	0.544
698.00	0.544
698.19	0.543
698.37	0.543
698.56	0.543
698.75	0.542
698.93	0.542
699.12	0.541
699.31	0.541
699.49	0.540
699.68	0.542
699.87	0.544
700.05	0.543
700.24	0.543
700.42	0.545
700.61	0.545
700.80	0.543
700.98	0.544
701.17	0.546
701.36	0.545
701.54	0.544
701.73	0.545
701.91	0.542
702.10	0.542
702.29	0.540
702.47	0.539
702.66	0.540
702.84	0.541
703.03	0.539
703.22	0.540
703.40	0.540
703.59	0.542
703.77	0.541
703.96	0.542
704.15	0.542
704.33	0.543
704.52	0.542
704.70	0.541
704.89	0.541
705.08	0.539
705.26	0.534
705.45	0.534
705.63	0.533
705.82	0.530
706.00	0.528
706.19	0.528
706.38	0.528
706.56	0.528
706.75	0.526
706.93	0.524
707.12	0.526
707.30	0.527
707.49	0.525
707.68	0.523
707.86	0.523
708.05	0.522
708.23	0.520
708.42	0.520
708.60	0.522
708.79	0.522
708.98	0.521
709.16	0.520
709.35	0.522
709.53	0.526
709.72	0.525
709.90	0.527
710.09	0.529
710.27	0.532
710.46	0.535
710.64	0.534
710.83	0.536
711.02	0.538
711.20	0.537
711.39	0.536
711.57	0.534
711.76	0.534
711.94	0.532
712.13	0.532
712.31	0.532
712.50	0.527
712.68	0.524
712.87	0.525
713.05	0.525
713.24	0.525
713.42	0.524
713.61	0.525
713.79	0.526
713.98	0.527
714.16	0.528
714.35	0.527
714.54	0.529
714.72	0.529
714.91	0.527
715.09	0.534
715.28	0.536
715.46	0.536
715.65	0.533
715.83	0.532
716.02	0.535
716.20	0.532
716.39	0.531
716.57	0.532
716.76	0.534
716.94	0.534
717.12	0.526
717.31	0.528
717.49	0.531
717.68	0.534
717.86	0.534
718.05	0.535
718.23	0.538
718.42	0.540
718.60	0.541
718.79	0.550
718.97	0.552
719.16	0.552
719.34	0.549
719.53	0.548
719.71	0.548
719.90	0.549
720.08	0.546
720.27	0.547
720.45	0.547
720.63	0.546
720.82	0.540
721.00	0.543
721.19	0.548
721.37	0.547
721.56	0.547
721.74	0.550
721.93	0.559
722.11	0.566
722.30	0.565
722.48	0.570
722.66	0.571
722.85	0.570
723.03	0.570
723.22	0.567
723.40	0.572
723.59	0.572
723.77	0.577
723.95	0.569
724.14	0.571
724.32	0.573
724.51	0.572
724.69	0.573
724.88	0.574
725.06	0.573
725.24	0.575
725.43	0.577
725.61	0.579
725.80	0.573
725.98	0.571
726.16	0.569
726.35	0.575
726.53	0.574
726.72	0.572
726.90	0.583
727.09	0.583
727.27	0.589
727.45	0.585
727.64	0.595
727.82	0.604
728.01	0.607
728.19	0.603
728.37	0.608
728.56	0.611
728.74	0.618
728.92	0.605
729.11	0.607
729.29	0.605
729.48	0.609
729.66	0.598
729.84	0.598
730.03	0.603
730.21	0.606
730.40	0.597
730.58	0.600
730.76	0.600
730.95	0.604
731.13	0.602
731.31	0.617
731.50	0.627
731.68	0.631
731.86	0.627
732.05	0.642
732.23	0.645
732.42	0.648
732.60	0.652
732.78	0.658
732.97	0.677
733.15	0.686
733.33	0.674
733.52	0.681
733.70	0.693
733.88	0.702
734.07	0.687
734.25	0.714
734.43	0.722
734.62	0.727
734.80	0.721
734.98	0.711
735.17	0.719
735.35	0.727
735.53	0.716
735.72	0.720
735.90	0.746
736.08	0.766
736.27	0.741
736.45	0.753
736.63	0.766
736.82	0.778
737.00	0.776
737.18	0.789
737.37	0.826
737.55	0.852
737.73	0.842
737.92	0.848
738.10	0.849
738.28	0.871
738.46	0.859
738.65	0.873
738.83	0.899
739.01	0.963
739.20	0.951
739.38	0.929
739.56	0.919
739.75	0.926
739.93	0.889
740.11	0.916
740.29	0.917
740.48	0.925
740.66	0.901
740.84	0.894
741.03	0.857
741.21	0.871
741.39	0.851
741.57	0.869
741.76	0.888
741.94	0.889
742.12	0.850
742.31	0.858
742.49	0.880
742.67	0.906
742.85	0.922
743.04	0.924
743.22	0.936
743.40	0.993
743.58	0.968
743.77	0.993
743.95	1.041
744.13	1.102
744.31	1.074
744.50	1.064
744.68	1.070
744.86	1.039
745.04	1.050
745.23	1.126
745.41	1.112
745.59	1.118
745.77	1.073
745.96	1.052
746.14	1.067
746.32	1.072
746.50	1.060
746.69	1.039
746.87	1.054
747.05	1.035
747.23	0.944
747.42	0.925
747.60	0.959
747.78	0.959
747.96	0.996
748.14	0.944
748.33	0.976
748.51	0.969
748.69	0.954
748.87	0.982
749.06	0.982
749.24	0.982
749.42	0.963
749.60	0.946
749.78	0.959
749.97	0.906
750.15	0.900
750.33	0.898
750.51	0.931
750.69	0.939
750.88	0.944
751.06	0.955
751.24	0.990
751.42	0.982
751.60	0.965
751.79	1.053
751.97	1.114
752.15	1.108
752.33	1.063
752.51	1.133
752.69	1.151
752.88	1.114
753.06	1.175
753.24	1.141
753.42	1.188
753.60	1.436
753.78	1.221
753.97	1.248
754.15	1.274
754.33	1.322
754.51	1.156
754.69	1.134
754.87	1.171
755.06	1.076
755.24	1.076
755.42	1.083
755.60	0.963
755.78	0.970
755.96	0.905
756.15	0.904
756.33	0.910
756.51	0.931
756.69	0.917
756.87	0.878
757.05	0.901
757.23	0.882
757.42	0.847
757.60	0.843
757.78	0.834
757.96	0.832
758.14	0.812
758.32	0.793
758.50	0.808
758.69	0.806
758.87	0.799
759.05	0.800
759.23	0.812
759.41	0.809
759.59	0.803
759.77	0.829
759.95	0.857
760.13	0.917
760.32	0.918
760.50	0.912
760.68	0.941
760.86	0.940
761.04	0.910
761.22	0.914
761.40	0.973
761.58	0.976
761.76	0.943
761.95	0.924
762.13	0.874
762.31	0.871
762.49	0.837
762.67	0.855
762.85	0.871
763.03	0.866
763.21	0.845
763.39	0.823
763.57	0.825
763.75	0.817
763.94	0.799
764.12	0.799
764.30	0.828
764.48	0.832
764.66	0.789
764.84	0.790
765.02	0.830
765.20	0.838
765.38	0.817
765.56	0.824
765.74	0.868
765.92	0.871
766.10	0.878
766.28	0.868
766.46	0.898
766.65	0.902
766.83	0.885
767.01	0.868
767.19	0.875
767.37	0.876
767.55	0.857
767.73	0.834
767.91	0.837
768.09	0.825
768.27	0.814
768.45	0.803
768.63	0.810
768.81	0.814
768.99	0.785
769.17	0.813
769.35	0.827
769.53	0.827
769.71	0.807
769.89	0.817
770.07	0.821
770.25	0.798
770.43	0.776
770.61	0.803
770.79	0.808
770.97	0.817
771.15	0.782
771.33	0.785
771.51	0.788
771.69	0.800
771.87	0.807
772.05	0.816
772.24	0.831
772.42	0.841
772.60	0.815
772.78	0.880
772.96	0.913
773.14	0.911
773.32	0.889
773.49	0.897
773.67	0.896
773.85	0.874
774.03	0.861
774.21	0.897
774.39	0.910
774.57	0.934
774.75	0.850
774.93	0.847
775.11	0.869
775.29	0.876
775.47	0.873
775.65	0.886
775.83	0.906
776.01	0.930
776.19	0.875
776.37	0.879
776.55	0.880
776.73	0.878
776.91	0.870
777.09	0.851
777.27	0.852
777.45	0.838
777.63	0.809
777.81	0.808
777.99	0.792
778.17	0.791
778.35	0.764
778.53	0.751
778.71	0.757
778.89	0.745
779.07	0.736
779.24	0.739
779.42	0.745
779.60	0.763
779.78	0.756
779.96	0.762
780.14	0.769
780.32	0.793
780.50	0.775
780.68	0.774
780.86	0.766
781.04	0.783
781.22	0.786
781.40	0.798
781.58	0.790
781.75	0.781
781.93	0.763
782.11	0.761
782.29	0.745
782.47	0.744
782.65	0.731
782.83	0.759
783.01	0.752
783.19	0.745
783.37	0.727
783.55	0.729
783.72	0.747
783.90	0.759
784.08	0.753
784.26	0.770
784.44	0.793
784.62	0.793
784.80	0.758
784.98	0.765
785.16	0.771
785.33	0.788
785.51	0.774
785.69	0.760
785.87	0.758
786.05	0.768
786.23	0.760
786.41	0.757
786.59	0.767
786.77	0.763
786.94	0.747
787.12	0.751
787.30	0.751
787.48	0.748
787.66	0.737
787.84	0.738
788.02	0.727
788.19	0.724
788.37	0.709
788.55	0.710
788.73	0.711
788.91	0.708
789.09	0.688
789.27	0.677
789.44	0.687
789.62	0.693
789.80	0.701
789.98	0.730
790.16	0.717
790.34	0.711
790.51	0.697
790.69	0.721
790.87	0.726
791.05	0.725
791.23	0.719
791.41	0.722
791.58	0.729
791.76	0.706
791.94	0.674
792.12	0.684
792.30	0.688
792.48	0.685
792.65	0.678
792.83	0.686
793.01	0.694
793.19	0.693
793.37	0.676
793.54	0.671
793.72	0.684
793.90	0.681
794.08	0.669
794.26	0.669
794.43	0.679
794.61	0.662
794.79	0.649
794.97	0.648
795.15	0.654
795.32	0.658
795.50	0.648
795.68	0.641
795.86	0.645
796.04	0.646
796.21	0.642
796.39	0.640
796.57	0.655
796.75	0.664
796.92	0.664
797.10	0.668
797.28	0.671
797.46	0.674
797.64	0.676
797.81	0.686
797.99	0.692
798.17	0.694
798.35	0.688
798.52	0.690
798.70	0.687
798.88	0.697
799.06	0.697
799.23	0.697
799.41	0.707
799.59	0.701
799.77	0.687
799.94	0.696
800.12	0.707
800.30	0.726
800.48	0.724
800.65	0.723
800.83	0.711
801.01	0.701
801.19	0.703
801.36	0.698
801.54	0.704
801.72	0.716
801.90	0.701
802.07	0.694
802.25	0.678
802.43	0.661
802.60	0.657
802.78	0.666
802.96	0.672
803.14	0.666
803.31	0.664
803.49	0.662
803.67	0.659
803.84	0.662
804.02	0.654
804.20	0.658
804.38	0.665
804.55	0.663
804.73	0.647
804.91	0.647
805.08	0.660
805.26	0.656
805.44	0.725
805.61	0.729
805.79	0.731
805.97	0.729
806.15	0.718
806.32	0.712
806.50	0.720
806.68	0.720
806.85	0.711
807.03	0.702
807.21	0.722
807.38	0.649
807.56	0.638
807.74	0.648
807.91	0.657
808.09	0.662
808.27	0.683
808.44	0.713
808.62	0.723
808.80	0.725
808.97	0.716
809.15	0.707
809.33	0.725
809.50	0.732
809.68	0.717
809.86	0.727
810.03	0.761
810.21	0.739
810.39	0.718
810.56	0.723
810.74	0.748
810.91	0.830
811.09	0.818
811.27	0.838
811.44	0.843
811.62	0.848
811.80	0.826
811.97	0.791
812.15	0.790
812.33	0.784
812.50	0.769
812.68	0.756
812.85	0.695
813.03	0.699
813.21	0.667
813.38	0.661
813.56	0.664
813.74	0.675
813.91	0.684
814.09	0.716
814.26	0.710
814.44	0.714
814.62	0.705
814.79	0.710
814.97	0.716
815.14	0.722
815.32	0.731
815.50	0.749
815.67	0.752
815.85	0.741
816.02	0.728
816.20	0.737
816.38	0.754
816.55	0.758
816.73	0.757
816.90	0.770
817.08	0.802
817.26	0.804
817.43	0.782
817.61	0.805
817.78	0.829
817.96	0.809
818.13	0.797
818.31	0.795
818.49	0.811
818.66	0.799
818.84	0.783
819.01	0.760
819.19	0.766
819.36	0.766
819.54	0.735
819.71	0.779
819.89	0.794
820.07	0.807
820.24	0.803
820.42	0.807
820.59	0.831
820.77	0.856
820.94	0.848
821.12	0.872
821.29	0.891
821.47	0.896
821.64	0.826
821.82	0.843
822.00	0.842
822.17	0.841
822.35	0.833
822.52	0.831
822.70	0.817
822.87	0.827
823.05	0.800
823.22	0.819
823.40	0.853
823.57	0.878
823.75	0.855
823.92	0.883
824.10	0.903
824.27	0.951
824.45	0.946
824.62	1.028
824.80	1.056
824.97	1.087
825.15	1.065
825.32	1.080
825.50	1.082
825.67	1.095
825.85	1.068
826.02	1.103
826.20	1.139
826.37	1.341
826.55	1.219
826.72	1.574
826.90	1.776
827.07	1.976
827.25	1.755
827.42	-0.000
827.60	-0.000
827.77	-0.000
827.95	-0.000
828.12	-0.000
828.30	-0.000
828.47	-0.000
828.65	1.989
828.82	2.791
829.00	-0.000
829.17	-0.000
829.34	-0.000
829.52	-0.000
829.69	-0.000
829.87	-0.000
830.04	-0.000
830.22	-0.000
830.39	-0.000
830.57	-0.000
830.74	-0.000
830.92	-0.000
831.09	-0.000
831.26	-0.000
831.44	-0.000
831.61	-0.000
831.79	-0.000
831.96	-0.000
832.14	-0.000
832.31	-0.000
832.49	-0.000
832.66	-0.000
832.83	-0.000
833.01	-0.000
833.18	-0.000
833.36	-0.000
833.53	-0.000
833.70	-0.000
833.88	-0.000
834.05	-0.000
834.23	-0.000
834.40	-0.000
834.58	-0.000
834.75	-0.000
834.92	-0.000
835.10	-0.000
835.27	-0.000
835.45	-0.000
835.62	-0.000
835.79	-0.000
835.97	-0.000
836.14	-0.000
836.32	-0.000
836.49	-0.000
836.66	-0.000
836.84	-0.000
837.01	-0.000
837.18	-0.000
837.36	-0.000
837.53	-0.000
837.71	-0.000
837.88	-0.000
838.05	-0.000
838.23	-0.000
838.40	-0.000
838.58	-0.000
838.75	-0.000
838.92	-0.000
839.10	-0.000
839.27	-0.000
839.44	-0.000
839.62	-0.000
839.79	-0.000
839.96	-0.000
840.14	-0.000
840.31	-0.000
840.48	-0.000
840.66	-0.000
840.83	-0.000
841.01	-0.000
841.18	-0.000
841.35	-0.000
841.53	-0.000
841.70	-0.000
841.87	-0.000
842.05	-0.000
842.22	-0.000
842.39	-0.000
842.57	-0.000
842.74	-0.000
842.91	-0.000
843.09	-0.000
843.26	-0.000
843.43	-0.000
843.60	-0.000
843.78	-0.000
843.95	-0.000
844.12	-0.000
844.30	-0.000
844.47	-0.000
844.64	-0.000
844.82	-0.000
844.99	-0.000
845.16	-0.000
845.34	-0.000
845.51	-0.000
845.68	-0.000
845.85	-0.000
846.03	-0.000
846.20	-0.000
846.37	-0.000
846.55	-0.000
846.72	-0.000
846.89	-0.000
847.06	-0.000
847.24	-0.000
847.41	-0.000
847.58	-0.000
847.76	-0.000
847.93	-0.000
848.10	-0.000
848.27	-0.000
848.45	-0.000
848.62	-0.000
848.79	-0.000
848.97	-0.000
849.14	-0.000
849.31	-0.000
849.48	-0.000
849.66	-0.000
849.83	-0.000
850.00	-0.000
850.17	-0.000
850.35	-0.000
850.52	-0.000
850.69	-0.000
850.86	-0.000
851.04	-0.000
851.21	-0.000
851.38	-0.000
851.55	-0.000
851.72	-0.000
851.90	-0.000
852.07	-0.000
852.24	-0.000
852.41	-0.000
852.59	-0.000
852.76	-0.000
852.93	-0.000
853.10	-0.000
853.28	-0.000
853.45	-0.000
853.62	-0.000
853.79	-0.000
853.96	-0.000
854.14	-0.000
854.31	-0.000
854.48	-0.000
854.65	-0.000
854.82	-0.000
855.00	-0.000
855.17	-0.000
855.34	-0.000
855.51	-0.000
855.68	-0.000
855.86	-0.000
856.03	-0.000
856.20	-0.000
856.37	-0.000
856.54	-0.000
856.72	-0.000
856.89	-0.000
857.06	-0.000
857.23	-0.000
857.40	-0.000
857.57	-0.000
857.75	-0.000
857.92	-0.000
858.09	-0.000
858.26	-0.000
858.43	-0.000
858.60	-0.000
858.78	-0.000
858.95	-0.000
859.12	-0.000
859.29	-0.000
859.46	-0.000
859.63	-0.000
859.81	-0.000
859.98	-0.000
860.15	-0.000
860.32	-0.000
860.49	-0.000
860.66	-0.000
860.83	-0.000
861.01	-0.000
861.18	-0.000
861.35	-0.000
861.52	-0.000
861.69	-0.000
861.86	-0.000
862.03	-0.000
862.21	-0.000
862.38	-0.000
862.55	-0.000
862.72	-0.000
862.89	-0.000
863.06	-0.000
863.23	-0.000
863.40	-0.000
863.58	-0.000
863.75	-0.000
863.92	-0.000
864.09	-0.000
864.26	-0.000
864.43	-0.000
864.60	-0.000
864.77	-0.000
864.94	-0.000
865.11	-0.000
865.29	-0.000
865.46	-0.000
865.63	-0.000
865.80	-0.000
865.97	-0.000
866.14	-0.000
866.31	-0.000
866.48	-0.000
866.65	-0.000
866.82	-0.000
866.99	-0.000
867.16	-0.000
867.34	-0.000
867.51	-0.000
867.68	-0.000
867.85	-0.000
868.02	-0.000
868.19	-0.000
868.36	-0.000
868.53	-0.000
868.70	-0.000
868.87	-0.000
869.04	-0.000
869.21	-0.000
869.38	-0.000
869.55	-0.000
869.72	-0.000
869.89	-0.000
870.06	-0.000
870.24	-0.000
870.41	-0.000
870.58	-0.000
870.75	-0.000
870.92	-0.000
871.09	-0.000
871.26	-0.000
871.43	-0.000
871.60	-0.000
871.77	-0.000
871.94	-0.000
872.11	-0.000
872.28	-0.000
872.45	-0.000
872.62	-0.000
872.79	-0.000
872.96	-0.000
873.13	-0.000
873.30	-0.000
873.47	-0.000
873.64	-0.000
873.81	-0.000
873.98	-0.000
874.15	-0.000
874.32	-0.000
874.49	-0.000
874.66	-0.000
874.83	-0.000
875.00	-0.000
875.17	-0.000
875.34	-0.000
875.51	-0.000
875.68	-0.000
875.85	-0.000
876.02	-0.000
876.19	-0.000
876.36	-0.000
876.53	-0.000
876.70	-0.000
876.87	-0.000
877.04	-0.000
877.21	-0.000
877.38	-0.000
877.55	-0.000
877.72	-0.000
877.89	-0.000
878.06	-0.000
878.23	-0.000
878.39	-0.000
878.56	-0.000
878.73	-0.000
878.90	-0.000
879.07	-0.000
879.24	-0.000
879.41	-0.000
879.58	-0.000
879.75	-0.000
879.92	-0.000
880.09	-0.000
880.26	-0.000
880.43	-0.000
880.60	-0.000
880.77	-0.000
880.94	-0.000
881.11	-0.000
881.27	-0.000
881.44	-0.000
881.61	-0.000
881.78	-0.000
881.95	-0.000
882.12	-0.000
882.29	-0.000
882.46	-0.000
882.63	-0.000
882.80	-0.000
882.97	-0.000
883.14	-0.000
883.30	-0.000
883.47	-0.000
883.64	-0.000
883.81	-0.000
883.98	-0.000
884.15	-0.000
884.32	-0.000
884.49	-0.000
884.66	-0.000
884.82	-0.000
884.99	-0.000
885.16	-0.000
885.33	-0.000
885.50	-0.000
885.67	-0.000
885.84	-0.000
886.01	-0.000
886.17	-0.000
886.34	-0.000
886.51	-0.000
886.68	-0.000
886.85	-0.000
887.02	-0.000
887.19	-0.000
887.36	-0.000
887.52	-0.000
887.69	-0.000
887.86	-0.000
888.03	-0.000
888.20	-0.000
888.37	-0.000
888.54	-0.000
888.70	-0.000
888.87	-0.000
889.04	-0.000
889.21	-0.000
889.38	-0.000
889.55	-0.000
889.71	-0.000
889.88	-0.000
890.05	-0.000
890.22	-0.000
890.39	-0.000
>>>>>End Processed Spectral Data<<<<<
