SpectraSuite Data File
++++++++++++++++++++++++++++++++++++
Date: Fri Jun 19 12:41:30 CEST 2015
User: introlabs
Dark Spectrum Present: Yes
Reference Spectrum Present: Yes
Number of Sampled Component Spectra: 1
Spectrometers: USB4H08886
Integration Time (usec): 745692 (USB4H08886)
Spectra Averaged: 5 (USB4H08886)
Boxcar Smoothing: 5 (USB4H08886)
Correct for Electrical Dark: Yes (USB4H08886)
Strobe/Lamp Enabled: No (USB4H08886)
Correct for Detector Non-linearity: Yes (USB4H08886)
Correct for Stray Light: Yes (USB4H08886)
Number of Pixels in Processed Spectrum: 3648
>>>>>Begin Processed Spectral Data<<<<<
178.14	-0.000
178.36	-0.000
178.57	-0.000
178.79	-0.000
179.01	-0.000
179.22	-0.000
179.44	-0.000
179.65	-0.000
179.87	-0.000
180.08	-0.000
180.30	-0.000
180.52	-0.000
180.73	-0.000
180.95	-0.000
181.16	-0.000
181.38	-0.000
181.59	-0.000
181.81	-0.000
182.03	-0.000
182.24	-0.000
182.46	-0.000
182.67	-0.000
182.89	-0.000
183.10	-0.000
183.32	-0.000
183.54	-0.000
183.75	-0.000
183.97	-0.000
184.18	-0.000
184.40	-0.000
184.61	-0.000
184.83	-0.000
185.04	-0.000
185.26	-0.000
185.48	-0.000
185.69	-0.000
185.91	-0.000
186.12	-0.000
186.34	-0.000
186.55	-0.000
186.77	-0.000
186.98	-0.000
187.20	-0.000
187.42	-0.000
187.63	-0.000
187.85	-0.000
188.06	-0.000
188.28	-0.000
188.49	-0.000
188.71	-0.000
188.92	-0.000
189.14	-0.000
189.36	-0.000
189.57	-0.000
189.79	-0.000
190.00	-0.000
190.22	-0.000
190.43	-0.000
190.65	-0.000
190.86	-0.000
191.08	-0.000
191.29	-0.000
191.51	-0.000
191.72	-0.000
191.94	-0.000
192.16	-0.000
192.37	-0.000
192.59	-0.000
192.80	-0.000
193.02	-0.000
193.23	-0.000
193.45	-0.000
193.66	-0.000
193.88	-0.000
194.09	-0.000
194.31	-0.000
194.52	-0.000
194.74	-0.000
194.95	-0.000
195.17	-0.000
195.38	-0.000
195.60	-0.000
195.81	-0.000
196.03	-0.000
196.25	-0.000
196.46	-0.000
196.68	-0.000
196.89	-0.000
197.11	-0.000
197.32	-0.000
197.54	-0.000
197.75	-0.000
197.97	-0.000
198.18	-0.000
198.40	-0.000
198.61	-0.000
198.83	-0.000
199.04	-0.000
199.26	-0.000
199.47	-0.000
199.69	-0.000
199.90	-0.000
200.12	-0.000
200.33	-0.000
200.55	-0.000
200.76	-0.000
200.98	-0.000
201.19	-0.000
201.41	-0.000
201.62	-0.000
201.84	-0.000
202.05	-0.000
202.27	-0.000
202.48	-0.000
202.70	-0.000
202.91	-0.000
203.13	-0.000
203.34	-0.000
203.56	-0.000
203.77	-0.000
203.99	-0.000
204.20	-0.000
204.42	-0.000
204.63	-0.000
204.85	-0.000
205.06	-0.000
205.28	-0.000
205.49	-0.000
205.71	-0.000
205.92	-0.000
206.14	-0.000
206.35	-0.000
206.56	-0.000
206.78	-0.000
206.99	-0.000
207.21	-0.000
207.42	-0.000
207.64	-0.000
207.85	-0.000
208.07	-0.000
208.28	-0.000
208.50	-0.000
208.71	-0.000
208.93	-0.000
209.14	-0.000
209.36	-0.000
209.57	-0.000
209.79	-0.000
210.00	-0.000
210.22	-0.000
210.43	-0.000
210.64	-0.000
210.86	-0.000
211.07	-0.000
211.29	-0.000
211.50	-0.000
211.72	-0.000
211.93	-0.000
212.15	-0.000
212.36	-0.000
212.58	-0.000
212.79	-0.000
213.01	-0.000
213.22	-0.000
213.43	-0.000
213.65	-0.000
213.86	-0.000
214.08	-0.000
214.29	-0.000
214.51	-0.000
214.72	-0.000
214.94	-0.000
215.15	-0.000
215.36	-0.000
215.58	-0.000
215.79	-0.000
216.01	-0.000
216.22	-0.000
216.44	-0.000
216.65	-0.000
216.87	-0.000
217.08	-0.000
217.29	-0.000
217.51	-0.000
217.72	-0.000
217.94	-0.000
218.15	-0.000
218.37	-0.000
218.58	-0.000
218.80	-0.000
219.01	-0.000
219.22	-0.000
219.44	-0.000
219.65	-0.000
219.87	-0.000
220.08	-0.000
220.30	-0.000
220.51	-0.000
220.72	-0.000
220.94	-0.000
221.15	-0.000
221.37	-0.000
221.58	-0.000
221.79	-0.000
222.01	-0.000
222.22	-0.000
222.44	-0.000
222.65	-0.000
222.87	-0.000
223.08	-0.000
223.29	-0.000
223.51	-0.000
223.72	-0.000
223.94	-0.000
224.15	-0.000
224.36	-0.000
224.58	-0.000
224.79	-0.000
225.01	-0.000
225.22	-0.000
225.44	-0.000
225.65	-0.000
225.86	-0.000
226.08	-0.000
226.29	-0.000
226.51	-0.000
226.72	-0.000
226.93	-0.000
227.15	-0.000
227.36	-0.000
227.58	-0.000
227.79	-0.000
228.00	-0.000
228.22	-0.000
228.43	-0.000
228.65	-0.000
228.86	-0.000
229.07	-0.000
229.29	-0.000
229.50	-0.000
229.72	-0.000
229.93	-0.000
230.14	-0.000
230.36	-0.000
230.57	-0.000
230.78	-0.000
231.00	-0.000
231.21	-0.000
231.43	-0.000
231.64	-0.000
231.85	-0.000
232.07	-0.000
232.28	-0.000
232.50	-0.000
232.71	-0.000
232.92	-0.000
233.14	-0.000
233.35	-0.000
233.56	-0.000
233.78	-0.000
233.99	-0.000
234.21	-0.000
234.42	-0.000
234.63	-0.000
234.85	-0.000
235.06	-0.000
235.27	-0.000
235.49	-0.000
235.70	-0.000
235.91	-0.000
236.13	-0.000
236.34	-0.000
236.56	-0.000
236.77	-0.000
236.98	-0.000
237.20	-0.000
237.41	-0.000
237.62	-0.000
237.84	-0.000
238.05	-0.000
238.26	-0.000
238.48	-0.000
238.69	-0.000
238.91	-0.000
239.12	-0.000
239.33	-0.000
239.55	-0.000
239.76	-0.000
239.97	-0.000
240.19	-0.000
240.40	-0.000
240.61	-0.000
240.83	-0.000
241.04	-0.000
241.25	-0.000
241.47	-0.000
241.68	-0.000
241.89	-0.000
242.11	-0.000
242.32	-0.000
242.53	-0.000
242.75	-0.000
242.96	-0.000
243.17	-0.000
243.39	-0.000
243.60	-0.000
243.81	-0.000
244.03	-0.000
244.24	-0.000
244.45	-0.000
244.67	-0.000
244.88	-0.000
245.09	-0.000
245.31	-0.000
245.52	-0.000
245.73	-0.000
245.95	-0.000
246.16	-0.000
246.37	-0.000
246.59	-0.000
246.80	-0.000
247.01	-0.000
247.23	-0.000
247.44	-0.000
247.65	-0.000
247.87	-0.000
248.08	-0.000
248.29	-0.000
248.51	-0.000
248.72	-0.000
248.93	-0.000
249.15	-0.000
249.36	-0.000
249.57	-0.000
249.78	-0.000
250.00	-0.000
250.21	-0.000
250.42	-0.000
250.64	-0.000
250.85	-0.000
251.06	-0.000
251.28	-0.000
251.49	-0.000
251.70	-0.000
251.92	-0.000
252.13	-0.000
252.34	-0.000
252.55	-0.000
252.77	-0.000
252.98	-0.000
253.19	-0.000
253.41	-0.000
253.62	-0.000
253.83	-0.000
254.05	-0.000
254.26	-0.000
254.47	-0.000
254.68	-0.000
254.90	-0.000
255.11	-0.000
255.32	-0.000
255.54	-0.000
255.75	-0.000
255.96	-0.000
256.17	-0.000
256.39	-0.000
256.60	-0.000
256.81	-0.000
257.03	-0.000
257.24	-0.000
257.45	-0.000
257.66	-0.000
257.88	-0.000
258.09	-0.000
258.30	-0.000
258.51	-0.000
258.73	-0.000
258.94	-0.000
259.15	-0.000
259.37	-0.000
259.58	-0.000
259.79	-0.000
260.00	-0.000
260.22	-0.000
260.43	-0.000
260.64	-0.000
260.85	-0.000
261.07	-0.000
261.28	-0.000
261.49	-0.000
261.71	-0.000
261.92	-0.000
262.13	-0.000
262.34	-0.000
262.56	-0.000
262.77	-0.000
262.98	-0.000
263.19	-0.000
263.41	-0.000
263.62	-0.000
263.83	-0.000
264.04	-0.000
264.26	-0.000
264.47	-0.000
264.68	-0.000
264.89	-0.000
265.11	-0.000
265.32	-0.000
265.53	-0.000
265.74	-0.000
265.96	-0.000
266.17	-0.000
266.38	-0.000
266.59	-0.000
266.81	-0.000
267.02	-0.000
267.23	-0.000
267.44	-0.000
267.65	-0.000
267.87	-0.000
268.08	-0.000
268.29	-0.000
268.50	-0.000
268.72	-0.000
268.93	-0.000
269.14	-0.000
269.35	-0.000
269.57	-0.000
269.78	-0.000
269.99	-0.000
270.20	-0.000
270.41	-0.000
270.63	-0.000
270.84	-0.000
271.05	-0.000
271.26	-0.000
271.48	-0.000
271.69	-0.000
271.90	-0.000
272.11	-0.000
272.32	-0.000
272.54	-0.000
272.75	-0.000
272.96	-0.000
273.17	-0.000
273.39	-0.000
273.60	-0.000
273.81	-0.000
274.02	-0.000
274.23	-0.000
274.45	-0.000
274.66	-0.000
274.87	-0.000
275.08	-0.000
275.29	-0.000
275.51	-0.000
275.72	-0.000
275.93	-0.000
276.14	-0.000
276.35	-0.000
276.57	-0.000
276.78	-0.000
276.99	-0.000
277.20	-0.000
277.41	-0.000
277.63	-0.000
277.84	-0.000
278.05	-0.000
278.26	-0.000
278.47	-0.000
278.69	-0.000
278.90	-0.000
279.11	-0.000
279.32	-0.000
279.53	-0.000
279.74	-0.000
279.96	-0.000
280.17	-0.000
280.38	-0.000
280.59	-0.000
280.80	-0.000
281.02	-0.000
281.23	-0.000
281.44	-0.000
281.65	-0.000
281.86	-0.000
282.07	-0.000
282.29	-0.000
282.50	-0.000
282.71	-0.000
282.92	-0.000
283.13	-0.000
283.35	-0.000
283.56	-0.000
283.77	-0.000
283.98	-0.000
284.19	-0.000
284.40	-0.000
284.62	-0.000
284.83	-0.000
285.04	-0.000
285.25	-0.000
285.46	-0.000
285.67	-0.000
285.88	-0.000
286.10	-0.000
286.31	-0.000
286.52	-0.000
286.73	-0.000
286.94	-0.000
287.15	-0.000
287.37	-0.000
287.58	-0.000
287.79	-0.000
288.00	-0.000
288.21	-0.000
288.42	-0.000
288.63	-0.000
288.85	-0.000
289.06	-0.000
289.27	-0.000
289.48	-0.000
289.69	-0.000
289.90	-0.000
290.11	-0.000
290.33	-0.000
290.54	-0.000
290.75	-0.000
290.96	-0.000
291.17	-0.000
291.38	-0.000
291.59	-0.000
291.81	-0.000
292.02	-0.000
292.23	-0.000
292.44	-0.000
292.65	-0.000
292.86	-0.000
293.07	-0.000
293.28	-0.000
293.50	-0.000
293.71	-0.000
293.92	-0.000
294.13	-0.000
294.34	-0.000
294.55	-0.000
294.76	-0.000
294.97	-0.000
295.19	-0.000
295.40	-0.000
295.61	-0.000
295.82	-0.000
296.03	-0.000
296.24	-0.000
296.45	2.361
296.66	1.785
296.87	1.808
297.09	1.929
297.30	2.167
297.51	1.713
297.72	1.661
297.93	1.779
298.14	1.739
298.35	1.670
298.56	1.630
298.77	1.751
298.99	1.724
299.20	1.679
299.41	1.650
299.62	1.620
299.83	1.613
300.04	1.542
300.25	1.530
300.46	1.578
300.67	1.559
300.88	1.500
301.10	1.505
301.31	1.592
301.52	1.529
301.73	1.463
301.94	1.466
302.15	1.486
302.36	1.440
302.57	1.371
302.78	1.379
302.99	1.417
303.20	1.438
303.41	1.347
303.63	1.324
303.84	1.333
304.05	1.327
304.26	1.269
304.47	1.273
304.68	1.283
304.89	1.276
305.10	1.231
305.31	1.224
305.52	1.265
305.73	1.253
305.94	1.215
306.15	1.211
306.37	1.237
306.58	1.244
306.79	1.210
307.00	1.224
307.21	1.262
307.42	1.255
307.63	1.215
307.84	1.185
308.05	1.223
308.26	1.224
308.47	1.197
308.68	1.193
308.89	1.195
309.10	1.192
309.31	1.153
309.52	1.148
309.73	1.166
309.95	1.162
310.16	1.134
310.37	1.125
310.58	1.143
310.79	1.140
311.00	1.132
311.21	1.135
311.42	1.138
311.63	1.135
311.84	1.112
312.05	1.108
312.26	1.128
312.47	1.139
312.68	1.111
312.89	1.095
313.10	1.104
313.31	1.079
313.52	1.077
313.73	1.080
313.94	1.084
314.15	1.067
314.36	1.045
314.57	1.039
314.78	1.030
314.99	1.026
315.21	1.013
315.42	1.017
315.63	1.032
315.84	1.011
316.05	0.995
316.26	1.004
316.47	1.021
316.68	1.019
316.89	1.000
317.10	1.018
317.31	1.027
317.52	1.027
317.73	1.005
317.94	1.005
318.15	1.045
318.36	1.044
318.57	1.023
318.78	1.015
318.99	1.048
319.20	1.044
319.41	1.010
319.62	1.008
319.83	1.020
320.04	1.017
320.25	1.003
320.46	0.973
320.67	0.978
320.88	0.974
321.09	0.958
321.30	0.945
321.51	0.959
321.72	0.959
321.93	0.944
322.14	0.938
322.35	0.964
322.56	0.964
322.77	0.951
322.98	0.961
323.19	0.972
323.40	0.979
323.61	0.957
323.82	0.954
324.03	0.958
324.24	0.956
324.45	0.942
324.66	0.926
324.87	0.924
325.08	0.924
325.29	0.904
325.50	0.897
325.71	0.903
325.92	0.911
326.13	0.896
326.34	0.896
326.55	0.906
326.76	0.906
326.97	0.893
327.18	0.888
327.39	0.914
327.60	0.914
327.80	0.913
328.01	0.911
328.22	0.911
328.43	0.914
328.64	0.902
328.85	0.904
329.06	0.908
329.27	0.906
329.48	0.902
329.69	0.884
329.90	0.894
330.11	0.887
330.32	0.880
330.53	0.874
330.74	0.876
330.95	0.873
331.16	0.859
331.37	0.866
331.58	0.868
331.79	0.866
332.00	0.858
332.21	0.852
332.42	0.857
332.63	0.849
332.83	0.844
333.04	0.846
333.25	0.860
333.46	0.858
333.67	0.845
333.88	0.848
334.09	0.859
334.30	0.855
334.51	0.845
334.72	0.841
334.93	0.845
335.14	0.844
335.35	0.836
335.56	0.831
335.77	0.841
335.98	0.839
336.18	0.832
336.39	0.825
336.60	0.831
336.81	0.830
337.02	0.828
337.23	0.834
337.44	0.839
337.65	0.841
337.86	0.829
338.07	0.824
338.28	0.829
338.49	0.827
338.70	0.818
338.91	0.824
339.11	0.831
339.32	0.827
339.53	0.814
339.74	0.811
339.95	0.809
340.16	0.809
340.37	0.800
340.58	0.800
340.79	0.805
341.00	0.806
341.21	0.796
341.41	0.797
341.62	0.800
341.83	0.801
342.04	0.796
342.25	0.805
342.46	0.811
342.67	0.809
342.88	0.801
343.09	0.799
343.30	0.806
343.50	0.808
343.71	0.798
343.92	0.795
344.13	0.800
344.34	0.800
344.55	0.784
344.76	0.782
344.97	0.788
345.18	0.788
345.38	0.785
345.59	0.780
345.80	0.780
346.01	0.779
346.22	0.775
346.43	0.770
346.64	0.778
346.85	0.778
347.06	0.771
347.26	0.771
347.47	0.777
347.68	0.772
347.89	0.767
348.10	0.763
348.31	0.770
348.52	0.768
348.73	0.766
348.93	0.762
349.14	0.765
349.35	0.765
349.56	0.758
349.77	0.754
349.98	0.760
350.19	0.758
350.39	0.753
350.60	0.749
350.81	0.765
351.02	0.765
351.23	0.758
351.44	0.760
351.65	0.765
351.86	0.762
352.06	0.760
352.27	0.760
352.48	0.762
352.69	0.763
352.90	0.757
353.11	0.744
353.31	0.751
353.52	0.749
353.73	0.740
353.94	0.741
354.15	0.747
354.36	0.747
354.57	0.738
354.77	0.740
354.98	0.740
355.19	0.741
355.40	0.739
355.61	0.744
355.82	0.750
356.02	0.750
356.23	0.743
356.44	0.746
356.65	0.750
356.86	0.751
357.07	0.744
357.27	0.747
357.48	0.750
357.69	0.746
357.90	0.731
358.11	0.727
358.32	0.732
358.52	0.734
358.73	0.724
358.94	0.727
359.15	0.732
359.36	0.733
359.56	0.727
359.77	0.724
359.98	0.732
360.19	0.732
360.40	0.728
360.61	0.730
360.81	0.729
361.02	0.730
361.23	0.721
361.44	0.720
361.65	0.721
361.85	0.721
362.06	0.718
362.27	0.720
362.48	0.722
362.69	0.724
362.89	0.717
363.10	0.718
363.31	0.723
363.52	0.727
363.73	0.721
363.93	0.722
364.14	0.725
364.35	0.726
364.56	0.715
364.77	0.717
364.97	0.721
365.18	0.721
365.39	0.716
365.60	0.713
365.81	0.714
366.01	0.714
366.22	0.710
366.43	0.709
366.64	0.711
366.84	0.717
367.05	0.713
367.26	0.712
367.47	0.715
367.68	0.715
367.88	0.712
368.09	0.710
368.30	0.713
368.51	0.713
368.71	0.712
368.92	0.717
369.13	0.716
369.34	0.716
369.55	0.714
369.75	0.714
369.96	0.720
370.17	0.720
370.38	0.717
370.58	0.717
370.79	0.722
371.00	0.721
371.21	0.711
371.41	0.717
371.62	0.722
371.83	0.718
372.04	0.715
372.24	0.709
372.45	0.711
372.66	0.711
372.87	0.707
373.07	0.704
373.28	0.705
373.49	0.708
373.70	0.698
373.90	0.696
374.11	0.705
374.32	0.704
374.53	0.703
374.73	0.703
374.94	0.707
375.15	0.707
375.36	0.703
375.56	0.712
375.77	0.713
375.98	0.714
376.19	0.710
376.39	0.704
376.60	0.708
376.81	0.708
377.02	0.705
377.22	0.704
377.43	0.704
377.64	0.705
377.84	0.695
378.05	0.700
378.26	0.706
378.47	0.706
378.67	0.702
378.88	0.699
379.09	0.701
379.30	0.701
379.50	0.697
379.71	0.700
379.92	0.704
380.12	0.704
380.33	0.695
380.54	0.691
380.75	0.698
380.95	0.697
381.16	0.695
381.37	0.695
381.57	0.697
381.78	0.698
381.99	0.696
382.20	0.695
382.40	0.698
382.61	0.698
382.82	0.694
383.02	0.688
383.23	0.692
383.44	0.692
383.64	0.690
383.85	0.693
384.06	0.696
384.27	0.694
384.47	0.691
384.68	0.692
384.89	0.698
385.09	0.697
385.30	0.696
385.51	0.694
385.71	0.697
385.92	0.698
386.13	0.695
386.33	0.696
386.54	0.698
386.75	0.697
386.95	0.692
387.16	0.688
387.37	0.691
387.58	0.691
387.78	0.689
387.99	0.686
388.20	0.689
388.40	0.685
388.61	0.681
388.82	0.684
389.02	0.686
389.23	0.686
389.44	0.684
389.64	0.684
389.85	0.694
390.06	0.694
390.26	0.694
390.47	0.693
390.68	0.696
390.88	0.695
391.09	0.690
391.30	0.689
391.50	0.689
391.71	0.689
391.92	0.686
392.12	0.678
392.33	0.679
392.53	0.679
392.74	0.678
392.95	0.678
393.15	0.680
393.36	0.682
393.57	0.679
393.77	0.682
393.98	0.684
394.19	0.684
394.39	0.682
394.60	0.683
394.81	0.685
395.01	0.683
395.22	0.680
395.43	0.681
395.63	0.686
395.84	0.687
396.04	0.682
396.25	0.684
396.46	0.687
396.66	0.685
396.87	0.682
397.08	0.680
397.28	0.682
397.49	0.683
397.69	0.679
397.90	0.674
398.11	0.676
398.31	0.677
398.52	0.673
398.73	0.674
398.93	0.673
399.14	0.673
399.34	0.671
399.55	0.672
399.76	0.672
399.96	0.674
400.17	0.671
400.37	0.670
400.58	0.676
400.79	0.677
400.99	0.674
401.20	0.679
401.41	0.682
401.61	0.682
401.82	0.686
402.02	0.686
402.23	0.687
402.44	0.687
402.64	0.687
402.85	0.681
403.05	0.681
403.26	0.680
403.47	0.673
403.67	0.672
403.88	0.673
404.08	0.667
404.29	0.665
404.50	0.664
404.70	0.665
404.91	0.664
405.11	0.660
405.32	0.661
405.52	0.662
405.73	0.662
405.94	0.660
406.14	0.662
406.35	0.665
406.55	0.664
406.76	0.662
406.97	0.662
407.17	0.665
407.38	0.665
407.58	0.662
407.79	0.665
407.99	0.667
408.20	0.668
408.41	0.663
408.61	0.661
408.82	0.663
409.02	0.663
409.23	0.660
409.43	0.659
409.64	0.661
409.84	0.661
410.05	0.657
410.26	0.655
410.46	0.655
410.67	0.654
410.87	0.655
411.08	0.656
411.28	0.658
411.49	0.660
411.69	0.657
411.90	0.658
412.11	0.660
412.31	0.662
412.52	0.660
412.72	0.660
412.93	0.662
413.13	0.661
413.34	0.657
413.54	0.658
413.75	0.659
413.95	0.659
414.16	0.655
414.37	0.658
414.57	0.658
414.78	0.661
414.98	0.659
415.19	0.660
415.39	0.658
415.60	0.660
415.80	0.659
416.01	0.658
416.21	0.660
416.42	0.661
416.62	0.655
416.83	0.656
417.03	0.656
417.24	0.656
417.44	0.653
417.65	0.653
417.86	0.654
418.06	0.652
418.27	0.649
418.47	0.651
418.68	0.652
418.88	0.653
419.09	0.650
419.29	0.651
419.50	0.652
419.70	0.652
419.91	0.651
420.11	0.649
420.32	0.652
420.52	0.652
420.73	0.650
420.93	0.651
421.14	0.653
421.34	0.652
421.55	0.648
421.75	0.648
421.96	0.650
422.16	0.650
422.37	0.649
422.57	0.646
422.78	0.648
422.98	0.645
423.19	0.642
423.39	0.641
423.60	0.645
423.80	0.647
424.01	0.646
424.21	0.647
424.42	0.649
424.62	0.649
424.83	0.648
425.03	0.648
425.23	0.651
425.44	0.652
425.64	0.651
425.85	0.650
426.05	0.651
426.26	0.651
426.46	0.647
426.67	0.647
426.87	0.652
427.08	0.652
427.28	0.649
427.49	0.650
427.69	0.651
427.90	0.650
428.10	0.647
428.31	0.646
428.51	0.648
428.71	0.647
428.92	0.648
429.12	0.645
429.33	0.646
429.53	0.651
429.74	0.655
429.94	0.655
430.15	0.655
430.35	0.655
430.56	0.653
430.76	0.653
430.96	0.654
431.17	0.652
431.37	0.649
431.58	0.647
431.78	0.645
431.99	0.638
432.19	0.640
432.40	0.642
432.60	0.643
432.80	0.644
433.01	0.643
433.21	0.643
433.42	0.645
433.62	0.645
433.83	0.644
434.03	0.647
434.23	0.650
434.44	0.649
434.64	0.646
434.85	0.651
435.05	0.653
435.26	0.653
435.46	0.651
435.66	0.651
435.87	0.651
436.07	0.651
436.28	0.646
436.48	0.644
436.69	0.644
436.89	0.645
437.09	0.639
437.30	0.638
437.50	0.639
437.71	0.651
437.91	0.650
438.11	0.651
438.32	0.657
438.52	0.658
438.73	0.657
438.93	0.655
439.13	0.655
439.34	0.659
439.54	0.657
439.75	0.656
439.95	0.647
440.15	0.651
440.36	0.649
440.56	0.646
440.77	0.647
440.97	0.647
441.17	0.646
441.38	0.647
441.58	0.645
441.79	0.645
441.99	0.643
442.19	0.642
442.40	0.640
442.60	0.640
442.81	0.638
443.01	0.639
443.21	0.640
443.42	0.640
443.62	0.638
443.82	0.638
444.03	0.640
444.23	0.641
444.44	0.640
444.64	0.639
444.84	0.641
445.05	0.640
445.25	0.638
445.45	0.638
445.66	0.641
445.86	0.640
446.06	0.641
446.27	0.641
446.47	0.644
446.68	0.642
446.88	0.641
447.08	0.641
447.29	0.643
447.49	0.644
447.69	0.644
447.90	0.642
448.10	0.646
448.30	0.644
448.51	0.645
448.71	0.642
448.91	0.645
449.12	0.644
449.32	0.645
449.52	0.644
449.73	0.648
449.93	0.647
450.14	0.648
450.34	0.647
450.54	0.649
450.75	0.647
450.95	0.646
451.15	0.646
451.36	0.649
451.56	0.646
451.76	0.645
451.97	0.642
452.17	0.643
452.37	0.641
452.58	0.638
452.78	0.638
452.98	0.640
453.19	0.639
453.39	0.639
453.59	0.638
453.79	0.640
454.00	0.640
454.20	0.638
454.40	0.639
454.61	0.641
454.81	0.642
455.01	0.640
455.22	0.641
455.42	0.644
455.62	0.642
455.83	0.641
456.03	0.643
456.23	0.645
456.44	0.647
456.64	0.645
456.84	0.646
457.04	0.647
457.25	0.646
457.45	0.643
457.65	0.642
457.86	0.643
458.06	0.642
458.26	0.637
458.47	0.636
458.67	0.638
458.87	0.638
459.07	0.635
459.28	0.638
459.48	0.640
459.68	0.640
459.89	0.640
460.09	0.639
460.29	0.641
460.49	0.642
460.70	0.641
460.90	0.641
461.10	0.643
461.31	0.643
461.51	0.639
461.71	0.640
461.91	0.642
462.12	0.642
462.32	0.640
462.52	0.641
462.72	0.644
462.93	0.644
463.13	0.643
463.33	0.643
463.53	0.645
463.74	0.644
463.94	0.639
464.14	0.639
464.35	0.641
464.55	0.641
464.75	0.638
464.95	0.636
465.16	0.638
465.36	0.637
465.56	0.636
465.76	0.636
465.97	0.637
466.17	0.638
466.37	0.636
466.57	0.636
466.78	0.638
466.98	0.639
467.18	0.637
467.38	0.635
467.59	0.637
467.79	0.639
467.99	0.637
468.19	0.638
468.39	0.641
468.60	0.641
468.80	0.638
469.00	0.640
469.20	0.642
469.41	0.642
469.61	0.642
469.81	0.642
470.01	0.642
470.22	0.642
470.42	0.640
470.62	0.638
470.82	0.640
471.02	0.640
471.23	0.636
471.43	0.637
471.63	0.639
471.83	0.639
472.04	0.637
472.24	0.636
472.44	0.641
472.64	0.641
472.84	0.639
473.05	0.639
473.25	0.642
473.45	0.641
473.65	0.639
473.85	0.639
474.06	0.641
474.26	0.641
474.46	0.642
474.66	0.639
474.86	0.639
475.07	0.640
475.27	0.637
475.47	0.635
475.67	0.636
475.87	0.639
476.08	0.635
476.28	0.636
476.48	0.637
476.68	0.636
476.88	0.633
477.09	0.635
477.29	0.637
477.49	0.637
477.69	0.636
477.89	0.636
478.09	0.635
478.30	0.638
478.50	0.635
478.70	0.635
478.90	0.635
479.10	0.638
479.31	0.639
479.51	0.637
479.71	0.637
479.91	0.638
480.11	0.637
480.31	0.637
480.52	0.636
480.72	0.636
480.92	0.635
481.12	0.634
481.32	0.632
481.52	0.630
481.72	0.630
481.93	0.633
482.13	0.634
482.33	0.634
482.53	0.631
482.73	0.632
482.93	0.633
483.14	0.633
483.34	0.632
483.54	0.632
483.74	0.632
483.94	0.631
484.14	0.627
484.34	0.626
484.55	0.627
484.75	0.628
484.95	0.626
485.15	0.625
485.35	0.626
485.55	0.625
485.75	0.623
485.96	0.624
486.16	0.626
486.36	0.625
486.56	0.623
486.76	0.623
486.96	0.624
487.16	0.624
487.36	0.622
487.57	0.621
487.77	0.623
487.97	0.624
488.17	0.622
488.37	0.621
488.57	0.622
488.77	0.622
488.97	0.621
489.18	0.620
489.38	0.623
489.58	0.623
489.78	0.622
489.98	0.621
490.18	0.621
490.38	0.621
490.58	0.620
490.78	0.620
490.98	0.622
491.19	0.622
491.39	0.621
491.59	0.620
491.79	0.623
491.99	0.624
492.19	0.623
492.39	0.627
492.59	0.627
492.79	0.629
492.99	0.629
493.20	0.629
493.40	0.630
493.60	0.632
493.80	0.630
494.00	0.628
494.20	0.628
494.40	0.628
494.60	0.625
494.80	0.630
495.00	0.629
495.20	0.627
495.40	0.626
495.61	0.628
495.81	0.627
496.01	0.631
496.21	0.632
496.41	0.631
496.61	0.632
496.81	0.631
497.01	0.626
497.21	0.625
497.41	0.627
497.61	0.626
497.81	0.623
498.01	0.624
498.21	0.622
498.41	0.620
498.61	0.620
498.82	0.621
499.02	0.624
499.22	0.625
499.42	0.624
499.62	0.624
499.82	0.626
500.02	0.627
500.22	0.626
500.42	0.628
500.62	0.629
500.82	0.629
501.02	0.627
501.22	0.626
501.42	0.627
501.62	0.629
501.82	0.628
502.02	0.629
502.22	0.629
502.42	0.630
502.62	0.627
502.82	0.628
503.02	0.628
503.22	0.628
503.42	0.626
503.63	0.626
503.83	0.624
504.03	0.623
504.23	0.621
504.43	0.621
504.63	0.623
504.83	0.623
505.03	0.621
505.23	0.623
505.43	0.625
505.63	0.626
505.83	0.625
506.03	0.627
506.23	0.630
506.43	0.630
506.63	0.629
506.83	0.628
507.03	0.630
507.23	0.630
507.43	0.627
507.63	0.628
507.83	0.628
508.03	0.629
508.23	0.628
508.43	0.626
508.63	0.628
508.83	0.629
509.03	0.630
509.23	0.629
509.43	0.631
509.63	0.631
509.83	0.629
510.03	0.632
510.23	0.634
510.43	0.635
510.63	0.635
510.83	0.635
511.03	0.637
511.23	0.633
511.43	0.632
511.63	0.634
511.83	0.637
512.03	0.636
512.22	0.633
512.42	0.632
512.62	0.633
512.82	0.633
513.02	0.632
513.22	0.632
513.42	0.634
513.62	0.637
513.82	0.635
514.02	0.634
514.22	0.636
514.42	0.637
514.62	0.636
514.82	0.636
515.02	0.639
515.22	0.642
515.42	0.640
515.62	0.643
515.82	0.642
516.02	0.643
516.22	0.643
516.42	0.644
516.62	0.646
516.82	0.648
517.01	0.646
517.21	0.645
517.41	0.649
517.61	0.650
517.81	0.645
518.01	0.645
518.21	0.646
518.41	0.644
518.61	0.642
518.81	0.642
519.01	0.643
519.21	0.643
519.41	0.641
519.61	0.636
519.81	0.639
520.00	0.639
520.20	0.640
520.40	0.642
520.60	0.644
520.80	0.643
521.00	0.644
521.20	0.644
521.40	0.650
521.60	0.650
521.80	0.649
522.00	0.649
522.20	0.652
522.39	0.651
522.59	0.647
522.79	0.649
522.99	0.652
523.19	0.650
523.39	0.648
523.59	0.646
523.79	0.649
523.99	0.652
524.19	0.650
524.38	0.649
524.58	0.651
524.78	0.651
524.98	0.649
525.18	0.650
525.38	0.652
525.58	0.653
525.78	0.650
525.98	0.648
526.18	0.649
526.37	0.648
526.57	0.650
526.77	0.650
526.97	0.651
527.17	0.652
527.37	0.648
527.57	0.650
527.77	0.652
527.96	0.653
528.16	0.651
528.36	0.652
528.56	0.655
528.76	0.652
528.96	0.651
529.16	0.652
529.36	0.656
529.55	0.656
529.75	0.652
529.95	0.652
530.15	0.654
530.35	0.656
530.55	0.654
530.75	0.654
530.94	0.656
531.14	0.656
531.34	0.654
531.54	0.651
531.74	0.655
531.94	0.658
532.13	0.656
532.33	0.657
532.53	0.656
532.73	0.656
532.93	0.653
533.13	0.654
533.33	0.655
533.52	0.655
533.72	0.658
533.92	0.656
534.12	0.655
534.32	0.655
534.52	0.653
534.71	0.655
534.91	0.659
535.11	0.661
535.31	0.658
535.51	0.660
535.71	0.662
535.90	0.659
536.10	0.661
536.30	0.662
536.50	0.664
536.70	0.665
536.89	0.662
537.09	0.661
537.29	0.663
537.49	0.664
537.69	0.661
537.89	0.661
538.08	0.661
538.28	0.658
538.48	0.658
538.68	0.660
538.88	0.662
539.07	0.661
539.27	0.659
539.47	0.658
539.67	0.660
539.87	0.661
540.06	0.659
540.26	0.660
540.46	0.663
540.66	0.661
540.86	0.658
541.05	0.658
541.25	0.661
541.45	0.660
541.65	0.659
541.84	0.660
542.04	0.660
542.24	0.662
542.44	0.660
542.64	0.661
542.83	0.664
543.03	0.664
543.23	0.661
543.43	0.662
543.62	0.664
543.82	0.664
544.02	0.662
544.22	0.662
544.42	0.665
544.61	0.665
544.81	0.662
545.01	0.661
545.21	0.664
545.40	0.664
545.60	0.662
545.80	0.665
546.00	0.667
546.19	0.666
546.39	0.665
546.59	0.663
546.79	0.665
546.98	0.666
547.18	0.665
547.38	0.666
547.58	0.668
547.77	0.668
547.97	0.664
548.17	0.666
548.37	0.667
548.56	0.667
548.76	0.666
548.96	0.668
549.16	0.671
549.35	0.671
549.55	0.668
549.75	0.669
549.95	0.673
550.14	0.673
550.34	0.671
550.54	0.675
550.73	0.679
550.93	0.680
551.13	0.676
551.33	0.674
551.52	0.676
551.72	0.676
551.92	0.673
552.12	0.673
552.31	0.674
552.51	0.674
552.71	0.668
552.90	0.668
553.10	0.670
553.30	0.670
553.50	0.669
553.69	0.670
553.89	0.671
554.09	0.672
554.28	0.668
554.48	0.670
554.68	0.672
554.87	0.672
555.07	0.668
555.27	0.668
555.47	0.671
555.66	0.672
555.86	0.669
556.06	0.672
556.25	0.674
556.45	0.682
556.65	0.680
556.84	0.683
557.04	0.687
557.24	0.689
557.43	0.688
557.63	0.690
557.83	0.693
558.02	0.693
558.22	0.696
558.42	0.696
558.61	0.689
558.81	0.689
559.01	0.685
559.21	0.685
559.40	0.687
559.60	0.687
559.80	0.683
559.99	0.684
560.19	0.687
560.39	0.680
560.58	0.677
560.78	0.678
560.97	0.682
561.17	0.680
561.37	0.677
561.56	0.677
561.76	0.680
561.96	0.679
562.15	0.677
562.35	0.679
562.55	0.681
562.74	0.681
562.94	0.679
563.14	0.677
563.33	0.679
563.53	0.680
563.73	0.677
563.92	0.678
564.12	0.682
564.31	0.684
564.51	0.681
564.71	0.683
564.90	0.687
565.10	0.688
565.30	0.691
565.49	0.692
565.69	0.694
565.89	0.694
566.08	0.690
566.28	0.691
566.47	0.693
566.67	0.690
566.87	0.687
567.06	0.688
567.26	0.695
567.46	0.690
567.65	0.689
567.85	0.691
568.04	0.694
568.24	0.693
568.44	0.690
568.63	0.689
568.83	0.690
569.02	0.689
569.22	0.684
569.42	0.679
569.61	0.682
569.81	0.680
570.00	0.678
570.20	0.679
570.40	0.680
570.59	0.680
570.79	0.678
570.98	0.676
571.18	0.678
571.38	0.678
571.57	0.675
571.77	0.673
571.96	0.677
572.16	0.675
572.35	0.669
572.55	0.670
572.75	0.669
572.94	0.669
573.14	0.667
573.33	0.667
573.53	0.668
573.73	0.668
573.92	0.665
574.12	0.663
574.31	0.666
574.51	0.667
574.70	0.664
574.90	0.665
575.09	0.668
575.29	0.668
575.49	0.665
575.68	0.666
575.88	0.667
576.07	0.669
576.27	0.667
576.46	0.665
576.66	0.665
576.86	0.664
577.05	0.662
577.25	0.660
577.44	0.663
577.64	0.662
577.83	0.659
578.03	0.660
578.22	0.660
578.42	0.659
578.61	0.657
578.81	0.658
579.00	0.659
579.20	0.659
579.40	0.657
579.59	0.656
579.79	0.656
579.98	0.656
580.18	0.656
580.37	0.656
580.57	0.658
580.76	0.663
580.96	0.662
581.15	0.662
581.35	0.665
581.54	0.664
581.74	0.663
581.93	0.665
582.13	0.666
582.32	0.663
582.52	0.662
582.71	0.661
582.91	0.657
583.10	0.657
583.30	0.656
583.49	0.655
583.69	0.660
583.88	0.661
584.08	0.660
584.27	0.662
584.47	0.666
584.66	0.666
584.86	0.664
585.05	0.666
585.25	0.669
585.44	0.668
585.64	0.666
585.83	0.663
586.03	0.664
586.22	0.662
586.42	0.658
586.61	0.660
586.81	0.663
587.00	0.663
587.20	0.661
587.39	0.662
587.59	0.665
587.78	0.666
587.98	0.666
588.17	0.666
588.37	0.669
588.56	0.671
588.76	0.667
588.95	0.666
589.15	0.670
589.34	0.673
589.54	0.670
589.73	0.670
589.92	0.674
590.12	0.673
590.31	0.670
590.51	0.675
590.70	0.677
590.90	0.677
591.09	0.675
591.29	0.674
591.48	0.674
591.68	0.675
591.87	0.673
592.06	0.672
592.26	0.676
592.45	0.676
592.65	0.669
592.84	0.670
593.04	0.673
593.23	0.675
593.43	0.672
593.62	0.672
593.81	0.673
594.01	0.673
594.20	0.670
594.40	0.669
594.59	0.672
594.79	0.673
594.98	0.671
595.17	0.670
595.37	0.671
595.56	0.673
595.76	0.672
595.95	0.673
596.14	0.676
596.34	0.677
596.53	0.675
596.73	0.676
596.92	0.676
597.12	0.678
597.31	0.678
597.50	0.677
597.70	0.679
597.89	0.679
598.09	0.675
598.28	0.676
598.47	0.679
598.67	0.678
598.86	0.674
599.06	0.676
599.25	0.677
599.44	0.676
599.64	0.673
599.83	0.671
600.03	0.674
600.22	0.674
600.41	0.674
600.61	0.672
600.80	0.675
601.00	0.676
601.19	0.672
601.38	0.670
601.58	0.673
601.77	0.675
601.96	0.676
602.16	0.676
602.35	0.686
602.55	0.683
602.74	0.682
602.93	0.684
603.13	0.690
603.32	0.691
603.51	0.689
603.71	0.691
603.90	0.693
604.09	0.694
604.29	0.690
604.48	0.684
604.68	0.686
604.87	0.685
605.06	0.681
605.26	0.678
605.45	0.680
605.64	0.679
605.84	0.675
606.03	0.674
606.22	0.673
606.42	0.673
606.61	0.669
606.80	0.670
607.00	0.672
607.19	0.673
607.38	0.670
607.58	0.672
607.77	0.675
607.96	0.675
608.16	0.673
608.35	0.678
608.54	0.682
608.74	0.685
608.93	0.690
609.12	0.692
609.32	0.695
609.51	0.699
609.70	0.697
609.90	0.698
610.09	0.704
610.28	0.708
610.48	0.701
610.67	0.702
610.86	0.703
611.06	0.697
611.25	0.695
611.44	0.695
611.64	0.695
611.83	0.697
612.02	0.692
612.21	0.691
612.41	0.691
612.60	0.690
612.79	0.686
612.99	0.686
613.18	0.689
613.37	0.687
613.57	0.683
613.76	0.685
613.95	0.684
614.14	0.684
614.34	0.681
614.53	0.682
614.72	0.686
614.92	0.686
615.11	0.682
615.30	0.680
615.49	0.682
615.69	0.686
615.88	0.683
616.07	0.684
616.26	0.687
616.46	0.689
616.65	0.685
616.84	0.683
617.04	0.685
617.23	0.689
617.42	0.689
617.61	0.692
617.81	0.693
618.00	0.695
618.19	0.692
618.38	0.695
618.58	0.699
618.77	0.700
618.96	0.698
619.15	0.700
619.35	0.703
619.54	0.704
619.73	0.698
619.92	0.700
620.12	0.705
620.31	0.705
620.50	0.699
620.69	0.700
620.89	0.704
621.08	0.704
621.27	0.703
621.46	0.702
621.66	0.707
621.85	0.707
622.04	0.702
622.23	0.703
622.43	0.705
622.62	0.704
622.81	0.703
623.00	0.703
623.19	0.707
623.39	0.706
623.58	0.703
623.77	0.701
623.96	0.706
624.16	0.705
624.35	0.700
624.54	0.704
624.73	0.709
624.92	0.706
625.12	0.703
625.31	0.704
625.50	0.708
625.69	0.709
625.88	0.705
626.08	0.704
626.27	0.707
626.46	0.707
626.65	0.703
626.84	0.702
627.04	0.709
627.23	0.709
627.42	0.703
627.61	0.705
627.80	0.708
628.00	0.708
628.19	0.706
628.38	0.709
628.57	0.713
628.76	0.712
628.96	0.709
629.15	0.710
629.34	0.713
629.53	0.713
629.72	0.706
629.91	0.707
630.11	0.713
630.30	0.714
630.49	0.715
630.68	0.716
630.87	0.720
631.06	0.723
631.26	0.717
631.45	0.720
631.64	0.730
631.83	0.732
632.02	0.729
632.21	0.727
632.41	0.736
632.60	0.731
632.79	0.728
632.98	0.728
633.17	0.729
633.36	0.731
633.55	0.725
633.75	0.721
633.94	0.725
634.13	0.725
634.32	0.720
634.51	0.714
634.70	0.718
634.89	0.717
635.09	0.713
635.28	0.714
635.47	0.717
635.66	0.721
635.85	0.716
636.04	0.717
636.23	0.723
636.43	0.724
636.62	0.721
636.81	0.720
637.00	0.723
637.19	0.726
637.38	0.721
637.57	0.720
637.76	0.723
637.95	0.724
638.15	0.719
638.34	0.716
638.53	0.721
638.72	0.723
638.91	0.719
639.10	0.716
639.29	0.718
639.48	0.719
639.67	0.718
639.87	0.716
640.06	0.722
640.25	0.722
640.44	0.722
640.63	0.722
640.82	0.725
641.01	0.725
641.20	0.724
641.39	0.726
641.58	0.730
641.78	0.728
641.97	0.723
642.16	0.738
642.35	0.740
642.54	0.739
642.73	0.732
642.92	0.731
643.11	0.734
643.30	0.735
643.49	0.729
643.68	0.732
643.87	0.735
644.06	0.735
644.25	0.712
644.45	0.715
644.64	0.718
644.83	0.719
645.02	0.715
645.21	0.715
645.40	0.717
645.59	0.717
645.78	0.709
645.97	0.710
646.16	0.712
646.35	0.712
646.54	0.708
646.73	0.709
646.92	0.712
647.11	0.711
647.30	0.707
647.49	0.708
647.68	0.709
647.88	0.707
648.07	0.700
648.26	0.703
648.45	0.705
648.64	0.702
648.83	0.698
649.02	0.700
649.21	0.710
649.40	0.709
649.59	0.704
649.78	0.705
649.97	0.721
650.16	0.721
650.35	0.716
650.54	0.719
650.73	0.729
650.92	0.725
651.11	0.717
651.30	0.716
651.49	0.722
651.68	0.721
651.87	0.717
652.06	0.705
652.25	0.709
652.44	0.709
652.63	0.702
652.82	0.700
653.01	0.699
653.20	0.696
653.39	0.682
653.58	0.680
653.77	0.680
653.96	0.676
654.15	0.668
654.34	0.666
654.53	0.663
654.72	0.660
654.91	0.650
655.10	0.647
655.29	0.646
655.48	0.645
655.67	0.640
655.86	0.637
656.05	0.636
656.24	0.636
656.43	0.630
656.62	0.629
656.81	0.631
657.00	0.631
657.19	0.629
657.38	0.629
657.57	0.630
657.76	0.633
657.95	0.631
658.14	0.635
658.33	0.639
658.51	0.645
658.70	0.646
658.89	0.646
659.08	0.654
659.27	0.661
659.46	0.660
659.65	0.666
659.84	0.669
660.03	0.673
660.22	0.672
660.41	0.676
660.60	0.676
660.79	0.677
660.98	0.683
661.17	0.682
661.36	0.680
661.55	0.680
661.74	0.676
661.92	0.679
662.11	0.682
662.30	0.680
662.49	0.672
662.68	0.672
662.87	0.677
663.06	0.670
663.25	0.671
663.44	0.672
663.63	0.674
663.82	0.673
664.01	0.666
664.20	0.665
664.38	0.668
664.57	0.668
664.76	0.668
664.95	0.668
665.14	0.674
665.33	0.669
665.52	0.675
665.71	0.680
665.90	0.680
666.09	0.682
666.28	0.679
666.46	0.678
666.65	0.680
666.84	0.678
667.03	0.671
667.22	0.669
667.41	0.672
667.60	0.662
667.79	0.654
667.98	0.656
668.16	0.657
668.35	0.657
668.54	0.652
668.73	0.654
668.92	0.655
669.11	0.655
669.30	0.648
669.49	0.644
669.67	0.646
669.86	0.648
670.05	0.645
670.24	0.642
670.43	0.640
670.62	0.638
670.81	0.632
671.00	0.634
671.18	0.634
671.37	0.633
671.56	0.630
671.75	0.629
671.94	0.626
672.13	0.624
672.32	0.620
672.50	0.619
672.69	0.619
672.88	0.620
673.07	0.615
673.26	0.617
673.45	0.619
673.63	0.619
673.82	0.616
674.01	0.617
674.20	0.617
674.39	0.617
674.58	0.615
674.76	0.615
674.95	0.614
675.14	0.613
675.33	0.608
675.52	0.607
675.71	0.607
675.89	0.606
676.08	0.602
676.27	0.602
676.46	0.603
676.65	0.603
676.84	0.602
677.02	0.604
677.21	0.606
677.40	0.605
677.59	0.602
677.78	0.603
677.96	0.606
678.15	0.605
678.34	0.603
678.53	0.603
678.72	0.603
678.90	0.600
679.09	0.595
679.28	0.593
679.47	0.593
679.66	0.593
679.84	0.590
680.03	0.587
680.22	0.587
680.41	0.589
680.60	0.585
680.78	0.584
680.97	0.587
681.16	0.588
681.35	0.585
681.53	0.584
681.72	0.586
681.91	0.588
682.10	0.585
682.29	0.588
682.47	0.586
682.66	0.585
682.85	0.583
683.04	0.581
683.22	0.581
683.41	0.583
683.60	0.582
683.79	0.583
683.97	0.583
684.16	0.581
684.35	0.577
684.54	0.579
684.72	0.580
684.91	0.580
685.10	0.578
685.29	0.579
685.47	0.576
685.66	0.575
685.85	0.571
686.04	0.571
686.22	0.574
686.41	0.576
686.60	0.573
686.79	0.576
686.97	0.577
687.16	0.579
687.35	0.575
687.54	0.579
687.72	0.584
687.91	0.584
688.10	0.584
688.29	0.584
688.47	0.582
688.66	0.582
688.85	0.578
689.03	0.576
689.22	0.581
689.41	0.582
689.60	0.577
689.78	0.573
689.97	0.574
690.16	0.571
690.34	0.567
690.53	0.566
690.72	0.567
690.91	0.565
691.09	0.562
691.28	0.556
691.47	0.554
691.65	0.553
691.84	0.551
692.03	0.550
692.21	0.549
692.40	0.549
692.59	0.546
692.77	0.545
692.96	0.547
693.15	0.548
693.34	0.545
693.52	0.546
693.71	0.546
693.90	0.547
694.08	0.547
694.27	0.548
694.46	0.558
694.64	0.559
694.83	0.558
695.02	0.556
695.20	0.556
695.39	0.556
695.58	0.556
695.76	0.557
695.95	0.556
696.14	0.556
696.32	0.553
696.51	0.543
696.70	0.543
696.88	0.544
697.07	0.542
697.26	0.544
697.44	0.546
697.63	0.544
697.81	0.541
698.00	0.541
698.19	0.541
698.37	0.541
698.56	0.541
698.75	0.541
698.93	0.541
699.12	0.541
699.31	0.539
699.49	0.538
699.68	0.539
699.87	0.542
700.05	0.541
700.24	0.540
700.42	0.542
700.61	0.541
700.80	0.538
700.98	0.539
701.17	0.540
701.36	0.539
701.54	0.538
701.73	0.539
701.91	0.537
702.10	0.537
702.29	0.535
702.47	0.534
702.66	0.536
702.84	0.537
703.03	0.536
703.22	0.537
703.40	0.538
703.59	0.540
703.77	0.539
703.96	0.539
704.15	0.540
704.33	0.540
704.52	0.539
704.70	0.538
704.89	0.539
705.08	0.537
705.26	0.532
705.45	0.533
705.63	0.533
705.82	0.529
706.00	0.527
706.19	0.526
706.38	0.526
706.56	0.526
706.75	0.524
706.93	0.522
707.12	0.524
707.30	0.524
707.49	0.521
707.68	0.518
707.86	0.518
708.05	0.518
708.23	0.515
708.42	0.516
708.60	0.519
708.79	0.519
708.98	0.517
709.16	0.517
709.35	0.519
709.53	0.523
709.72	0.521
709.90	0.523
710.09	0.526
710.27	0.528
710.46	0.530
710.64	0.529
710.83	0.532
711.02	0.533
711.20	0.531
711.39	0.530
711.57	0.528
711.76	0.528
711.94	0.525
712.13	0.526
712.31	0.526
712.50	0.521
712.68	0.518
712.87	0.519
713.05	0.519
713.24	0.519
713.42	0.518
713.61	0.519
713.79	0.521
713.98	0.521
714.16	0.521
714.35	0.521
714.54	0.522
714.72	0.522
714.91	0.519
715.09	0.525
715.28	0.529
715.46	0.529
715.65	0.526
715.83	0.525
716.02	0.529
716.20	0.526
716.39	0.525
716.57	0.526
716.76	0.530
716.94	0.530
717.12	0.522
717.31	0.523
717.49	0.526
717.68	0.528
717.86	0.527
718.05	0.528
718.23	0.531
718.42	0.534
718.60	0.534
718.79	0.541
718.97	0.545
719.16	0.546
719.34	0.543
719.53	0.543
719.71	0.544
719.90	0.546
720.08	0.541
720.27	0.542
720.45	0.543
720.63	0.541
720.82	0.534
721.00	0.536
721.19	0.541
721.37	0.540
721.56	0.540
721.74	0.543
721.93	0.553
722.11	0.559
722.30	0.556
722.48	0.560
722.66	0.562
722.85	0.562
723.03	0.562
723.22	0.560
723.40	0.564
723.59	0.564
723.77	0.567
723.95	0.560
724.14	0.565
724.32	0.566
724.51	0.564
724.69	0.566
724.88	0.568
725.06	0.565
725.24	0.565
725.43	0.566
725.61	0.570
725.80	0.562
725.98	0.559
726.16	0.554
726.35	0.561
726.53	0.560
726.72	0.557
726.90	0.567
727.09	0.569
727.27	0.574
727.45	0.570
727.64	0.579
727.82	0.590
728.01	0.594
728.19	0.591
728.37	0.596
728.56	0.602
728.74	0.609
728.92	0.595
729.11	0.598
729.29	0.599
729.48	0.601
729.66	0.590
729.84	0.590
730.03	0.595
730.21	0.597
730.40	0.587
730.58	0.588
730.76	0.590
730.95	0.593
731.13	0.591
731.31	0.604
731.50	0.615
731.68	0.618
731.86	0.613
732.05	0.627
732.23	0.631
732.42	0.636
732.60	0.637
732.78	0.641
732.97	0.662
733.15	0.670
733.33	0.657
733.52	0.663
733.70	0.677
733.88	0.686
734.07	0.669
734.25	0.697
734.43	0.706
734.62	0.709
734.80	0.701
734.98	0.690
735.17	0.700
735.35	0.708
735.53	0.696
735.72	0.699
735.90	0.725
736.08	0.747
736.27	0.719
736.45	0.729
736.63	0.746
736.82	0.757
737.00	0.756
737.18	0.766
737.37	0.801
737.55	0.827
737.73	0.818
737.92	0.821
738.10	0.823
738.28	0.847
738.46	0.831
738.65	0.846
738.83	0.875
739.01	0.935
739.20	0.921
739.38	0.903
739.56	0.898
739.75	0.906
739.93	0.860
740.11	0.886
740.29	0.889
740.48	0.897
740.66	0.866
740.84	0.858
741.03	0.822
741.21	0.832
741.39	0.809
741.57	0.825
741.76	0.844
741.94	0.856
742.12	0.812
742.31	0.815
742.49	0.842
742.67	0.868
742.85	0.882
743.04	0.886
743.22	0.902
743.40	0.957
743.58	0.931
743.77	0.951
743.95	0.995
744.13	1.054
744.31	1.025
744.50	1.017
744.68	1.032
744.86	0.999
745.04	1.008
745.23	1.083
745.41	1.078
745.59	1.091
745.77	1.036
745.96	1.015
746.14	1.039
746.32	1.044
746.50	1.029
746.69	1.000
746.87	1.023
747.05	1.008
747.23	0.916
747.42	0.898
747.60	0.931
747.78	0.944
747.96	0.979
748.14	0.923
748.33	0.958
748.51	0.950
748.69	0.938
748.87	0.975
749.06	0.980
749.24	0.988
749.42	0.964
749.60	0.942
749.78	0.953
749.97	0.903
750.15	0.895
750.33	0.898
750.51	0.936
750.69	0.945
750.88	0.939
751.06	0.948
751.24	0.982
751.42	0.968
751.60	0.951
751.79	1.042
751.97	1.103
752.15	1.101
752.33	1.050
752.51	1.130
752.69	1.157
752.88	1.113
753.06	1.162
753.24	1.127
753.42	1.187
753.60	1.437
753.78	1.202
753.97	1.217
754.15	1.253
754.33	1.291
754.51	1.115
754.69	1.096
754.87	1.146
755.06	1.053
755.24	1.047
755.42	1.056
755.60	0.947
755.78	0.960
755.96	0.896
756.15	0.898
756.33	0.910
756.51	0.928
756.69	0.906
756.87	0.866
757.05	0.893
757.23	0.872
757.42	0.826
757.60	0.823
757.78	0.814
757.96	0.811
758.14	0.788
758.32	0.771
758.50	0.792
758.69	0.790
758.87	0.777
759.05	0.782
759.23	0.799
759.41	0.804
759.59	0.794
759.77	0.821
759.95	0.856
760.13	0.911
760.32	0.910
760.50	0.900
760.68	0.937
760.86	0.939
761.04	0.901
761.22	0.905
761.40	0.961
761.58	0.960
761.76	0.918
761.95	0.897
762.13	0.849
762.31	0.846
762.49	0.809
762.67	0.827
762.85	0.847
763.03	0.839
763.21	0.815
763.39	0.796
763.57	0.805
763.75	0.799
763.94	0.781
764.12	0.781
764.30	0.811
764.48	0.813
764.66	0.771
764.84	0.768
765.02	0.813
765.20	0.824
765.38	0.802
765.56	0.807
765.74	0.858
765.92	0.861
766.10	0.868
766.28	0.863
766.46	0.903
766.65	0.905
766.83	0.886
767.01	0.869
767.19	0.879
767.37	0.878
767.55	0.855
767.73	0.831
767.91	0.837
768.09	0.824
768.27	0.803
768.45	0.792
768.63	0.798
768.81	0.802
768.99	0.770
769.17	0.795
769.35	0.813
769.53	0.814
769.71	0.790
769.89	0.800
770.07	0.812
770.25	0.792
770.43	0.765
770.61	0.792
770.79	0.804
770.97	0.815
771.15	0.781
771.33	0.784
771.51	0.792
771.69	0.804
771.87	0.811
772.05	0.817
772.24	0.836
772.42	0.846
772.60	0.817
772.78	0.882
772.96	0.918
773.14	0.908
773.32	0.877
773.49	0.883
773.67	0.883
773.85	0.857
774.03	0.840
774.21	0.874
774.39	0.891
774.57	0.920
774.75	0.834
774.93	0.832
775.11	0.861
775.29	0.870
775.47	0.868
775.65	0.878
775.83	0.901
776.01	0.926
776.19	0.867
776.37	0.870
776.55	0.872
776.73	0.866
776.91	0.851
777.09	0.836
777.27	0.837
777.45	0.822
777.63	0.798
777.81	0.796
777.99	0.787
778.17	0.786
778.35	0.759
778.53	0.747
778.71	0.759
778.89	0.748
779.07	0.734
779.24	0.742
779.42	0.745
779.60	0.764
779.78	0.756
779.96	0.761
780.14	0.775
780.32	0.799
780.50	0.777
780.68	0.775
780.86	0.768
781.04	0.787
781.22	0.788
781.40	0.801
781.58	0.794
781.75	0.787
781.93	0.765
782.11	0.763
782.29	0.749
782.47	0.750
782.65	0.736
782.83	0.769
783.01	0.765
783.19	0.757
783.37	0.741
783.55	0.744
783.72	0.766
783.90	0.777
784.08	0.763
784.26	0.777
784.44	0.798
784.62	0.797
784.80	0.757
784.98	0.764
785.16	0.769
785.33	0.783
785.51	0.764
785.69	0.750
785.87	0.752
786.05	0.766
786.23	0.757
786.41	0.754
786.59	0.766
786.77	0.767
786.94	0.750
787.12	0.755
787.30	0.759
787.48	0.754
787.66	0.741
787.84	0.739
788.02	0.729
788.19	0.727
788.37	0.711
788.55	0.712
788.73	0.713
788.91	0.705
789.09	0.685
789.27	0.675
789.44	0.691
789.62	0.695
789.80	0.703
789.98	0.733
790.16	0.718
790.34	0.713
790.51	0.697
790.69	0.719
790.87	0.729
791.05	0.725
791.23	0.716
791.41	0.718
791.58	0.729
791.76	0.705
791.94	0.670
792.12	0.680
792.30	0.685
792.48	0.681
792.65	0.670
792.83	0.678
793.01	0.690
793.19	0.687
793.37	0.667
793.54	0.663
793.72	0.677
793.90	0.675
794.08	0.664
794.26	0.665
794.43	0.678
794.61	0.663
794.79	0.650
794.97	0.649
795.15	0.656
795.32	0.663
795.50	0.650
795.68	0.645
795.86	0.652
796.04	0.655
796.21	0.647
796.39	0.646
796.57	0.663
796.75	0.671
796.92	0.669
797.10	0.674
797.28	0.677
797.46	0.682
797.64	0.683
797.81	0.690
797.99	0.697
798.17	0.702
798.35	0.693
798.52	0.696
798.70	0.692
798.88	0.702
799.06	0.699
799.23	0.702
799.41	0.713
799.59	0.703
799.77	0.688
799.94	0.697
800.12	0.710
800.30	0.730
800.48	0.726
800.65	0.729
800.83	0.721
801.01	0.711
801.19	0.709
801.36	0.704
801.54	0.712
801.72	0.724
801.90	0.707
802.07	0.700
802.25	0.686
802.43	0.667
802.60	0.660
802.78	0.665
802.96	0.674
803.14	0.666
803.31	0.660
803.49	0.662
803.67	0.659
803.84	0.662
804.02	0.652
804.20	0.654
804.38	0.664
804.55	0.662
804.73	0.644
804.91	0.644
805.08	0.659
805.26	0.656
805.44	0.713
805.61	0.716
805.79	0.718
805.97	0.717
806.15	0.707
806.32	0.699
806.50	0.709
806.68	0.711
806.85	0.699
807.03	0.693
807.21	0.712
807.38	0.647
807.56	0.635
807.74	0.647
807.91	0.657
808.09	0.661
808.27	0.681
808.44	0.706
808.62	0.719
808.80	0.722
808.97	0.711
809.15	0.706
809.33	0.728
809.50	0.735
809.68	0.716
809.86	0.726
810.03	0.763
810.21	0.739
810.39	0.719
810.56	0.724
810.74	0.751
810.91	0.834
811.09	0.819
811.27	0.842
811.44	0.851
811.62	0.854
811.80	0.830
811.97	0.793
812.15	0.796
812.33	0.791
812.50	0.772
812.68	0.760
812.85	0.701
813.03	0.703
813.21	0.669
813.38	0.664
813.56	0.668
813.74	0.681
813.91	0.687
814.09	0.721
814.26	0.715
814.44	0.720
814.62	0.707
814.79	0.710
814.97	0.717
815.14	0.720
815.32	0.721
815.50	0.740
815.67	0.744
815.85	0.733
816.02	0.716
816.20	0.724
816.38	0.744
816.55	0.749
816.73	0.748
816.90	0.758
817.08	0.795
817.26	0.801
817.43	0.776
817.61	0.801
817.78	0.831
817.96	0.810
818.13	0.795
818.31	0.793
818.49	0.812
818.66	0.799
818.84	0.782
819.01	0.758
819.19	0.770
819.36	0.773
819.54	0.739
819.71	0.782
819.89	0.801
820.07	0.813
820.24	0.805
820.42	0.805
820.59	0.832
820.77	0.856
820.94	0.842
821.12	0.860
821.29	0.882
821.47	0.880
821.64	0.802
821.82	0.815
822.00	0.819
822.17	0.814
822.35	0.803
822.52	0.807
822.70	0.797
822.87	0.808
823.05	0.783
823.22	0.797
823.40	0.838
823.57	0.870
823.75	0.843
823.92	0.871
824.10	0.901
824.27	0.950
824.45	0.932
824.62	1.018
824.80	1.041
824.97	1.062
825.15	1.039
825.32	1.057
825.50	1.071
825.67	1.090
825.85	1.054
826.02	1.084
826.20	1.124
826.37	1.321
826.55	1.176
826.72	1.533
826.90	1.768
827.07	2.003
827.25	1.709
827.42	2.651
827.60	-0.000
827.77	-0.000
827.95	-0.000
828.12	-0.000
828.30	-0.000
828.47	-0.000
828.65	1.722
828.82	1.980
829.00	-0.000
829.17	-0.000
829.34	-0.000
829.52	-0.000
829.69	-0.000
829.87	-0.000
830.04	-0.000
830.22	-0.000
830.39	-0.000
830.57	-0.000
830.74	-0.000
830.92	-0.000
831.09	-0.000
831.26	-0.000
831.44	-0.000
831.61	-0.000
831.79	-0.000
831.96	-0.000
832.14	-0.000
832.31	-0.000
832.49	-0.000
832.66	-0.000
832.83	-0.000
833.01	-0.000
833.18	-0.000
833.36	-0.000
833.53	-0.000
833.70	-0.000
833.88	-0.000
834.05	-0.000
834.23	-0.000
834.40	-0.000
834.58	-0.000
834.75	-0.000
834.92	-0.000
835.10	-0.000
835.27	-0.000
835.45	-0.000
835.62	-0.000
835.79	-0.000
835.97	-0.000
836.14	-0.000
836.32	-0.000
836.49	-0.000
836.66	-0.000
836.84	-0.000
837.01	-0.000
837.18	-0.000
837.36	-0.000
837.53	-0.000
837.71	-0.000
837.88	-0.000
838.05	-0.000
838.23	-0.000
838.40	-0.000
838.58	-0.000
838.75	-0.000
838.92	-0.000
839.10	-0.000
839.27	-0.000
839.44	-0.000
839.62	-0.000
839.79	-0.000
839.96	-0.000
840.14	-0.000
840.31	-0.000
840.48	-0.000
840.66	-0.000
840.83	-0.000
841.01	-0.000
841.18	-0.000
841.35	-0.000
841.53	-0.000
841.70	-0.000
841.87	-0.000
842.05	-0.000
842.22	-0.000
842.39	-0.000
842.57	-0.000
842.74	-0.000
842.91	-0.000
843.09	-0.000
843.26	-0.000
843.43	-0.000
843.60	-0.000
843.78	-0.000
843.95	-0.000
844.12	-0.000
844.30	-0.000
844.47	-0.000
844.64	-0.000
844.82	-0.000
844.99	-0.000
845.16	-0.000
845.34	-0.000
845.51	-0.000
845.68	-0.000
845.85	-0.000
846.03	-0.000
846.20	-0.000
846.37	-0.000
846.55	-0.000
846.72	-0.000
846.89	-0.000
847.06	-0.000
847.24	-0.000
847.41	-0.000
847.58	-0.000
847.76	-0.000
847.93	-0.000
848.10	-0.000
848.27	-0.000
848.45	-0.000
848.62	-0.000
848.79	-0.000
848.97	-0.000
849.14	-0.000
849.31	-0.000
849.48	-0.000
849.66	-0.000
849.83	-0.000
850.00	-0.000
850.17	-0.000
850.35	-0.000
850.52	-0.000
850.69	-0.000
850.86	-0.000
851.04	-0.000
851.21	-0.000
851.38	-0.000
851.55	-0.000
851.72	-0.000
851.90	-0.000
852.07	-0.000
852.24	-0.000
852.41	-0.000
852.59	-0.000
852.76	-0.000
852.93	-0.000
853.10	-0.000
853.28	-0.000
853.45	-0.000
853.62	-0.000
853.79	-0.000
853.96	-0.000
854.14	-0.000
854.31	-0.000
854.48	-0.000
854.65	-0.000
854.82	-0.000
855.00	-0.000
855.17	-0.000
855.34	-0.000
855.51	-0.000
855.68	-0.000
855.86	-0.000
856.03	-0.000
856.20	-0.000
856.37	-0.000
856.54	-0.000
856.72	-0.000
856.89	-0.000
857.06	-0.000
857.23	-0.000
857.40	-0.000
857.57	-0.000
857.75	-0.000
857.92	-0.000
858.09	-0.000
858.26	-0.000
858.43	-0.000
858.60	-0.000
858.78	-0.000
858.95	-0.000
859.12	-0.000
859.29	-0.000
859.46	-0.000
859.63	-0.000
859.81	-0.000
859.98	-0.000
860.15	-0.000
860.32	-0.000
860.49	-0.000
860.66	-0.000
860.83	-0.000
861.01	-0.000
861.18	-0.000
861.35	-0.000
861.52	-0.000
861.69	-0.000
861.86	-0.000
862.03	-0.000
862.21	-0.000
862.38	-0.000
862.55	-0.000
862.72	-0.000
862.89	-0.000
863.06	-0.000
863.23	-0.000
863.40	-0.000
863.58	-0.000
863.75	-0.000
863.92	-0.000
864.09	-0.000
864.26	-0.000
864.43	-0.000
864.60	-0.000
864.77	-0.000
864.94	-0.000
865.11	-0.000
865.29	-0.000
865.46	-0.000
865.63	-0.000
865.80	-0.000
865.97	-0.000
866.14	-0.000
866.31	-0.000
866.48	-0.000
866.65	-0.000
866.82	-0.000
866.99	-0.000
867.16	-0.000
867.34	-0.000
867.51	-0.000
867.68	-0.000
867.85	-0.000
868.02	-0.000
868.19	-0.000
868.36	-0.000
868.53	-0.000
868.70	-0.000
868.87	-0.000
869.04	-0.000
869.21	-0.000
869.38	-0.000
869.55	-0.000
869.72	-0.000
869.89	-0.000
870.06	-0.000
870.24	-0.000
870.41	-0.000
870.58	-0.000
870.75	-0.000
870.92	-0.000
871.09	-0.000
871.26	-0.000
871.43	-0.000
871.60	-0.000
871.77	-0.000
871.94	-0.000
872.11	-0.000
872.28	-0.000
872.45	-0.000
872.62	-0.000
872.79	-0.000
872.96	-0.000
873.13	-0.000
873.30	-0.000
873.47	-0.000
873.64	-0.000
873.81	-0.000
873.98	-0.000
874.15	-0.000
874.32	-0.000
874.49	-0.000
874.66	-0.000
874.83	-0.000
875.00	-0.000
875.17	-0.000
875.34	-0.000
875.51	-0.000
875.68	-0.000
875.85	-0.000
876.02	-0.000
876.19	-0.000
876.36	-0.000
876.53	-0.000
876.70	-0.000
876.87	-0.000
877.04	-0.000
877.21	-0.000
877.38	-0.000
877.55	-0.000
877.72	-0.000
877.89	-0.000
878.06	-0.000
878.23	-0.000
878.39	-0.000
878.56	-0.000
878.73	-0.000
878.90	-0.000
879.07	-0.000
879.24	-0.000
879.41	-0.000
879.58	-0.000
879.75	-0.000
879.92	-0.000
880.09	-0.000
880.26	-0.000
880.43	-0.000
880.60	-0.000
880.77	-0.000
880.94	-0.000
881.11	-0.000
881.27	-0.000
881.44	-0.000
881.61	-0.000
881.78	-0.000
881.95	-0.000
882.12	-0.000
882.29	-0.000
882.46	-0.000
882.63	-0.000
882.80	-0.000
882.97	-0.000
883.14	-0.000
883.30	-0.000
883.47	-0.000
883.64	-0.000
883.81	-0.000
883.98	-0.000
884.15	-0.000
884.32	-0.000
884.49	-0.000
884.66	-0.000
884.82	-0.000
884.99	-0.000
885.16	-0.000
885.33	-0.000
885.50	-0.000
885.67	-0.000
885.84	-0.000
886.01	-0.000
886.17	-0.000
886.34	-0.000
886.51	-0.000
886.68	-0.000
886.85	-0.000
887.02	-0.000
887.19	-0.000
887.36	-0.000
887.52	-0.000
887.69	-0.000
887.86	-0.000
888.03	-0.000
888.20	-0.000
888.37	-0.000
888.54	-0.000
888.70	-0.000
888.87	-0.000
889.04	-0.000
889.21	-0.000
889.38	-0.000
889.55	-0.000
889.71	-0.000
889.88	-0.000
890.05	-0.000
890.22	-0.000
890.39	-0.000
>>>>>End Processed Spectral Data<<<<<
