SpectraSuite Data File
++++++++++++++++++++++++++++++++++++
Date: Fri Jun 19 15:27:23 CEST 2015
User: introlabs
Dark Spectrum Present: Yes
Reference Spectrum Present: Yes
Number of Sampled Component Spectra: 1
Spectrometers: USB4H08886
Integration Time (usec): 745692 (USB4H08886)
Spectra Averaged: 5 (USB4H08886)
Boxcar Smoothing: 5 (USB4H08886)
Correct for Electrical Dark: Yes (USB4H08886)
Strobe/Lamp Enabled: No (USB4H08886)
Correct for Detector Non-linearity: Yes (USB4H08886)
Correct for Stray Light: Yes (USB4H08886)
Number of Pixels in Processed Spectrum: 3648
>>>>>Begin Processed Spectral Data<<<<<
178.14	-0.000
178.36	-0.000
178.57	-0.000
178.79	-0.000
179.01	-0.000
179.22	-0.000
179.44	-0.000
179.65	-0.000
179.87	-0.000
180.08	-0.000
180.30	-0.000
180.52	-0.000
180.73	-0.000
180.95	-0.000
181.16	-0.000
181.38	-0.000
181.59	-0.000
181.81	-0.000
182.03	-0.000
182.24	-0.000
182.46	-0.000
182.67	-0.000
182.89	-0.000
183.10	-0.000
183.32	-0.000
183.54	-0.000
183.75	-0.000
183.97	-0.000
184.18	-0.000
184.40	-0.000
184.61	-0.000
184.83	-0.000
185.04	-0.000
185.26	-0.000
185.48	-0.000
185.69	-0.000
185.91	-0.000
186.12	-0.000
186.34	-0.000
186.55	-0.000
186.77	-0.000
186.98	-0.000
187.20	-0.000
187.42	-0.000
187.63	-0.000
187.85	-0.000
188.06	-0.000
188.28	-0.000
188.49	-0.000
188.71	-0.000
188.92	-0.000
189.14	-0.000
189.36	-0.000
189.57	-0.000
189.79	-0.000
190.00	-0.000
190.22	-0.000
190.43	-0.000
190.65	-0.000
190.86	-0.000
191.08	-0.000
191.29	-0.000
191.51	-0.000
191.72	-0.000
191.94	-0.000
192.16	-0.000
192.37	-0.000
192.59	-0.000
192.80	-0.000
193.02	-0.000
193.23	-0.000
193.45	-0.000
193.66	-0.000
193.88	-0.000
194.09	-0.000
194.31	-0.000
194.52	-0.000
194.74	-0.000
194.95	-0.000
195.17	-0.000
195.38	-0.000
195.60	-0.000
195.81	-0.000
196.03	-0.000
196.25	-0.000
196.46	-0.000
196.68	-0.000
196.89	-0.000
197.11	-0.000
197.32	-0.000
197.54	-0.000
197.75	-0.000
197.97	-0.000
198.18	-0.000
198.40	-0.000
198.61	-0.000
198.83	-0.000
199.04	-0.000
199.26	-0.000
199.47	-0.000
199.69	-0.000
199.90	-0.000
200.12	-0.000
200.33	-0.000
200.55	-0.000
200.76	-0.000
200.98	-0.000
201.19	-0.000
201.41	-0.000
201.62	-0.000
201.84	-0.000
202.05	-0.000
202.27	-0.000
202.48	-0.000
202.70	-0.000
202.91	-0.000
203.13	-0.000
203.34	-0.000
203.56	-0.000
203.77	-0.000
203.99	-0.000
204.20	-0.000
204.42	-0.000
204.63	-0.000
204.85	-0.000
205.06	-0.000
205.28	-0.000
205.49	-0.000
205.71	-0.000
205.92	-0.000
206.14	-0.000
206.35	-0.000
206.56	-0.000
206.78	-0.000
206.99	-0.000
207.21	-0.000
207.42	-0.000
207.64	-0.000
207.85	-0.000
208.07	-0.000
208.28	-0.000
208.50	-0.000
208.71	-0.000
208.93	-0.000
209.14	-0.000
209.36	-0.000
209.57	-0.000
209.79	-0.000
210.00	-0.000
210.22	-0.000
210.43	-0.000
210.64	-0.000
210.86	-0.000
211.07	-0.000
211.29	-0.000
211.50	-0.000
211.72	-0.000
211.93	-0.000
212.15	-0.000
212.36	-0.000
212.58	-0.000
212.79	-0.000
213.01	-0.000
213.22	-0.000
213.43	-0.000
213.65	-0.000
213.86	-0.000
214.08	-0.000
214.29	-0.000
214.51	-0.000
214.72	-0.000
214.94	-0.000
215.15	-0.000
215.36	-0.000
215.58	-0.000
215.79	-0.000
216.01	-0.000
216.22	-0.000
216.44	-0.000
216.65	-0.000
216.87	-0.000
217.08	-0.000
217.29	-0.000
217.51	-0.000
217.72	-0.000
217.94	-0.000
218.15	-0.000
218.37	-0.000
218.58	-0.000
218.80	-0.000
219.01	-0.000
219.22	-0.000
219.44	-0.000
219.65	-0.000
219.87	-0.000
220.08	-0.000
220.30	-0.000
220.51	-0.000
220.72	-0.000
220.94	-0.000
221.15	-0.000
221.37	-0.000
221.58	-0.000
221.79	-0.000
222.01	-0.000
222.22	-0.000
222.44	-0.000
222.65	-0.000
222.87	-0.000
223.08	-0.000
223.29	-0.000
223.51	-0.000
223.72	-0.000
223.94	-0.000
224.15	-0.000
224.36	-0.000
224.58	-0.000
224.79	-0.000
225.01	-0.000
225.22	-0.000
225.44	-0.000
225.65	-0.000
225.86	-0.000
226.08	-0.000
226.29	-0.000
226.51	-0.000
226.72	-0.000
226.93	-0.000
227.15	-0.000
227.36	-0.000
227.58	-0.000
227.79	-0.000
228.00	-0.000
228.22	-0.000
228.43	-0.000
228.65	-0.000
228.86	-0.000
229.07	-0.000
229.29	-0.000
229.50	-0.000
229.72	-0.000
229.93	-0.000
230.14	-0.000
230.36	-0.000
230.57	-0.000
230.78	-0.000
231.00	-0.000
231.21	-0.000
231.43	-0.000
231.64	-0.000
231.85	-0.000
232.07	-0.000
232.28	-0.000
232.50	-0.000
232.71	-0.000
232.92	-0.000
233.14	-0.000
233.35	-0.000
233.56	-0.000
233.78	-0.000
233.99	-0.000
234.21	-0.000
234.42	-0.000
234.63	-0.000
234.85	-0.000
235.06	-0.000
235.27	-0.000
235.49	-0.000
235.70	-0.000
235.91	-0.000
236.13	-0.000
236.34	-0.000
236.56	-0.000
236.77	-0.000
236.98	-0.000
237.20	-0.000
237.41	-0.000
237.62	-0.000
237.84	-0.000
238.05	-0.000
238.26	-0.000
238.48	-0.000
238.69	-0.000
238.91	-0.000
239.12	-0.000
239.33	-0.000
239.55	-0.000
239.76	-0.000
239.97	-0.000
240.19	-0.000
240.40	-0.000
240.61	-0.000
240.83	-0.000
241.04	-0.000
241.25	-0.000
241.47	-0.000
241.68	-0.000
241.89	-0.000
242.11	-0.000
242.32	-0.000
242.53	-0.000
242.75	-0.000
242.96	-0.000
243.17	-0.000
243.39	-0.000
243.60	-0.000
243.81	-0.000
244.03	-0.000
244.24	-0.000
244.45	-0.000
244.67	-0.000
244.88	-0.000
245.09	-0.000
245.31	-0.000
245.52	-0.000
245.73	-0.000
245.95	-0.000
246.16	-0.000
246.37	-0.000
246.59	-0.000
246.80	-0.000
247.01	-0.000
247.23	-0.000
247.44	-0.000
247.65	-0.000
247.87	-0.000
248.08	-0.000
248.29	-0.000
248.51	-0.000
248.72	-0.000
248.93	-0.000
249.15	-0.000
249.36	-0.000
249.57	-0.000
249.78	-0.000
250.00	-0.000
250.21	-0.000
250.42	-0.000
250.64	-0.000
250.85	-0.000
251.06	-0.000
251.28	-0.000
251.49	-0.000
251.70	-0.000
251.92	-0.000
252.13	-0.000
252.34	-0.000
252.55	-0.000
252.77	-0.000
252.98	-0.000
253.19	-0.000
253.41	-0.000
253.62	-0.000
253.83	-0.000
254.05	-0.000
254.26	-0.000
254.47	-0.000
254.68	-0.000
254.90	-0.000
255.11	-0.000
255.32	-0.000
255.54	-0.000
255.75	-0.000
255.96	-0.000
256.17	-0.000
256.39	-0.000
256.60	-0.000
256.81	-0.000
257.03	-0.000
257.24	-0.000
257.45	-0.000
257.66	-0.000
257.88	-0.000
258.09	-0.000
258.30	-0.000
258.51	-0.000
258.73	-0.000
258.94	-0.000
259.15	-0.000
259.37	-0.000
259.58	-0.000
259.79	-0.000
260.00	-0.000
260.22	-0.000
260.43	-0.000
260.64	-0.000
260.85	-0.000
261.07	-0.000
261.28	-0.000
261.49	-0.000
261.71	-0.000
261.92	-0.000
262.13	-0.000
262.34	-0.000
262.56	-0.000
262.77	-0.000
262.98	-0.000
263.19	-0.000
263.41	-0.000
263.62	-0.000
263.83	-0.000
264.04	-0.000
264.26	-0.000
264.47	-0.000
264.68	-0.000
264.89	-0.000
265.11	-0.000
265.32	-0.000
265.53	-0.000
265.74	-0.000
265.96	-0.000
266.17	-0.000
266.38	-0.000
266.59	-0.000
266.81	-0.000
267.02	-0.000
267.23	-0.000
267.44	-0.000
267.65	-0.000
267.87	-0.000
268.08	-0.000
268.29	-0.000
268.50	-0.000
268.72	-0.000
268.93	-0.000
269.14	-0.000
269.35	-0.000
269.57	-0.000
269.78	-0.000
269.99	-0.000
270.20	-0.000
270.41	-0.000
270.63	-0.000
270.84	-0.000
271.05	-0.000
271.26	-0.000
271.48	-0.000
271.69	-0.000
271.90	-0.000
272.11	-0.000
272.32	-0.000
272.54	-0.000
272.75	-0.000
272.96	-0.000
273.17	-0.000
273.39	-0.000
273.60	-0.000
273.81	-0.000
274.02	-0.000
274.23	-0.000
274.45	-0.000
274.66	-0.000
274.87	-0.000
275.08	-0.000
275.29	-0.000
275.51	-0.000
275.72	-0.000
275.93	-0.000
276.14	-0.000
276.35	-0.000
276.57	-0.000
276.78	-0.000
276.99	-0.000
277.20	-0.000
277.41	-0.000
277.63	-0.000
277.84	-0.000
278.05	-0.000
278.26	-0.000
278.47	-0.000
278.69	-0.000
278.90	-0.000
279.11	-0.000
279.32	-0.000
279.53	-0.000
279.74	-0.000
279.96	-0.000
280.17	-0.000
280.38	-0.000
280.59	-0.000
280.80	-0.000
281.02	-0.000
281.23	-0.000
281.44	-0.000
281.65	-0.000
281.86	-0.000
282.07	-0.000
282.29	-0.000
282.50	-0.000
282.71	-0.000
282.92	-0.000
283.13	-0.000
283.35	-0.000
283.56	-0.000
283.77	-0.000
283.98	-0.000
284.19	-0.000
284.40	-0.000
284.62	-0.000
284.83	-0.000
285.04	-0.000
285.25	-0.000
285.46	-0.000
285.67	-0.000
285.88	-0.000
286.10	-0.000
286.31	-0.000
286.52	-0.000
286.73	-0.000
286.94	-0.000
287.15	-0.000
287.37	-0.000
287.58	-0.000
287.79	-0.000
288.00	-0.000
288.21	-0.000
288.42	-0.000
288.63	-0.000
288.85	-0.000
289.06	-0.000
289.27	-0.000
289.48	-0.000
289.69	-0.000
289.90	-0.000
290.11	-0.000
290.33	-0.000
290.54	-0.000
290.75	-0.000
290.96	-0.000
291.17	-0.000
291.38	-0.000
291.59	-0.000
291.81	-0.000
292.02	-0.000
292.23	-0.000
292.44	-0.000
292.65	-0.000
292.86	-0.000
293.07	-0.000
293.28	-0.000
293.50	-0.000
293.71	-0.000
293.92	-0.000
294.13	-0.000
294.34	-0.000
294.55	-0.000
294.76	-0.000
294.97	-0.000
295.19	-0.000
295.40	-0.000
295.61	-0.000
295.82	-0.000
296.03	-0.000
296.24	-0.000
296.45	2.175
296.66	1.815
296.87	1.833
297.09	1.892
297.30	2.139
297.51	1.728
297.72	1.690
297.93	1.777
298.14	1.737
298.35	1.689
298.56	1.665
298.77	1.777
298.99	1.745
299.20	1.729
299.41	1.709
299.62	1.648
299.83	1.637
300.04	1.580
300.25	1.563
300.46	1.592
300.67	1.568
300.88	1.528
301.10	1.532
301.31	1.596
301.52	1.529
301.73	1.479
301.94	1.482
302.15	1.496
302.36	1.454
302.57	1.407
302.78	1.416
302.99	1.453
303.20	1.467
303.41	1.383
303.63	1.369
303.84	1.376
304.05	1.374
304.26	1.321
304.47	1.325
304.68	1.323
304.89	1.309
305.10	1.273
305.31	1.260
305.52	1.306
305.73	1.300
305.94	1.264
306.15	1.254
306.37	1.277
306.58	1.285
306.79	1.260
307.00	1.286
307.21	1.325
307.42	1.317
307.63	1.288
307.84	1.250
308.05	1.283
308.26	1.280
308.47	1.265
308.68	1.256
308.89	1.251
309.10	1.248
309.31	1.209
309.52	1.201
309.73	1.214
309.95	1.208
310.16	1.182
310.37	1.173
310.58	1.192
310.79	1.187
311.00	1.186
311.21	1.188
311.42	1.190
311.63	1.187
311.84	1.171
312.05	1.168
312.26	1.188
312.47	1.200
312.68	1.177
312.89	1.159
313.10	1.167
313.31	1.139
313.52	1.143
313.73	1.142
313.94	1.144
314.15	1.126
314.36	1.108
314.57	1.101
314.78	1.090
314.99	1.085
315.21	1.074
315.42	1.080
315.63	1.092
315.84	1.070
316.05	1.059
316.26	1.064
316.47	1.082
316.68	1.079
316.89	1.059
317.10	1.077
317.31	1.081
317.52	1.082
317.73	1.062
317.94	1.061
318.15	1.110
318.36	1.110
318.57	1.095
318.78	1.081
318.99	1.114
319.20	1.112
319.41	1.081
319.62	1.084
319.83	1.098
320.04	1.092
320.25	1.079
320.46	1.038
320.67	1.038
320.88	1.034
321.09	1.024
321.30	1.007
321.51	1.022
321.72	1.019
321.93	1.004
322.14	0.994
322.35	1.019
322.56	1.023
322.77	1.012
322.98	1.023
323.19	1.029
323.40	1.035
323.61	1.018
323.82	1.012
324.03	1.017
324.24	1.013
324.45	1.002
324.66	0.984
324.87	0.978
325.08	0.978
325.29	0.961
325.50	0.954
325.71	0.958
325.92	0.965
326.13	0.952
326.34	0.954
326.55	0.961
326.76	0.960
326.97	0.951
327.18	0.946
327.39	0.971
327.60	0.971
327.80	0.974
328.01	0.971
328.22	0.971
328.43	0.975
328.64	0.964
328.85	0.968
329.06	0.969
329.27	0.969
329.48	0.966
329.69	0.947
329.90	0.956
330.11	0.947
330.32	0.942
330.53	0.934
330.74	0.934
330.95	0.932
331.16	0.918
331.37	0.926
331.58	0.926
331.79	0.925
332.00	0.917
332.21	0.912
332.42	0.915
332.63	0.906
332.83	0.903
333.04	0.905
333.25	0.918
333.46	0.916
333.67	0.901
333.88	0.904
334.09	0.913
334.30	0.910
334.51	0.902
334.72	0.898
334.93	0.901
335.14	0.901
335.35	0.893
335.56	0.888
335.77	0.895
335.98	0.894
336.18	0.888
336.39	0.881
336.60	0.885
336.81	0.882
337.02	0.881
337.23	0.885
337.44	0.888
337.65	0.890
337.86	0.881
338.07	0.876
338.28	0.879
338.49	0.877
338.70	0.871
338.91	0.877
339.11	0.885
339.32	0.881
339.53	0.871
339.74	0.868
339.95	0.864
340.16	0.862
340.37	0.855
340.58	0.854
340.79	0.857
341.00	0.857
341.21	0.846
341.41	0.846
341.62	0.848
341.83	0.848
342.04	0.843
342.25	0.853
342.46	0.857
342.67	0.856
342.88	0.850
343.09	0.850
343.30	0.856
343.50	0.859
343.71	0.850
343.92	0.849
344.13	0.853
344.34	0.852
344.55	0.837
344.76	0.835
344.97	0.839
345.18	0.839
345.38	0.836
345.59	0.831
345.80	0.829
346.01	0.826
346.22	0.822
346.43	0.815
346.64	0.823
346.85	0.822
347.06	0.816
347.26	0.816
347.47	0.819
347.68	0.815
347.89	0.813
348.10	0.808
348.31	0.815
348.52	0.814
348.73	0.813
348.93	0.810
349.14	0.813
349.35	0.812
349.56	0.807
349.77	0.801
349.98	0.806
350.19	0.804
350.39	0.799
350.60	0.796
350.81	0.811
351.02	0.809
351.23	0.804
351.44	0.807
351.65	0.809
351.86	0.807
352.06	0.806
352.27	0.807
352.48	0.807
352.69	0.807
352.90	0.802
353.11	0.789
353.31	0.796
353.52	0.793
353.73	0.785
353.94	0.786
354.15	0.791
354.36	0.790
354.57	0.781
354.77	0.784
354.98	0.783
355.19	0.782
355.40	0.782
355.61	0.787
355.82	0.790
356.02	0.789
356.23	0.782
356.44	0.784
356.65	0.788
356.86	0.788
357.07	0.781
357.27	0.784
357.48	0.786
357.69	0.782
357.90	0.767
358.11	0.763
358.32	0.767
358.52	0.770
358.73	0.760
358.94	0.763
359.15	0.768
359.36	0.768
359.56	0.764
359.77	0.761
359.98	0.768
360.19	0.767
360.40	0.765
360.61	0.766
360.81	0.763
361.02	0.764
361.23	0.756
361.44	0.754
361.65	0.754
361.85	0.754
362.06	0.752
362.27	0.755
362.48	0.754
362.69	0.757
362.89	0.750
363.10	0.753
363.31	0.757
363.52	0.760
363.73	0.755
363.93	0.755
364.14	0.756
364.35	0.757
364.56	0.747
364.77	0.748
364.97	0.750
365.18	0.751
365.39	0.746
365.60	0.743
365.81	0.744
366.01	0.744
366.22	0.741
366.43	0.740
366.64	0.743
366.84	0.749
367.05	0.748
367.26	0.747
367.47	0.748
367.68	0.748
367.88	0.745
368.09	0.742
368.30	0.744
368.51	0.743
368.71	0.743
368.92	0.747
369.13	0.744
369.34	0.743
369.55	0.742
369.75	0.741
369.96	0.749
370.17	0.748
370.38	0.746
370.58	0.745
370.79	0.750
371.00	0.749
371.21	0.739
371.41	0.746
371.62	0.749
371.83	0.745
372.04	0.743
372.24	0.736
372.45	0.737
372.66	0.737
372.87	0.735
373.07	0.732
373.28	0.733
373.49	0.737
373.70	0.728
373.90	0.727
374.11	0.736
374.32	0.736
374.53	0.735
374.73	0.735
374.94	0.737
375.15	0.737
375.36	0.735
375.56	0.744
375.77	0.743
375.98	0.743
376.19	0.741
376.39	0.734
376.60	0.736
376.81	0.737
377.02	0.735
377.22	0.734
377.43	0.733
377.64	0.733
377.84	0.725
378.05	0.729
378.26	0.735
378.47	0.735
378.67	0.732
378.88	0.730
379.09	0.731
379.30	0.731
379.50	0.728
379.71	0.731
379.92	0.733
380.12	0.732
380.33	0.725
380.54	0.721
380.75	0.728
380.95	0.729
381.16	0.727
381.37	0.727
381.57	0.729
381.78	0.730
381.99	0.730
382.20	0.730
382.40	0.733
382.61	0.734
382.82	0.731
383.02	0.725
383.23	0.727
383.44	0.727
383.64	0.726
383.85	0.728
384.06	0.731
384.27	0.729
384.47	0.727
384.68	0.728
384.89	0.732
385.09	0.732
385.30	0.731
385.51	0.731
385.71	0.734
385.92	0.734
386.13	0.734
386.33	0.736
386.54	0.736
386.75	0.735
386.95	0.731
387.16	0.727
387.37	0.729
387.58	0.729
387.78	0.728
387.99	0.725
388.20	0.727
388.40	0.723
388.61	0.719
388.82	0.722
389.02	0.724
389.23	0.724
389.44	0.723
389.64	0.723
389.85	0.734
390.06	0.734
390.26	0.735
390.47	0.734
390.68	0.737
390.88	0.735
391.09	0.731
391.30	0.730
391.50	0.729
391.71	0.729
391.92	0.727
392.12	0.719
392.33	0.720
392.53	0.719
392.74	0.720
392.95	0.719
393.15	0.722
393.36	0.724
393.57	0.722
393.77	0.726
393.98	0.727
394.19	0.727
394.39	0.726
394.60	0.727
394.81	0.729
395.01	0.728
395.22	0.727
395.43	0.727
395.63	0.732
395.84	0.733
396.04	0.729
396.25	0.731
396.46	0.732
396.66	0.731
396.87	0.728
397.08	0.726
397.28	0.728
397.49	0.729
397.69	0.725
397.90	0.720
398.11	0.721
398.31	0.722
398.52	0.719
398.73	0.721
398.93	0.719
399.14	0.719
399.34	0.719
399.55	0.720
399.76	0.720
399.96	0.722
400.17	0.720
400.37	0.719
400.58	0.726
400.79	0.727
400.99	0.726
401.20	0.731
401.41	0.733
401.61	0.733
401.82	0.738
402.02	0.738
402.23	0.740
402.44	0.740
402.64	0.740
402.85	0.734
403.05	0.733
403.26	0.731
403.47	0.725
403.67	0.725
403.88	0.725
404.08	0.719
404.29	0.718
404.50	0.717
404.70	0.717
404.91	0.716
405.11	0.713
405.32	0.714
405.52	0.714
405.73	0.714
405.94	0.713
406.14	0.715
406.35	0.717
406.55	0.716
406.76	0.714
406.97	0.714
407.17	0.717
407.38	0.717
407.58	0.715
407.79	0.719
407.99	0.721
408.20	0.722
408.41	0.718
408.61	0.717
408.82	0.718
409.02	0.718
409.23	0.716
409.43	0.715
409.64	0.716
409.84	0.716
410.05	0.712
410.26	0.710
410.46	0.709
410.67	0.708
410.87	0.710
411.08	0.711
411.28	0.712
411.49	0.714
411.69	0.712
411.90	0.713
412.11	0.714
412.31	0.716
412.52	0.715
412.72	0.716
412.93	0.717
413.13	0.716
413.34	0.713
413.54	0.715
413.75	0.716
413.95	0.716
414.16	0.713
414.37	0.717
414.57	0.717
414.78	0.719
414.98	0.717
415.19	0.718
415.39	0.715
415.60	0.717
415.80	0.716
416.01	0.715
416.21	0.717
416.42	0.717
416.62	0.712
416.83	0.712
417.03	0.711
417.24	0.711
417.44	0.708
417.65	0.707
417.86	0.707
418.06	0.705
418.27	0.703
418.47	0.704
418.68	0.705
418.88	0.706
419.09	0.705
419.29	0.706
419.50	0.706
419.70	0.706
419.91	0.705
420.11	0.703
420.32	0.705
420.52	0.705
420.73	0.704
420.93	0.704
421.14	0.706
421.34	0.705
421.55	0.701
421.75	0.701
421.96	0.701
422.16	0.702
422.37	0.701
422.57	0.697
422.78	0.698
422.98	0.695
423.19	0.693
423.39	0.691
423.60	0.694
423.80	0.695
424.01	0.694
424.21	0.697
424.42	0.698
424.62	0.698
424.83	0.698
425.03	0.698
425.23	0.700
425.44	0.701
425.64	0.701
425.85	0.699
426.05	0.700
426.26	0.700
426.46	0.697
426.67	0.696
426.87	0.700
427.08	0.701
427.28	0.699
427.49	0.700
427.69	0.700
427.90	0.699
428.10	0.696
428.31	0.696
428.51	0.698
428.71	0.697
428.92	0.698
429.12	0.695
429.33	0.695
429.53	0.699
429.74	0.703
429.94	0.704
430.15	0.703
430.35	0.703
430.56	0.700
430.76	0.698
430.96	0.699
431.17	0.697
431.37	0.694
431.58	0.692
431.78	0.689
431.99	0.682
432.19	0.684
432.40	0.685
432.60	0.685
432.80	0.688
433.01	0.686
433.21	0.686
433.42	0.688
433.62	0.689
433.83	0.688
434.03	0.691
434.23	0.693
434.44	0.692
434.64	0.690
434.85	0.695
435.05	0.696
435.26	0.696
435.46	0.694
435.66	0.694
435.87	0.694
436.07	0.694
436.28	0.690
436.48	0.688
436.69	0.687
436.89	0.688
437.09	0.682
437.30	0.681
437.50	0.681
437.71	0.693
437.91	0.692
438.11	0.692
438.32	0.696
438.52	0.696
438.73	0.695
438.93	0.694
439.13	0.693
439.34	0.695
439.54	0.693
439.75	0.694
439.95	0.684
440.15	0.688
440.36	0.687
440.56	0.685
440.77	0.685
440.97	0.685
441.17	0.684
441.38	0.686
441.58	0.683
441.79	0.682
441.99	0.680
442.19	0.679
442.40	0.676
442.60	0.676
442.81	0.674
443.01	0.674
443.21	0.675
443.42	0.674
443.62	0.673
443.82	0.673
444.03	0.674
444.23	0.674
444.44	0.675
444.64	0.674
444.84	0.674
445.05	0.674
445.25	0.672
445.45	0.672
445.66	0.674
445.86	0.673
446.06	0.674
446.27	0.674
446.47	0.676
446.68	0.674
446.88	0.673
447.08	0.673
447.29	0.675
447.49	0.675
447.69	0.675
447.90	0.673
448.10	0.676
448.30	0.673
448.51	0.674
448.71	0.672
448.91	0.674
449.12	0.673
449.32	0.674
449.52	0.673
449.73	0.676
449.93	0.674
450.14	0.675
450.34	0.674
450.54	0.676
450.75	0.673
450.95	0.673
451.15	0.673
451.36	0.675
451.56	0.672
451.76	0.671
451.97	0.669
452.17	0.669
452.37	0.668
452.58	0.665
452.78	0.665
452.98	0.667
453.19	0.666
453.39	0.667
453.59	0.665
453.79	0.666
454.00	0.667
454.20	0.665
454.40	0.666
454.61	0.667
454.81	0.668
455.01	0.666
455.22	0.667
455.42	0.669
455.62	0.667
455.83	0.666
456.03	0.669
456.23	0.670
456.44	0.671
456.64	0.670
456.84	0.670
457.04	0.670
457.25	0.670
457.45	0.667
457.65	0.666
457.86	0.666
458.06	0.665
458.26	0.661
458.47	0.661
458.67	0.662
458.87	0.662
459.07	0.660
459.28	0.662
459.48	0.664
459.68	0.663
459.89	0.662
460.09	0.661
460.29	0.662
460.49	0.663
460.70	0.662
460.90	0.661
461.10	0.661
461.31	0.661
461.51	0.658
461.71	0.660
461.91	0.661
462.12	0.661
462.32	0.660
462.52	0.661
462.72	0.664
462.93	0.664
463.13	0.663
463.33	0.664
463.53	0.665
463.74	0.665
463.94	0.661
464.14	0.662
464.35	0.663
464.55	0.663
464.75	0.661
464.95	0.659
465.16	0.661
465.36	0.660
465.56	0.659
465.76	0.658
465.97	0.658
466.17	0.658
466.37	0.656
466.57	0.658
466.78	0.658
466.98	0.658
467.18	0.656
467.38	0.654
467.59	0.656
467.79	0.657
467.99	0.656
468.19	0.657
468.39	0.660
468.60	0.660
468.80	0.659
469.00	0.659
469.20	0.661
469.41	0.661
469.61	0.661
469.81	0.661
470.01	0.660
470.22	0.660
470.42	0.659
470.62	0.656
470.82	0.658
471.02	0.657
471.23	0.655
471.43	0.655
471.63	0.658
471.83	0.657
472.04	0.655
472.24	0.654
472.44	0.659
472.64	0.660
472.84	0.658
473.05	0.658
473.25	0.660
473.45	0.660
473.65	0.658
473.85	0.658
474.06	0.660
474.26	0.659
474.46	0.660
474.66	0.657
474.86	0.657
475.07	0.657
475.27	0.655
475.47	0.653
475.67	0.653
475.87	0.655
476.08	0.652
476.28	0.653
476.48	0.654
476.68	0.652
476.88	0.650
477.09	0.652
477.29	0.654
477.49	0.654
477.69	0.653
477.89	0.654
478.09	0.653
478.30	0.655
478.50	0.652
478.70	0.652
478.90	0.652
479.10	0.655
479.31	0.655
479.51	0.654
479.71	0.654
479.91	0.654
480.11	0.653
480.31	0.653
480.52	0.651
480.72	0.652
480.92	0.651
481.12	0.649
481.32	0.647
481.52	0.644
481.72	0.644
481.93	0.648
482.13	0.649
482.33	0.649
482.53	0.647
482.73	0.648
482.93	0.649
483.14	0.649
483.34	0.648
483.54	0.649
483.74	0.649
483.94	0.648
484.14	0.644
484.34	0.644
484.55	0.645
484.75	0.645
484.95	0.643
485.15	0.642
485.35	0.643
485.55	0.642
485.75	0.641
485.96	0.641
486.16	0.642
486.36	0.642
486.56	0.640
486.76	0.640
486.96	0.640
487.16	0.639
487.36	0.638
487.57	0.637
487.77	0.638
487.97	0.638
488.17	0.636
488.37	0.635
488.57	0.636
488.77	0.636
488.97	0.634
489.18	0.634
489.38	0.636
489.58	0.637
489.78	0.636
489.98	0.636
490.18	0.635
490.38	0.636
490.58	0.635
490.78	0.636
490.98	0.637
491.19	0.638
491.39	0.637
491.59	0.636
491.79	0.638
491.99	0.639
492.19	0.639
492.39	0.642
492.59	0.641
492.79	0.643
492.99	0.643
493.20	0.643
493.40	0.644
493.60	0.645
493.80	0.644
494.00	0.641
494.20	0.641
494.40	0.641
494.60	0.639
494.80	0.643
495.00	0.642
495.20	0.640
495.40	0.639
495.61	0.640
495.81	0.640
496.01	0.643
496.21	0.644
496.41	0.644
496.61	0.645
496.81	0.644
497.01	0.639
497.21	0.638
497.41	0.639
497.61	0.638
497.81	0.636
498.01	0.636
498.21	0.634
498.41	0.632
498.61	0.632
498.82	0.633
499.02	0.635
499.22	0.635
499.42	0.635
499.62	0.636
499.82	0.637
500.02	0.639
500.22	0.637
500.42	0.639
500.62	0.640
500.82	0.640
501.02	0.638
501.22	0.638
501.42	0.638
501.62	0.639
501.82	0.639
502.02	0.639
502.22	0.639
502.42	0.640
502.62	0.637
502.82	0.637
503.02	0.638
503.22	0.638
503.42	0.637
503.63	0.637
503.83	0.635
504.03	0.634
504.23	0.632
504.43	0.633
504.63	0.634
504.83	0.634
505.03	0.634
505.23	0.634
505.43	0.636
505.63	0.637
505.83	0.637
506.03	0.638
506.23	0.640
506.43	0.640
506.63	0.639
506.83	0.638
507.03	0.639
507.23	0.640
507.43	0.638
507.63	0.638
507.83	0.639
508.03	0.639
508.23	0.638
508.43	0.637
508.63	0.638
508.83	0.639
509.03	0.640
509.23	0.639
509.43	0.640
509.63	0.640
509.83	0.639
510.03	0.641
510.23	0.642
510.43	0.643
510.63	0.643
510.83	0.643
511.03	0.644
511.23	0.642
511.43	0.641
511.63	0.643
511.83	0.645
512.03	0.644
512.22	0.642
512.42	0.641
512.62	0.642
512.82	0.642
513.02	0.642
513.22	0.642
513.42	0.644
513.62	0.646
513.82	0.645
514.02	0.644
514.22	0.645
514.42	0.645
514.62	0.645
514.82	0.645
515.02	0.647
515.22	0.650
515.42	0.649
515.62	0.652
515.82	0.650
516.02	0.651
516.22	0.651
516.42	0.653
516.62	0.654
516.82	0.655
517.01	0.653
517.21	0.653
517.41	0.656
517.61	0.657
517.81	0.653
518.01	0.652
518.21	0.652
518.41	0.651
518.61	0.650
518.81	0.650
519.01	0.651
519.21	0.651
519.41	0.650
519.61	0.645
519.81	0.647
520.00	0.648
520.20	0.648
520.40	0.650
520.60	0.651
520.80	0.651
521.00	0.651
521.20	0.651
521.40	0.656
521.60	0.657
521.80	0.655
522.00	0.656
522.20	0.658
522.39	0.657
522.59	0.655
522.79	0.656
522.99	0.658
523.19	0.657
523.39	0.655
523.59	0.652
523.79	0.655
523.99	0.658
524.19	0.657
524.38	0.656
524.58	0.657
524.78	0.657
524.98	0.655
525.18	0.657
525.38	0.658
525.58	0.659
525.78	0.657
525.98	0.656
526.18	0.655
526.37	0.655
526.57	0.656
526.77	0.657
526.97	0.657
527.17	0.658
527.37	0.654
527.57	0.657
527.77	0.658
527.96	0.658
528.16	0.657
528.36	0.658
528.56	0.660
528.76	0.658
528.96	0.657
529.16	0.659
529.36	0.662
529.55	0.662
529.75	0.659
529.95	0.659
530.15	0.660
530.35	0.663
530.55	0.661
530.75	0.660
530.94	0.661
531.14	0.661
531.34	0.660
531.54	0.657
531.74	0.660
531.94	0.663
532.13	0.662
532.33	0.664
532.53	0.662
532.73	0.661
532.93	0.659
533.13	0.661
533.33	0.661
533.52	0.661
533.72	0.665
533.92	0.663
534.12	0.661
534.32	0.661
534.52	0.659
534.71	0.661
534.91	0.663
535.11	0.665
535.31	0.663
535.51	0.665
535.71	0.666
535.90	0.664
536.10	0.665
536.30	0.667
536.50	0.668
536.70	0.668
536.89	0.666
537.09	0.666
537.29	0.668
537.49	0.668
537.69	0.666
537.89	0.667
538.08	0.667
538.28	0.665
538.48	0.665
538.68	0.666
538.88	0.668
539.07	0.668
539.27	0.666
539.47	0.666
539.67	0.665
539.87	0.667
540.06	0.664
540.26	0.665
540.46	0.668
540.66	0.666
540.86	0.664
541.05	0.664
541.25	0.665
541.45	0.665
541.65	0.663
541.84	0.666
542.04	0.667
542.24	0.668
542.44	0.667
542.64	0.668
542.83	0.671
543.03	0.671
543.23	0.668
543.43	0.669
543.62	0.670
543.82	0.670
544.02	0.668
544.22	0.669
544.42	0.671
544.61	0.672
544.81	0.668
545.01	0.667
545.21	0.669
545.40	0.670
545.60	0.668
545.80	0.672
546.00	0.672
546.19	0.671
546.39	0.670
546.59	0.667
546.79	0.668
546.98	0.668
547.18	0.668
547.38	0.668
547.58	0.671
547.77	0.671
547.97	0.667
548.17	0.668
548.37	0.668
548.56	0.669
548.76	0.669
548.96	0.670
549.16	0.673
549.35	0.673
549.55	0.671
549.75	0.671
549.95	0.674
550.14	0.675
550.34	0.674
550.54	0.679
550.73	0.683
550.93	0.684
551.13	0.681
551.33	0.680
551.52	0.680
551.72	0.680
551.92	0.678
552.12	0.679
552.31	0.679
552.51	0.680
552.71	0.675
552.90	0.675
553.10	0.675
553.30	0.675
553.50	0.674
553.69	0.676
553.89	0.676
554.09	0.676
554.28	0.673
554.48	0.675
554.68	0.676
554.87	0.676
555.07	0.673
555.27	0.673
555.47	0.675
555.66	0.676
555.86	0.674
556.06	0.676
556.25	0.677
556.45	0.685
556.65	0.683
556.84	0.686
557.04	0.689
557.24	0.690
557.43	0.690
557.63	0.694
557.83	0.696
558.02	0.697
558.22	0.701
558.42	0.702
558.61	0.695
558.81	0.695
559.01	0.691
559.21	0.691
559.40	0.692
559.60	0.692
559.80	0.688
559.99	0.689
560.19	0.691
560.39	0.685
560.58	0.683
560.78	0.683
560.97	0.686
561.17	0.685
561.37	0.684
561.56	0.685
561.76	0.686
561.96	0.686
562.15	0.683
562.35	0.685
562.55	0.686
562.74	0.686
562.94	0.684
563.14	0.682
563.33	0.683
563.53	0.683
563.73	0.681
563.92	0.682
564.12	0.684
564.31	0.686
564.51	0.684
564.71	0.686
564.90	0.689
565.10	0.690
565.30	0.693
565.49	0.693
565.69	0.696
565.89	0.696
566.08	0.693
566.28	0.695
566.47	0.696
566.67	0.694
566.87	0.691
567.06	0.694
567.26	0.700
567.46	0.695
567.65	0.695
567.85	0.697
568.04	0.700
568.24	0.699
568.44	0.696
568.63	0.695
568.83	0.696
569.02	0.695
569.22	0.690
569.42	0.686
569.61	0.689
569.81	0.688
570.00	0.685
570.20	0.686
570.40	0.688
570.59	0.687
570.79	0.685
570.98	0.684
571.18	0.685
571.38	0.685
571.57	0.683
571.77	0.681
571.96	0.684
572.16	0.682
572.35	0.676
572.55	0.677
572.75	0.675
572.94	0.674
573.14	0.672
573.33	0.673
573.53	0.673
573.73	0.672
573.92	0.670
574.12	0.668
574.31	0.671
574.51	0.672
574.70	0.669
574.90	0.671
575.09	0.674
575.29	0.674
575.49	0.671
575.68	0.672
575.88	0.673
576.07	0.674
576.27	0.672
576.46	0.671
576.66	0.670
576.86	0.670
577.05	0.667
577.25	0.666
577.44	0.668
577.64	0.667
577.83	0.665
578.03	0.667
578.22	0.666
578.42	0.666
578.61	0.664
578.81	0.664
579.00	0.664
579.20	0.664
579.40	0.663
579.59	0.662
579.79	0.662
579.98	0.661
580.18	0.661
580.37	0.661
580.57	0.663
580.76	0.667
580.96	0.665
581.15	0.666
581.35	0.667
581.54	0.668
581.74	0.668
581.93	0.669
582.13	0.670
582.32	0.667
582.52	0.665
582.71	0.664
582.91	0.660
583.10	0.660
583.30	0.658
583.49	0.658
583.69	0.661
583.88	0.662
584.08	0.661
584.27	0.663
584.47	0.666
584.66	0.667
584.86	0.667
585.05	0.669
585.25	0.672
585.44	0.672
585.64	0.670
585.83	0.666
586.03	0.666
586.22	0.665
586.42	0.660
586.61	0.662
586.81	0.664
587.00	0.663
587.20	0.661
587.39	0.661
587.59	0.663
587.78	0.664
587.98	0.665
588.17	0.666
588.37	0.669
588.56	0.671
588.76	0.667
588.95	0.667
589.15	0.670
589.34	0.673
589.54	0.672
589.73	0.674
589.92	0.677
590.12	0.677
590.31	0.675
590.51	0.680
590.70	0.682
590.90	0.683
591.09	0.681
591.29	0.680
591.48	0.679
591.68	0.680
591.87	0.679
592.06	0.678
592.26	0.680
592.45	0.679
592.65	0.672
592.84	0.671
593.04	0.673
593.23	0.675
593.43	0.673
593.62	0.673
593.81	0.672
594.01	0.671
594.20	0.669
594.40	0.668
594.59	0.669
594.79	0.670
594.98	0.669
595.17	0.668
595.37	0.669
595.56	0.671
595.76	0.671
595.95	0.674
596.14	0.677
596.34	0.679
596.53	0.678
596.73	0.680
596.92	0.682
597.12	0.685
597.31	0.684
597.50	0.684
597.70	0.685
597.89	0.685
598.09	0.681
598.28	0.682
598.47	0.684
598.67	0.683
598.86	0.679
599.06	0.680
599.25	0.680
599.44	0.678
599.64	0.676
599.83	0.673
600.03	0.675
600.22	0.675
600.41	0.675
600.61	0.672
600.80	0.674
601.00	0.675
601.19	0.671
601.38	0.669
601.58	0.671
601.77	0.672
601.96	0.674
602.16	0.674
602.35	0.683
602.55	0.681
602.74	0.682
602.93	0.685
603.13	0.689
603.32	0.691
603.51	0.691
603.71	0.694
603.90	0.696
604.09	0.697
604.29	0.695
604.48	0.689
604.68	0.690
604.87	0.688
605.06	0.685
605.26	0.682
605.45	0.682
605.64	0.682
605.84	0.677
606.03	0.676
606.22	0.674
606.42	0.674
606.61	0.670
606.80	0.670
607.00	0.672
607.19	0.672
607.38	0.671
607.58	0.672
607.77	0.673
607.96	0.673
608.16	0.672
608.35	0.677
608.54	0.679
608.74	0.683
608.93	0.688
609.12	0.691
609.32	0.693
609.51	0.697
609.70	0.696
609.90	0.698
610.09	0.702
610.28	0.708
610.48	0.701
610.67	0.702
610.86	0.703
611.06	0.697
611.25	0.695
611.44	0.695
611.64	0.695
611.83	0.698
612.02	0.695
612.21	0.694
612.41	0.692
612.60	0.692
612.79	0.689
612.99	0.688
613.18	0.690
613.37	0.688
613.57	0.685
613.76	0.687
613.95	0.684
614.14	0.683
614.34	0.680
614.53	0.681
614.72	0.684
614.92	0.683
615.11	0.681
615.30	0.678
615.49	0.679
615.69	0.681
615.88	0.677
616.07	0.678
616.26	0.681
616.46	0.681
616.65	0.678
616.84	0.677
617.04	0.678
617.23	0.681
617.42	0.682
617.61	0.685
617.81	0.686
618.00	0.688
618.19	0.686
618.38	0.690
618.58	0.694
618.77	0.695
618.96	0.695
619.15	0.697
619.35	0.699
619.54	0.699
619.73	0.696
619.92	0.698
620.12	0.702
620.31	0.703
620.50	0.698
620.69	0.697
620.89	0.700
621.08	0.701
621.27	0.701
621.46	0.700
621.66	0.704
621.85	0.704
622.04	0.701
622.23	0.702
622.43	0.703
622.62	0.703
622.81	0.703
623.00	0.702
623.19	0.705
623.39	0.704
623.58	0.701
623.77	0.700
623.96	0.702
624.16	0.702
624.35	0.697
624.54	0.699
624.73	0.702
624.92	0.700
625.12	0.698
625.31	0.698
625.50	0.701
625.69	0.702
625.88	0.699
626.08	0.697
626.27	0.699
626.46	0.699
626.65	0.696
626.84	0.696
627.04	0.701
627.23	0.701
627.42	0.696
627.61	0.696
627.80	0.699
628.00	0.699
628.19	0.698
628.38	0.701
628.57	0.703
628.76	0.702
628.96	0.699
629.15	0.699
629.34	0.702
629.53	0.704
629.72	0.700
629.91	0.700
630.11	0.705
630.30	0.705
630.49	0.707
630.68	0.708
630.87	0.711
631.06	0.713
631.26	0.709
631.45	0.711
631.64	0.718
631.83	0.720
632.02	0.718
632.21	0.716
632.41	0.723
632.60	0.718
632.79	0.718
632.98	0.719
633.17	0.720
633.36	0.721
633.55	0.717
633.75	0.714
633.94	0.716
634.13	0.715
634.32	0.713
634.51	0.707
634.70	0.708
634.89	0.708
635.09	0.704
635.28	0.705
635.47	0.705
635.66	0.708
635.85	0.704
636.04	0.705
636.23	0.710
636.43	0.711
636.62	0.709
636.81	0.709
637.00	0.711
637.19	0.713
637.38	0.710
637.57	0.710
637.76	0.711
637.95	0.712
638.15	0.709
638.34	0.705
638.53	0.708
638.72	0.710
638.91	0.707
639.10	0.705
639.29	0.705
639.48	0.706
639.67	0.706
639.87	0.706
640.06	0.710
640.25	0.709
640.44	0.711
640.63	0.712
640.82	0.714
641.01	0.714
641.20	0.714
641.39	0.715
641.58	0.718
641.78	0.717
641.97	0.712
642.16	0.726
642.35	0.726
642.54	0.724
642.73	0.719
642.92	0.717
643.11	0.720
643.30	0.719
643.49	0.715
643.68	0.716
643.87	0.717
644.06	0.718
644.25	0.699
644.45	0.702
644.64	0.703
644.83	0.703
645.02	0.701
645.21	0.701
645.40	0.703
645.59	0.704
645.78	0.699
645.97	0.701
646.16	0.702
646.35	0.701
646.54	0.699
646.73	0.701
646.92	0.703
647.11	0.703
647.30	0.699
647.49	0.700
647.68	0.699
647.88	0.697
648.07	0.691
648.26	0.694
648.45	0.695
648.64	0.692
648.83	0.689
649.02	0.692
649.21	0.701
649.40	0.700
649.59	0.695
649.78	0.696
649.97	0.710
650.16	0.710
650.35	0.704
650.54	0.707
650.73	0.715
650.92	0.711
651.11	0.704
651.30	0.703
651.49	0.707
651.68	0.708
651.87	0.705
652.06	0.695
652.25	0.697
652.44	0.700
652.63	0.700
652.82	0.701
653.01	0.702
653.20	0.700
653.39	0.690
653.58	0.688
653.77	0.687
653.96	0.683
654.15	0.675
654.34	0.674
654.53	0.669
654.72	0.662
654.91	0.652
655.10	0.648
655.29	0.646
655.48	0.643
655.67	0.638
655.86	0.635
656.05	0.633
656.24	0.633
656.43	0.629
656.62	0.627
656.81	0.627
657.00	0.624
657.19	0.620
657.38	0.619
657.57	0.617
657.76	0.618
657.95	0.615
658.14	0.618
658.33	0.619
658.51	0.623
658.70	0.623
658.89	0.624
659.08	0.634
659.27	0.642
659.46	0.644
659.65	0.651
659.84	0.654
660.03	0.658
660.22	0.660
660.41	0.664
660.60	0.665
660.79	0.666
660.98	0.671
661.17	0.670
661.36	0.669
661.55	0.670
661.74	0.669
661.92	0.671
662.11	0.673
662.30	0.673
662.49	0.667
662.68	0.666
662.87	0.669
663.06	0.664
663.25	0.665
663.44	0.665
663.63	0.666
663.82	0.664
664.01	0.659
664.20	0.657
664.38	0.658
664.57	0.658
664.76	0.658
664.95	0.658
665.14	0.663
665.33	0.658
665.52	0.665
665.71	0.670
665.90	0.670
666.09	0.671
666.28	0.670
666.46	0.670
666.65	0.670
666.84	0.668
667.03	0.663
667.22	0.661
667.41	0.664
667.60	0.653
667.79	0.646
667.98	0.647
668.16	0.648
668.35	0.648
668.54	0.642
668.73	0.644
668.92	0.644
669.11	0.644
669.30	0.638
669.49	0.634
669.67	0.636
669.86	0.638
670.05	0.635
670.24	0.633
670.43	0.630
670.62	0.629
670.81	0.624
671.00	0.626
671.18	0.625
671.37	0.624
671.56	0.623
671.75	0.622
671.94	0.618
672.13	0.617
672.32	0.613
672.50	0.613
672.69	0.612
672.88	0.612
673.07	0.608
673.26	0.610
673.45	0.611
673.63	0.610
673.82	0.607
674.01	0.609
674.20	0.608
674.39	0.608
674.58	0.608
674.76	0.609
674.95	0.607
675.14	0.607
675.33	0.603
675.52	0.602
675.71	0.602
675.89	0.601
676.08	0.597
676.27	0.597
676.46	0.598
676.65	0.597
676.84	0.596
677.02	0.598
677.21	0.600
677.40	0.599
677.59	0.597
677.78	0.597
677.96	0.600
678.15	0.599
678.34	0.597
678.53	0.598
678.72	0.597
678.90	0.595
679.09	0.591
679.28	0.588
679.47	0.588
679.66	0.587
679.84	0.584
680.03	0.581
680.22	0.580
680.41	0.581
680.60	0.577
680.78	0.577
680.97	0.578
681.16	0.578
681.35	0.577
681.53	0.576
681.72	0.577
681.91	0.579
682.10	0.578
682.29	0.581
682.47	0.578
682.66	0.577
682.85	0.576
683.04	0.574
683.22	0.574
683.41	0.576
683.60	0.575
683.79	0.576
683.97	0.575
684.16	0.574
684.35	0.570
684.54	0.572
684.72	0.573
684.91	0.574
685.10	0.572
685.29	0.573
685.47	0.570
685.66	0.569
685.85	0.566
686.04	0.565
686.22	0.567
686.41	0.570
686.60	0.568
686.79	0.570
686.97	0.571
687.16	0.573
687.35	0.570
687.54	0.573
687.72	0.577
687.91	0.577
688.10	0.578
688.29	0.577
688.47	0.575
688.66	0.575
688.85	0.572
689.03	0.570
689.22	0.574
689.41	0.574
689.60	0.569
689.78	0.567
689.97	0.567
690.16	0.565
690.34	0.562
690.53	0.561
690.72	0.561
690.91	0.559
691.09	0.557
691.28	0.551
691.47	0.549
691.65	0.549
691.84	0.546
692.03	0.545
692.21	0.543
692.40	0.542
692.59	0.540
692.77	0.538
692.96	0.540
693.15	0.540
693.34	0.537
693.52	0.537
693.71	0.537
693.90	0.539
694.08	0.539
694.27	0.539
694.46	0.548
694.64	0.549
694.83	0.549
695.02	0.548
695.20	0.548
695.39	0.548
695.58	0.548
695.76	0.549
695.95	0.547
696.14	0.547
696.32	0.545
696.51	0.537
696.70	0.536
696.88	0.537
697.07	0.536
697.26	0.538
697.44	0.539
697.63	0.538
697.81	0.536
698.00	0.536
698.19	0.535
698.37	0.534
698.56	0.534
698.75	0.533
698.93	0.533
699.12	0.532
699.31	0.532
699.49	0.531
699.68	0.531
699.87	0.534
700.05	0.534
700.24	0.533
700.42	0.535
700.61	0.534
700.80	0.533
700.98	0.533
701.17	0.535
701.36	0.534
701.54	0.533
701.73	0.535
701.91	0.532
702.10	0.531
702.29	0.529
702.47	0.528
702.66	0.529
702.84	0.530
703.03	0.529
703.22	0.530
703.40	0.529
703.59	0.530
703.77	0.529
703.96	0.530
704.15	0.531
704.33	0.530
704.52	0.530
704.70	0.529
704.89	0.530
705.08	0.528
705.26	0.524
705.45	0.525
705.63	0.525
705.82	0.523
706.00	0.522
706.19	0.521
706.38	0.521
706.56	0.520
706.75	0.518
706.93	0.517
707.12	0.518
707.30	0.518
707.49	0.515
707.68	0.514
707.86	0.513
708.05	0.512
708.23	0.510
708.42	0.510
708.60	0.512
708.79	0.512
708.98	0.510
709.16	0.509
709.35	0.511
709.53	0.515
709.72	0.514
709.90	0.516
710.09	0.518
710.27	0.520
710.46	0.524
710.64	0.523
710.83	0.524
711.02	0.526
711.20	0.525
711.39	0.524
711.57	0.521
711.76	0.522
711.94	0.520
712.13	0.521
712.31	0.520
712.50	0.516
712.68	0.514
712.87	0.515
713.05	0.515
713.24	0.515
713.42	0.515
713.61	0.515
713.79	0.516
713.98	0.516
714.16	0.516
714.35	0.516
714.54	0.517
714.72	0.517
714.91	0.515
715.09	0.521
715.28	0.523
715.46	0.523
715.65	0.521
715.83	0.520
716.02	0.523
716.20	0.520
716.39	0.519
716.57	0.520
716.76	0.522
716.94	0.523
717.12	0.515
717.31	0.517
717.49	0.519
717.68	0.521
717.86	0.521
718.05	0.523
718.23	0.525
718.42	0.528
718.60	0.529
718.79	0.536
718.97	0.538
719.16	0.537
719.34	0.535
719.53	0.534
719.71	0.534
719.90	0.535
720.08	0.532
720.27	0.532
720.45	0.531
720.63	0.530
720.82	0.525
721.00	0.528
721.19	0.533
721.37	0.533
721.56	0.534
721.74	0.537
721.93	0.545
722.11	0.551
722.30	0.551
722.48	0.556
722.66	0.557
722.85	0.556
723.03	0.556
723.22	0.553
723.40	0.556
723.59	0.555
723.77	0.559
723.95	0.553
724.14	0.555
724.32	0.557
724.51	0.556
724.69	0.556
724.88	0.557
725.06	0.555
725.24	0.557
725.43	0.559
725.61	0.562
725.80	0.555
725.98	0.553
726.16	0.550
726.35	0.556
726.53	0.555
726.72	0.554
726.90	0.564
727.09	0.564
727.27	0.569
727.45	0.565
727.64	0.573
727.82	0.581
728.01	0.585
728.19	0.583
728.37	0.588
728.56	0.592
728.74	0.600
728.92	0.588
729.11	0.591
729.29	0.590
729.48	0.593
729.66	0.585
729.84	0.583
730.03	0.586
730.21	0.588
730.40	0.579
730.58	0.581
730.76	0.579
730.95	0.581
731.13	0.581
731.31	0.594
731.50	0.603
731.68	0.604
731.86	0.602
732.05	0.615
732.23	0.618
732.42	0.620
732.60	0.623
732.78	0.628
732.97	0.646
733.15	0.652
733.33	0.640
733.52	0.645
733.70	0.656
733.88	0.666
734.07	0.652
734.25	0.676
734.43	0.684
734.62	0.685
734.80	0.682
734.98	0.672
735.17	0.678
735.35	0.684
735.53	0.674
735.72	0.678
735.90	0.698
736.08	0.715
736.27	0.693
736.45	0.702
736.63	0.710
736.82	0.718
737.00	0.719
737.18	0.730
737.37	0.759
737.55	0.781
737.73	0.775
737.92	0.777
738.10	0.774
738.28	0.793
738.46	0.782
738.65	0.794
738.83	0.812
739.01	0.862
739.20	0.852
739.38	0.834
739.56	0.824
739.75	0.831
739.93	0.799
740.11	0.822
740.29	0.820
740.48	0.827
740.66	0.808
740.84	0.803
741.03	0.765
741.21	0.775
741.39	0.760
741.57	0.772
741.76	0.782
741.94	0.789
742.12	0.757
742.31	0.762
742.49	0.778
742.67	0.804
742.85	0.817
743.04	0.826
743.22	0.834
743.40	0.881
743.58	0.864
743.77	0.882
743.95	0.909
744.13	0.953
744.31	0.939
744.50	0.935
744.68	0.931
744.86	0.908
745.04	0.917
745.23	0.973
745.41	0.948
745.59	0.955
745.77	0.918
745.96	0.909
746.14	0.917
746.32	0.913
746.50	0.903
746.69	0.885
746.87	0.892
747.05	0.879
747.23	0.817
747.42	0.806
747.60	0.825
747.78	0.835
747.96	0.861
748.14	0.823
748.33	0.849
748.51	0.842
748.69	0.840
748.87	0.864
749.06	0.860
749.24	0.861
749.42	0.855
749.60	0.842
749.78	0.846
749.97	0.804
750.15	0.801
750.33	0.803
750.51	0.827
750.69	0.829
750.88	0.836
751.06	0.845
751.24	0.863
751.42	0.849
751.60	0.840
751.79	0.901
751.97	0.936
752.15	0.935
752.33	0.902
752.51	0.955
752.69	0.966
752.88	0.939
753.06	0.979
753.24	0.960
753.42	0.995
753.60	1.133
753.78	1.023
753.97	1.053
754.15	1.057
754.33	1.088
754.51	0.987
754.69	0.977
754.87	0.999
755.06	0.939
755.24	0.944
755.42	0.952
755.60	0.860
755.78	0.867
755.96	0.813
756.15	0.817
756.33	0.818
756.51	0.834
756.69	0.821
756.87	0.793
757.05	0.806
757.23	0.791
757.42	0.763
757.60	0.761
757.78	0.750
757.96	0.752
758.14	0.738
758.32	0.724
758.50	0.734
758.69	0.734
758.87	0.727
759.05	0.730
759.23	0.738
759.41	0.737
759.59	0.730
759.77	0.749
759.95	0.770
760.13	0.816
760.32	0.816
760.50	0.811
760.68	0.831
760.86	0.829
761.04	0.807
761.22	0.812
761.40	0.852
761.58	0.857
761.76	0.835
761.95	0.819
762.13	0.776
762.31	0.777
762.49	0.751
762.67	0.767
762.85	0.780
763.03	0.776
763.21	0.757
763.39	0.739
763.57	0.736
763.75	0.733
763.94	0.722
764.12	0.722
764.30	0.742
764.48	0.746
764.66	0.716
764.84	0.714
765.02	0.748
765.20	0.757
765.38	0.741
765.56	0.751
765.74	0.784
765.92	0.784
766.10	0.792
766.28	0.786
766.46	0.810
766.65	0.810
766.83	0.803
767.01	0.789
767.19	0.793
767.37	0.792
767.55	0.779
767.73	0.760
767.91	0.762
768.09	0.751
768.27	0.741
768.45	0.731
768.63	0.734
768.81	0.734
768.99	0.710
769.17	0.729
769.35	0.744
769.53	0.742
769.71	0.723
769.89	0.730
770.07	0.734
770.25	0.718
770.43	0.700
770.61	0.721
770.79	0.724
770.97	0.733
771.15	0.709
771.33	0.711
771.51	0.713
771.69	0.725
771.87	0.734
772.05	0.738
772.24	0.743
772.42	0.752
772.60	0.731
772.78	0.785
772.96	0.810
773.14	0.806
773.32	0.789
773.49	0.797
773.67	0.795
773.85	0.773
774.03	0.764
774.21	0.796
774.39	0.803
774.57	0.824
774.75	0.758
774.93	0.754
775.11	0.772
775.29	0.777
775.47	0.780
775.65	0.788
775.83	0.804
776.01	0.823
776.19	0.783
776.37	0.787
776.55	0.788
776.73	0.786
776.91	0.780
777.09	0.767
777.27	0.764
777.45	0.753
777.63	0.734
777.81	0.730
777.99	0.719
778.17	0.719
778.35	0.702
778.53	0.689
778.71	0.691
778.89	0.682
779.07	0.671
779.24	0.674
779.42	0.673
779.60	0.690
779.78	0.686
779.96	0.691
780.14	0.697
780.32	0.712
780.50	0.698
780.68	0.699
780.86	0.691
781.04	0.709
781.22	0.717
781.40	0.727
781.58	0.715
781.75	0.709
781.93	0.695
782.11	0.693
782.29	0.679
782.47	0.678
782.65	0.667
782.83	0.690
783.01	0.683
783.19	0.676
783.37	0.663
783.55	0.666
783.72	0.683
783.90	0.691
784.08	0.684
784.26	0.697
784.44	0.714
784.62	0.718
784.80	0.690
784.98	0.695
785.16	0.699
785.33	0.714
785.51	0.704
785.69	0.692
785.87	0.690
786.05	0.702
786.23	0.701
786.41	0.698
786.59	0.702
786.77	0.701
786.94	0.690
787.12	0.692
787.30	0.691
787.48	0.687
787.66	0.677
787.84	0.678
788.02	0.669
788.19	0.664
788.37	0.653
788.55	0.654
788.73	0.653
788.91	0.648
789.09	0.635
789.27	0.624
789.44	0.634
789.62	0.639
789.80	0.647
789.98	0.668
790.16	0.656
790.34	0.653
790.51	0.642
790.69	0.659
790.87	0.664
791.05	0.663
791.23	0.660
791.41	0.660
791.58	0.666
791.76	0.646
791.94	0.621
792.12	0.629
792.30	0.631
792.48	0.631
792.65	0.626
792.83	0.631
793.01	0.637
793.19	0.636
793.37	0.625
793.54	0.621
793.72	0.631
793.90	0.630
794.08	0.622
794.26	0.623
794.43	0.629
794.61	0.615
794.79	0.606
794.97	0.605
795.15	0.607
795.32	0.610
795.50	0.602
795.68	0.596
795.86	0.598
796.04	0.598
796.21	0.593
796.39	0.591
796.57	0.604
796.75	0.610
796.92	0.612
797.10	0.616
797.28	0.616
797.46	0.619
797.64	0.621
797.81	0.628
797.99	0.632
798.17	0.638
798.35	0.633
798.52	0.633
798.70	0.628
798.88	0.634
799.06	0.635
799.23	0.637
799.41	0.642
799.59	0.637
799.77	0.628
799.94	0.633
800.12	0.640
800.30	0.657
800.48	0.658
800.65	0.659
800.83	0.650
801.01	0.642
801.19	0.645
801.36	0.642
801.54	0.643
801.72	0.651
801.90	0.641
802.07	0.638
802.25	0.623
802.43	0.607
802.60	0.604
802.78	0.611
802.96	0.613
803.14	0.609
803.31	0.608
803.49	0.610
803.67	0.605
803.84	0.608
804.02	0.601
804.20	0.603
804.38	0.607
804.55	0.606
804.73	0.594
804.91	0.595
805.08	0.603
805.26	0.600
805.44	0.661
805.61	0.666
805.79	0.665
805.97	0.665
806.15	0.660
806.32	0.656
806.50	0.662
806.68	0.663
806.85	0.656
807.03	0.648
807.21	0.663
807.38	0.599
807.56	0.589
807.74	0.599
807.91	0.603
808.09	0.605
808.27	0.624
808.44	0.646
808.62	0.655
808.80	0.657
808.97	0.652
809.15	0.648
809.33	0.662
809.50	0.670
809.68	0.658
809.86	0.666
810.03	0.694
810.21	0.673
810.39	0.659
810.56	0.662
810.74	0.681
810.91	0.751
811.09	0.739
811.27	0.757
811.44	0.761
811.62	0.762
811.80	0.749
811.97	0.721
812.15	0.721
812.33	0.716
812.50	0.702
812.68	0.693
812.85	0.640
813.03	0.644
813.21	0.616
813.38	0.612
813.56	0.615
813.74	0.623
813.91	0.631
814.09	0.659
814.26	0.653
814.44	0.658
814.62	0.648
814.79	0.650
814.97	0.652
815.14	0.656
815.32	0.661
815.50	0.675
815.67	0.676
815.85	0.668
816.02	0.659
816.20	0.664
816.38	0.674
816.55	0.679
816.73	0.680
816.90	0.688
817.08	0.714
817.26	0.715
817.43	0.697
817.61	0.719
817.78	0.734
817.96	0.714
818.13	0.706
818.31	0.708
818.49	0.719
818.66	0.710
818.84	0.701
819.01	0.682
819.19	0.685
819.36	0.688
819.54	0.662
819.71	0.699
819.89	0.711
820.07	0.721
820.24	0.719
820.42	0.720
820.59	0.736
820.77	0.757
820.94	0.751
821.12	0.770
821.29	0.782
821.47	0.785
821.64	0.731
821.82	0.742
822.00	0.739
822.17	0.736
822.35	0.730
822.52	0.732
822.70	0.719
822.87	0.729
823.05	0.711
823.22	0.720
823.40	0.742
823.57	0.762
823.75	0.745
823.92	0.768
824.10	0.783
824.27	0.821
824.45	0.811
824.62	0.867
824.80	0.878
824.97	0.887
825.15	0.883
825.32	0.895
825.50	0.896
825.67	0.906
825.85	0.889
826.02	0.901
826.20	0.920
826.37	1.033
826.55	0.966
826.72	1.120
826.90	1.174
827.07	1.215
827.25	1.166
827.42	1.287
827.60	1.390
827.77	1.516
827.95	1.532
828.12	1.603
828.30	1.315
828.47	1.403
828.65	1.149
828.82	1.196
829.00	1.259
829.17	1.349
829.34	1.350
829.52	1.394
829.69	-0.000
829.87	-0.000
830.04	-0.000
830.22	-0.000
830.39	-0.000
830.57	-0.000
830.74	-0.000
830.92	-0.000
831.09	-0.000
831.26	-0.000
831.44	-0.000
831.61	-0.000
831.79	-0.000
831.96	-0.000
832.14	-0.000
832.31	-0.000
832.49	-0.000
832.66	-0.000
832.83	-0.000
833.01	-0.000
833.18	-0.000
833.36	-0.000
833.53	-0.000
833.70	-0.000
833.88	-0.000
834.05	-0.000
834.23	-0.000
834.40	-0.000
834.58	-0.000
834.75	-0.000
834.92	-0.000
835.10	-0.000
835.27	-0.000
835.45	-0.000
835.62	-0.000
835.79	-0.000
835.97	-0.000
836.14	-0.000
836.32	-0.000
836.49	-0.000
836.66	-0.000
836.84	-0.000
837.01	-0.000
837.18	-0.000
837.36	-0.000
837.53	-0.000
837.71	-0.000
837.88	-0.000
838.05	-0.000
838.23	-0.000
838.40	-0.000
838.58	-0.000
838.75	-0.000
838.92	-0.000
839.10	-0.000
839.27	-0.000
839.44	-0.000
839.62	-0.000
839.79	-0.000
839.96	-0.000
840.14	-0.000
840.31	-0.000
840.48	-0.000
840.66	-0.000
840.83	-0.000
841.01	-0.000
841.18	-0.000
841.35	-0.000
841.53	-0.000
841.70	-0.000
841.87	-0.000
842.05	-0.000
842.22	-0.000
842.39	-0.000
842.57	-0.000
842.74	-0.000
842.91	-0.000
843.09	-0.000
843.26	-0.000
843.43	-0.000
843.60	-0.000
843.78	-0.000
843.95	-0.000
844.12	-0.000
844.30	-0.000
844.47	-0.000
844.64	-0.000
844.82	-0.000
844.99	-0.000
845.16	-0.000
845.34	-0.000
845.51	-0.000
845.68	-0.000
845.85	-0.000
846.03	-0.000
846.20	-0.000
846.37	-0.000
846.55	-0.000
846.72	-0.000
846.89	-0.000
847.06	-0.000
847.24	-0.000
847.41	-0.000
847.58	-0.000
847.76	-0.000
847.93	-0.000
848.10	-0.000
848.27	-0.000
848.45	-0.000
848.62	-0.000
848.79	-0.000
848.97	-0.000
849.14	-0.000
849.31	-0.000
849.48	-0.000
849.66	-0.000
849.83	-0.000
850.00	-0.000
850.17	-0.000
850.35	-0.000
850.52	-0.000
850.69	-0.000
850.86	-0.000
851.04	-0.000
851.21	-0.000
851.38	-0.000
851.55	-0.000
851.72	-0.000
851.90	-0.000
852.07	-0.000
852.24	-0.000
852.41	-0.000
852.59	-0.000
852.76	-0.000
852.93	-0.000
853.10	-0.000
853.28	-0.000
853.45	-0.000
853.62	-0.000
853.79	-0.000
853.96	-0.000
854.14	-0.000
854.31	-0.000
854.48	-0.000
854.65	-0.000
854.82	-0.000
855.00	-0.000
855.17	-0.000
855.34	-0.000
855.51	-0.000
855.68	-0.000
855.86	-0.000
856.03	-0.000
856.20	-0.000
856.37	-0.000
856.54	-0.000
856.72	-0.000
856.89	-0.000
857.06	-0.000
857.23	-0.000
857.40	-0.000
857.57	-0.000
857.75	-0.000
857.92	-0.000
858.09	-0.000
858.26	-0.000
858.43	-0.000
858.60	-0.000
858.78	-0.000
858.95	-0.000
859.12	-0.000
859.29	-0.000
859.46	-0.000
859.63	-0.000
859.81	-0.000
859.98	-0.000
860.15	-0.000
860.32	-0.000
860.49	-0.000
860.66	-0.000
860.83	-0.000
861.01	-0.000
861.18	-0.000
861.35	-0.000
861.52	-0.000
861.69	-0.000
861.86	-0.000
862.03	-0.000
862.21	-0.000
862.38	-0.000
862.55	-0.000
862.72	-0.000
862.89	-0.000
863.06	-0.000
863.23	-0.000
863.40	-0.000
863.58	-0.000
863.75	-0.000
863.92	-0.000
864.09	-0.000
864.26	-0.000
864.43	-0.000
864.60	-0.000
864.77	-0.000
864.94	-0.000
865.11	-0.000
865.29	-0.000
865.46	-0.000
865.63	-0.000
865.80	-0.000
865.97	-0.000
866.14	-0.000
866.31	-0.000
866.48	-0.000
866.65	-0.000
866.82	-0.000
866.99	-0.000
867.16	-0.000
867.34	-0.000
867.51	-0.000
867.68	-0.000
867.85	-0.000
868.02	-0.000
868.19	-0.000
868.36	-0.000
868.53	-0.000
868.70	-0.000
868.87	-0.000
869.04	-0.000
869.21	-0.000
869.38	-0.000
869.55	-0.000
869.72	-0.000
869.89	-0.000
870.06	-0.000
870.24	-0.000
870.41	-0.000
870.58	-0.000
870.75	-0.000
870.92	-0.000
871.09	-0.000
871.26	-0.000
871.43	-0.000
871.60	-0.000
871.77	-0.000
871.94	-0.000
872.11	-0.000
872.28	-0.000
872.45	-0.000
872.62	-0.000
872.79	-0.000
872.96	-0.000
873.13	-0.000
873.30	-0.000
873.47	-0.000
873.64	-0.000
873.81	-0.000
873.98	-0.000
874.15	-0.000
874.32	-0.000
874.49	-0.000
874.66	-0.000
874.83	-0.000
875.00	-0.000
875.17	-0.000
875.34	-0.000
875.51	-0.000
875.68	-0.000
875.85	-0.000
876.02	-0.000
876.19	-0.000
876.36	-0.000
876.53	-0.000
876.70	-0.000
876.87	-0.000
877.04	-0.000
877.21	-0.000
877.38	-0.000
877.55	-0.000
877.72	-0.000
877.89	-0.000
878.06	-0.000
878.23	-0.000
878.39	-0.000
878.56	-0.000
878.73	-0.000
878.90	-0.000
879.07	-0.000
879.24	-0.000
879.41	-0.000
879.58	-0.000
879.75	-0.000
879.92	-0.000
880.09	-0.000
880.26	-0.000
880.43	-0.000
880.60	-0.000
880.77	-0.000
880.94	-0.000
881.11	-0.000
881.27	-0.000
881.44	-0.000
881.61	-0.000
881.78	-0.000
881.95	-0.000
882.12	-0.000
882.29	-0.000
882.46	-0.000
882.63	-0.000
882.80	-0.000
882.97	-0.000
883.14	-0.000
883.30	-0.000
883.47	-0.000
883.64	-0.000
883.81	-0.000
883.98	-0.000
884.15	-0.000
884.32	-0.000
884.49	-0.000
884.66	-0.000
884.82	-0.000
884.99	-0.000
885.16	-0.000
885.33	-0.000
885.50	-0.000
885.67	-0.000
885.84	-0.000
886.01	-0.000
886.17	-0.000
886.34	-0.000
886.51	-0.000
886.68	-0.000
886.85	-0.000
887.02	-0.000
887.19	-0.000
887.36	-0.000
887.52	-0.000
887.69	-0.000
887.86	-0.000
888.03	-0.000
888.20	-0.000
888.37	-0.000
888.54	-0.000
888.70	-0.000
888.87	-0.000
889.04	-0.000
889.21	-0.000
889.38	-0.000
889.55	-0.000
889.71	-0.000
889.88	-0.000
890.05	-0.000
890.22	-0.000
890.39	-0.000
>>>>>End Processed Spectral Data<<<<<
