SpectraSuite Data File
++++++++++++++++++++++++++++++++++++
Date: Fri Jun 19 14:38:18 CEST 2015
User: introlabs
Dark Spectrum Present: Yes
Reference Spectrum Present: Yes
Number of Sampled Component Spectra: 1
Spectrometers: USB4H08886
Integration Time (usec): 745692 (USB4H08886)
Spectra Averaged: 5 (USB4H08886)
Boxcar Smoothing: 5 (USB4H08886)
Correct for Electrical Dark: Yes (USB4H08886)
Strobe/Lamp Enabled: No (USB4H08886)
Correct for Detector Non-linearity: Yes (USB4H08886)
Correct for Stray Light: Yes (USB4H08886)
Number of Pixels in Processed Spectrum: 3648
>>>>>Begin Processed Spectral Data<<<<<
178.14	-0.000
178.36	-0.000
178.57	-0.000
178.79	-0.000
179.01	-0.000
179.22	-0.000
179.44	-0.000
179.65	-0.000
179.87	-0.000
180.08	-0.000
180.30	-0.000
180.52	-0.000
180.73	-0.000
180.95	-0.000
181.16	-0.000
181.38	-0.000
181.59	-0.000
181.81	-0.000
182.03	-0.000
182.24	-0.000
182.46	-0.000
182.67	-0.000
182.89	-0.000
183.10	-0.000
183.32	-0.000
183.54	-0.000
183.75	-0.000
183.97	-0.000
184.18	-0.000
184.40	-0.000
184.61	-0.000
184.83	-0.000
185.04	-0.000
185.26	-0.000
185.48	-0.000
185.69	-0.000
185.91	-0.000
186.12	-0.000
186.34	-0.000
186.55	-0.000
186.77	-0.000
186.98	-0.000
187.20	-0.000
187.42	-0.000
187.63	-0.000
187.85	-0.000
188.06	-0.000
188.28	-0.000
188.49	-0.000
188.71	-0.000
188.92	-0.000
189.14	-0.000
189.36	-0.000
189.57	-0.000
189.79	-0.000
190.00	-0.000
190.22	-0.000
190.43	-0.000
190.65	-0.000
190.86	-0.000
191.08	-0.000
191.29	-0.000
191.51	-0.000
191.72	-0.000
191.94	-0.000
192.16	-0.000
192.37	-0.000
192.59	-0.000
192.80	-0.000
193.02	-0.000
193.23	-0.000
193.45	-0.000
193.66	-0.000
193.88	-0.000
194.09	-0.000
194.31	-0.000
194.52	-0.000
194.74	-0.000
194.95	-0.000
195.17	-0.000
195.38	-0.000
195.60	-0.000
195.81	-0.000
196.03	-0.000
196.25	-0.000
196.46	-0.000
196.68	-0.000
196.89	-0.000
197.11	-0.000
197.32	-0.000
197.54	-0.000
197.75	-0.000
197.97	-0.000
198.18	-0.000
198.40	-0.000
198.61	-0.000
198.83	-0.000
199.04	-0.000
199.26	-0.000
199.47	-0.000
199.69	-0.000
199.90	-0.000
200.12	-0.000
200.33	-0.000
200.55	-0.000
200.76	-0.000
200.98	-0.000
201.19	-0.000
201.41	-0.000
201.62	-0.000
201.84	-0.000
202.05	-0.000
202.27	-0.000
202.48	-0.000
202.70	-0.000
202.91	-0.000
203.13	-0.000
203.34	-0.000
203.56	-0.000
203.77	-0.000
203.99	-0.000
204.20	-0.000
204.42	-0.000
204.63	-0.000
204.85	-0.000
205.06	-0.000
205.28	-0.000
205.49	-0.000
205.71	-0.000
205.92	-0.000
206.14	-0.000
206.35	-0.000
206.56	-0.000
206.78	-0.000
206.99	-0.000
207.21	-0.000
207.42	-0.000
207.64	-0.000
207.85	-0.000
208.07	-0.000
208.28	-0.000
208.50	-0.000
208.71	-0.000
208.93	-0.000
209.14	-0.000
209.36	-0.000
209.57	-0.000
209.79	-0.000
210.00	-0.000
210.22	-0.000
210.43	-0.000
210.64	-0.000
210.86	-0.000
211.07	-0.000
211.29	-0.000
211.50	-0.000
211.72	-0.000
211.93	-0.000
212.15	-0.000
212.36	-0.000
212.58	-0.000
212.79	-0.000
213.01	-0.000
213.22	-0.000
213.43	-0.000
213.65	-0.000
213.86	-0.000
214.08	-0.000
214.29	-0.000
214.51	-0.000
214.72	-0.000
214.94	-0.000
215.15	-0.000
215.36	-0.000
215.58	-0.000
215.79	-0.000
216.01	-0.000
216.22	-0.000
216.44	-0.000
216.65	-0.000
216.87	-0.000
217.08	-0.000
217.29	-0.000
217.51	-0.000
217.72	-0.000
217.94	-0.000
218.15	-0.000
218.37	-0.000
218.58	-0.000
218.80	-0.000
219.01	-0.000
219.22	-0.000
219.44	-0.000
219.65	-0.000
219.87	-0.000
220.08	-0.000
220.30	-0.000
220.51	-0.000
220.72	-0.000
220.94	-0.000
221.15	-0.000
221.37	-0.000
221.58	-0.000
221.79	-0.000
222.01	-0.000
222.22	-0.000
222.44	-0.000
222.65	-0.000
222.87	-0.000
223.08	-0.000
223.29	-0.000
223.51	-0.000
223.72	-0.000
223.94	-0.000
224.15	-0.000
224.36	-0.000
224.58	-0.000
224.79	-0.000
225.01	-0.000
225.22	-0.000
225.44	-0.000
225.65	-0.000
225.86	-0.000
226.08	-0.000
226.29	-0.000
226.51	-0.000
226.72	-0.000
226.93	-0.000
227.15	-0.000
227.36	-0.000
227.58	-0.000
227.79	-0.000
228.00	-0.000
228.22	-0.000
228.43	-0.000
228.65	-0.000
228.86	-0.000
229.07	-0.000
229.29	-0.000
229.50	-0.000
229.72	-0.000
229.93	-0.000
230.14	-0.000
230.36	-0.000
230.57	-0.000
230.78	-0.000
231.00	-0.000
231.21	-0.000
231.43	-0.000
231.64	-0.000
231.85	-0.000
232.07	-0.000
232.28	-0.000
232.50	-0.000
232.71	-0.000
232.92	-0.000
233.14	-0.000
233.35	-0.000
233.56	-0.000
233.78	-0.000
233.99	-0.000
234.21	-0.000
234.42	-0.000
234.63	-0.000
234.85	-0.000
235.06	-0.000
235.27	-0.000
235.49	-0.000
235.70	-0.000
235.91	-0.000
236.13	-0.000
236.34	-0.000
236.56	-0.000
236.77	-0.000
236.98	-0.000
237.20	-0.000
237.41	-0.000
237.62	-0.000
237.84	-0.000
238.05	-0.000
238.26	-0.000
238.48	-0.000
238.69	-0.000
238.91	-0.000
239.12	-0.000
239.33	-0.000
239.55	-0.000
239.76	-0.000
239.97	-0.000
240.19	-0.000
240.40	-0.000
240.61	-0.000
240.83	-0.000
241.04	-0.000
241.25	-0.000
241.47	-0.000
241.68	-0.000
241.89	-0.000
242.11	-0.000
242.32	-0.000
242.53	-0.000
242.75	-0.000
242.96	-0.000
243.17	-0.000
243.39	-0.000
243.60	-0.000
243.81	-0.000
244.03	-0.000
244.24	-0.000
244.45	-0.000
244.67	-0.000
244.88	-0.000
245.09	-0.000
245.31	-0.000
245.52	-0.000
245.73	-0.000
245.95	-0.000
246.16	-0.000
246.37	-0.000
246.59	-0.000
246.80	-0.000
247.01	-0.000
247.23	-0.000
247.44	-0.000
247.65	-0.000
247.87	-0.000
248.08	-0.000
248.29	-0.000
248.51	-0.000
248.72	-0.000
248.93	-0.000
249.15	-0.000
249.36	-0.000
249.57	-0.000
249.78	-0.000
250.00	-0.000
250.21	-0.000
250.42	-0.000
250.64	-0.000
250.85	-0.000
251.06	-0.000
251.28	-0.000
251.49	-0.000
251.70	-0.000
251.92	-0.000
252.13	-0.000
252.34	-0.000
252.55	-0.000
252.77	-0.000
252.98	-0.000
253.19	-0.000
253.41	-0.000
253.62	-0.000
253.83	-0.000
254.05	-0.000
254.26	-0.000
254.47	-0.000
254.68	-0.000
254.90	-0.000
255.11	-0.000
255.32	-0.000
255.54	-0.000
255.75	-0.000
255.96	-0.000
256.17	-0.000
256.39	-0.000
256.60	-0.000
256.81	-0.000
257.03	-0.000
257.24	-0.000
257.45	-0.000
257.66	-0.000
257.88	-0.000
258.09	-0.000
258.30	-0.000
258.51	-0.000
258.73	-0.000
258.94	-0.000
259.15	-0.000
259.37	-0.000
259.58	-0.000
259.79	-0.000
260.00	-0.000
260.22	-0.000
260.43	-0.000
260.64	-0.000
260.85	-0.000
261.07	-0.000
261.28	-0.000
261.49	-0.000
261.71	-0.000
261.92	-0.000
262.13	-0.000
262.34	-0.000
262.56	-0.000
262.77	-0.000
262.98	-0.000
263.19	-0.000
263.41	-0.000
263.62	-0.000
263.83	-0.000
264.04	-0.000
264.26	-0.000
264.47	-0.000
264.68	-0.000
264.89	-0.000
265.11	-0.000
265.32	-0.000
265.53	-0.000
265.74	-0.000
265.96	-0.000
266.17	-0.000
266.38	-0.000
266.59	-0.000
266.81	-0.000
267.02	-0.000
267.23	-0.000
267.44	-0.000
267.65	-0.000
267.87	-0.000
268.08	-0.000
268.29	-0.000
268.50	-0.000
268.72	-0.000
268.93	-0.000
269.14	-0.000
269.35	-0.000
269.57	-0.000
269.78	-0.000
269.99	-0.000
270.20	-0.000
270.41	-0.000
270.63	-0.000
270.84	-0.000
271.05	-0.000
271.26	-0.000
271.48	-0.000
271.69	-0.000
271.90	-0.000
272.11	-0.000
272.32	-0.000
272.54	-0.000
272.75	-0.000
272.96	-0.000
273.17	-0.000
273.39	-0.000
273.60	-0.000
273.81	-0.000
274.02	-0.000
274.23	-0.000
274.45	-0.000
274.66	-0.000
274.87	-0.000
275.08	-0.000
275.29	-0.000
275.51	-0.000
275.72	-0.000
275.93	-0.000
276.14	-0.000
276.35	-0.000
276.57	-0.000
276.78	-0.000
276.99	-0.000
277.20	-0.000
277.41	-0.000
277.63	-0.000
277.84	-0.000
278.05	-0.000
278.26	-0.000
278.47	-0.000
278.69	-0.000
278.90	-0.000
279.11	-0.000
279.32	-0.000
279.53	-0.000
279.74	-0.000
279.96	-0.000
280.17	-0.000
280.38	-0.000
280.59	-0.000
280.80	-0.000
281.02	-0.000
281.23	-0.000
281.44	-0.000
281.65	-0.000
281.86	-0.000
282.07	-0.000
282.29	-0.000
282.50	-0.000
282.71	-0.000
282.92	-0.000
283.13	-0.000
283.35	-0.000
283.56	-0.000
283.77	-0.000
283.98	-0.000
284.19	-0.000
284.40	-0.000
284.62	-0.000
284.83	-0.000
285.04	-0.000
285.25	-0.000
285.46	-0.000
285.67	-0.000
285.88	-0.000
286.10	-0.000
286.31	-0.000
286.52	-0.000
286.73	-0.000
286.94	-0.000
287.15	-0.000
287.37	-0.000
287.58	-0.000
287.79	-0.000
288.00	-0.000
288.21	-0.000
288.42	-0.000
288.63	-0.000
288.85	-0.000
289.06	-0.000
289.27	-0.000
289.48	-0.000
289.69	-0.000
289.90	-0.000
290.11	-0.000
290.33	-0.000
290.54	-0.000
290.75	-0.000
290.96	-0.000
291.17	-0.000
291.38	-0.000
291.59	-0.000
291.81	-0.000
292.02	-0.000
292.23	-0.000
292.44	-0.000
292.65	-0.000
292.86	-0.000
293.07	-0.000
293.28	-0.000
293.50	-0.000
293.71	-0.000
293.92	-0.000
294.13	-0.000
294.34	-0.000
294.55	-0.000
294.76	-0.000
294.97	-0.000
295.19	-0.000
295.40	-0.000
295.61	-0.000
295.82	-0.000
296.03	-0.000
296.24	-0.000
296.45	2.408
296.66	1.864
296.87	1.880
297.09	1.975
297.30	2.235
297.51	1.777
297.72	1.733
297.93	1.830
298.14	1.796
298.35	1.727
298.56	1.687
298.77	1.834
298.99	1.811
299.20	1.783
299.41	1.754
299.62	1.716
299.83	1.695
300.04	1.626
300.25	1.621
300.46	1.665
300.67	1.635
300.88	1.576
301.10	1.574
301.31	1.651
301.52	1.588
301.73	1.524
301.94	1.526
302.15	1.546
302.36	1.494
302.57	1.424
302.78	1.433
302.99	1.479
303.20	1.500
303.41	1.405
303.63	1.387
303.84	1.390
304.05	1.389
304.26	1.326
304.47	1.336
304.68	1.341
304.89	1.334
305.10	1.290
305.31	1.277
305.52	1.321
305.73	1.315
305.94	1.274
306.15	1.268
306.37	1.292
306.58	1.300
306.79	1.263
307.00	1.286
307.21	1.327
307.42	1.325
307.63	1.287
307.84	1.253
308.05	1.288
308.26	1.288
308.47	1.266
308.68	1.259
308.89	1.256
309.10	1.255
309.31	1.216
309.52	1.205
309.73	1.218
309.95	1.213
310.16	1.184
310.37	1.175
310.58	1.194
310.79	1.189
311.00	1.187
311.21	1.190
311.42	1.192
311.63	1.188
311.84	1.169
312.05	1.167
312.26	1.191
312.47	1.202
312.68	1.179
312.89	1.161
313.10	1.168
313.31	1.141
313.52	1.142
313.73	1.143
313.94	1.146
314.15	1.129
314.36	1.107
314.57	1.100
314.78	1.089
314.99	1.083
315.21	1.070
315.42	1.075
315.63	1.089
315.84	1.066
316.05	1.053
316.26	1.060
316.47	1.079
316.68	1.076
316.89	1.056
317.10	1.076
317.31	1.082
317.52	1.083
317.73	1.062
317.94	1.062
318.15	1.105
318.36	1.106
318.57	1.089
318.78	1.077
318.99	1.112
319.20	1.108
319.41	1.076
319.62	1.078
319.83	1.092
320.04	1.087
320.25	1.074
320.46	1.040
320.67	1.042
320.88	1.036
321.09	1.021
321.30	1.008
321.51	1.024
321.72	1.020
321.93	1.005
322.14	0.998
322.35	1.026
322.56	1.027
322.77	1.016
322.98	1.028
323.19	1.037
323.40	1.043
323.61	1.021
323.82	1.017
324.03	1.024
324.24	1.021
324.45	1.007
324.66	0.986
324.87	0.983
325.08	0.982
325.29	0.962
325.50	0.955
325.71	0.961
325.92	0.968
326.13	0.954
326.34	0.953
326.55	0.962
326.76	0.960
326.97	0.951
327.18	0.944
327.39	0.968
327.60	0.969
327.80	0.970
328.01	0.968
328.22	0.967
328.43	0.969
328.64	0.957
328.85	0.961
329.06	0.963
329.27	0.962
329.48	0.957
329.69	0.938
329.90	0.948
330.11	0.941
330.32	0.933
330.53	0.928
330.74	0.928
330.95	0.926
331.16	0.912
331.37	0.919
331.58	0.919
331.79	0.919
332.00	0.911
332.21	0.905
332.42	0.909
332.63	0.901
332.83	0.895
333.04	0.900
333.25	0.912
333.46	0.910
333.67	0.897
333.88	0.900
334.09	0.909
334.30	0.906
334.51	0.897
334.72	0.891
334.93	0.895
335.14	0.894
335.35	0.886
335.56	0.880
335.77	0.890
335.98	0.888
336.18	0.882
336.39	0.876
336.60	0.879
336.81	0.878
337.02	0.879
337.23	0.883
337.44	0.886
337.65	0.887
337.86	0.878
338.07	0.872
338.28	0.877
338.49	0.875
338.70	0.868
338.91	0.876
339.11	0.883
339.32	0.878
339.53	0.866
339.74	0.862
339.95	0.859
340.16	0.857
340.37	0.849
340.58	0.847
340.79	0.851
341.00	0.850
341.21	0.839
341.41	0.839
341.62	0.841
341.83	0.843
342.04	0.838
342.25	0.850
342.46	0.855
342.67	0.854
342.88	0.849
343.09	0.847
343.30	0.855
343.50	0.858
343.71	0.848
343.92	0.847
344.13	0.852
344.34	0.851
344.55	0.835
344.76	0.833
344.97	0.837
345.18	0.835
345.38	0.832
345.59	0.825
345.80	0.825
346.01	0.823
346.22	0.819
346.43	0.813
346.64	0.821
346.85	0.820
347.06	0.814
347.26	0.815
347.47	0.819
347.68	0.816
347.89	0.812
348.10	0.807
348.31	0.813
348.52	0.812
348.73	0.809
348.93	0.805
349.14	0.807
349.35	0.806
349.56	0.799
349.77	0.794
349.98	0.800
350.19	0.796
350.39	0.791
350.60	0.787
350.81	0.803
351.02	0.802
351.23	0.798
351.44	0.800
351.65	0.803
351.86	0.801
352.06	0.799
352.27	0.798
352.48	0.801
352.69	0.800
352.90	0.794
353.11	0.781
353.31	0.788
353.52	0.784
353.73	0.775
353.94	0.777
354.15	0.782
354.36	0.782
354.57	0.773
354.77	0.775
354.98	0.776
355.19	0.775
355.40	0.774
355.61	0.780
355.82	0.785
356.02	0.785
356.23	0.779
356.44	0.781
356.65	0.784
356.86	0.785
357.07	0.778
357.27	0.781
357.48	0.785
357.69	0.781
357.90	0.766
358.11	0.763
358.32	0.766
358.52	0.768
358.73	0.759
358.94	0.761
359.15	0.766
359.36	0.766
359.56	0.761
359.77	0.758
359.98	0.765
360.19	0.765
360.40	0.761
360.61	0.761
360.81	0.759
361.02	0.760
361.23	0.751
361.44	0.749
361.65	0.749
361.85	0.748
362.06	0.746
362.27	0.747
362.48	0.748
362.69	0.751
362.89	0.745
363.10	0.747
363.31	0.752
363.52	0.755
363.73	0.751
363.93	0.751
364.14	0.753
364.35	0.754
364.56	0.744
364.77	0.745
364.97	0.747
365.18	0.748
365.39	0.742
365.60	0.739
365.81	0.740
366.01	0.739
366.22	0.736
366.43	0.735
366.64	0.738
366.84	0.743
367.05	0.740
367.26	0.740
367.47	0.743
367.68	0.743
367.88	0.739
368.09	0.737
368.30	0.739
368.51	0.739
368.71	0.737
368.92	0.741
369.13	0.739
369.34	0.739
369.55	0.737
369.75	0.737
369.96	0.744
370.17	0.744
370.38	0.741
370.58	0.741
370.79	0.746
371.00	0.745
371.21	0.737
371.41	0.743
371.62	0.747
371.83	0.743
372.04	0.740
372.24	0.734
372.45	0.734
372.66	0.735
372.87	0.732
373.07	0.728
373.28	0.729
373.49	0.732
373.70	0.722
373.90	0.721
374.11	0.731
374.32	0.730
374.53	0.729
374.73	0.730
374.94	0.733
375.15	0.733
375.36	0.731
375.56	0.740
375.77	0.741
375.98	0.740
376.19	0.738
376.39	0.731
376.60	0.734
376.81	0.735
377.02	0.732
377.22	0.731
377.43	0.730
377.64	0.730
377.84	0.721
378.05	0.725
378.26	0.732
378.47	0.731
378.67	0.727
378.88	0.725
379.09	0.726
379.30	0.726
379.50	0.724
379.71	0.727
379.92	0.730
380.12	0.729
380.33	0.720
380.54	0.716
380.75	0.723
380.95	0.723
381.16	0.721
381.37	0.721
381.57	0.722
381.78	0.723
381.99	0.722
382.20	0.721
382.40	0.724
382.61	0.724
382.82	0.722
383.02	0.715
383.23	0.717
383.44	0.717
383.64	0.716
383.85	0.719
384.06	0.722
384.27	0.719
384.47	0.718
384.68	0.718
384.89	0.724
385.09	0.724
385.30	0.724
385.51	0.723
385.71	0.727
385.92	0.728
386.13	0.725
386.33	0.727
386.54	0.729
386.75	0.727
386.95	0.724
387.16	0.719
387.37	0.721
387.58	0.721
387.78	0.719
387.99	0.715
388.20	0.718
388.40	0.716
388.61	0.712
388.82	0.715
389.02	0.717
389.23	0.717
389.44	0.715
389.64	0.715
389.85	0.726
390.06	0.726
390.26	0.727
390.47	0.726
390.68	0.728
390.88	0.726
391.09	0.722
391.30	0.721
391.50	0.721
391.71	0.722
391.92	0.719
392.12	0.712
392.33	0.712
392.53	0.711
392.74	0.711
392.95	0.711
393.15	0.713
393.36	0.715
393.57	0.713
393.77	0.717
393.98	0.719
394.19	0.720
394.39	0.718
394.60	0.720
394.81	0.722
395.01	0.720
395.22	0.718
395.43	0.719
395.63	0.723
395.84	0.725
396.04	0.721
396.25	0.722
396.46	0.724
396.66	0.723
396.87	0.720
397.08	0.717
397.28	0.719
397.49	0.720
397.69	0.716
397.90	0.711
398.11	0.712
398.31	0.713
398.52	0.709
398.73	0.710
398.93	0.709
399.14	0.708
399.34	0.707
399.55	0.709
399.76	0.709
399.96	0.710
400.17	0.709
400.37	0.708
400.58	0.714
400.79	0.716
400.99	0.714
401.20	0.720
401.41	0.723
401.61	0.724
401.82	0.729
402.02	0.729
402.23	0.731
402.44	0.730
402.64	0.730
402.85	0.724
403.05	0.722
403.26	0.721
403.47	0.715
403.67	0.714
403.88	0.714
404.08	0.708
404.29	0.705
404.50	0.705
404.70	0.706
404.91	0.705
405.11	0.702
405.32	0.703
405.52	0.704
405.73	0.703
405.94	0.700
406.14	0.703
406.35	0.705
406.55	0.705
406.76	0.703
406.97	0.704
407.17	0.706
407.38	0.706
407.58	0.704
407.79	0.707
407.99	0.710
408.20	0.711
408.41	0.706
408.61	0.704
408.82	0.706
409.02	0.706
409.23	0.703
409.43	0.702
409.64	0.704
409.84	0.703
410.05	0.699
410.26	0.697
410.46	0.697
410.67	0.697
410.87	0.699
411.08	0.700
411.28	0.701
411.49	0.702
411.69	0.700
411.90	0.702
412.11	0.704
412.31	0.705
412.52	0.704
412.72	0.705
412.93	0.706
413.13	0.705
413.34	0.701
413.54	0.702
413.75	0.705
413.95	0.704
414.16	0.700
414.37	0.703
414.57	0.703
414.78	0.706
414.98	0.703
415.19	0.705
415.39	0.702
415.60	0.705
415.80	0.704
416.01	0.702
416.21	0.704
416.42	0.704
416.62	0.699
416.83	0.699
417.03	0.698
417.24	0.699
417.44	0.696
417.65	0.695
417.86	0.696
418.06	0.694
418.27	0.692
418.47	0.694
418.68	0.694
418.88	0.695
419.09	0.693
419.29	0.694
419.50	0.695
419.70	0.694
419.91	0.692
420.11	0.691
420.32	0.692
420.52	0.692
420.73	0.691
420.93	0.692
421.14	0.693
421.34	0.692
421.55	0.688
421.75	0.688
421.96	0.689
422.16	0.690
422.37	0.688
422.57	0.686
422.78	0.687
422.98	0.684
423.19	0.681
423.39	0.680
423.60	0.684
423.80	0.685
424.01	0.683
424.21	0.686
424.42	0.687
424.62	0.687
424.83	0.686
425.03	0.685
425.23	0.687
425.44	0.688
425.64	0.688
425.85	0.687
426.05	0.688
426.26	0.689
426.46	0.685
426.67	0.684
426.87	0.689
427.08	0.690
427.28	0.688
427.49	0.689
427.69	0.690
427.90	0.689
428.10	0.685
428.31	0.685
428.51	0.687
428.71	0.686
428.92	0.687
429.12	0.685
429.33	0.686
429.53	0.690
429.74	0.694
429.94	0.694
430.15	0.694
430.35	0.694
430.56	0.691
430.76	0.691
430.96	0.691
431.17	0.688
431.37	0.685
431.58	0.684
431.78	0.680
431.99	0.673
432.19	0.674
432.40	0.676
432.60	0.677
432.80	0.679
433.01	0.677
433.21	0.678
433.42	0.680
433.62	0.680
433.83	0.680
434.03	0.682
434.23	0.686
434.44	0.685
434.64	0.682
434.85	0.687
435.05	0.689
435.26	0.688
435.46	0.686
435.66	0.686
435.87	0.685
436.07	0.685
436.28	0.681
436.48	0.678
436.69	0.678
436.89	0.678
437.09	0.671
437.30	0.669
437.50	0.670
437.71	0.681
437.91	0.680
438.11	0.681
438.32	0.685
438.52	0.685
438.73	0.684
438.93	0.682
439.13	0.682
439.34	0.686
439.54	0.684
439.75	0.685
439.95	0.675
440.15	0.680
440.36	0.678
440.56	0.676
440.77	0.677
440.97	0.677
441.17	0.675
441.38	0.677
441.58	0.675
441.79	0.674
441.99	0.673
442.19	0.671
442.40	0.669
442.60	0.669
442.81	0.666
443.01	0.667
443.21	0.668
443.42	0.667
443.62	0.665
443.82	0.665
444.03	0.666
444.23	0.666
444.44	0.666
444.64	0.665
444.84	0.666
445.05	0.666
445.25	0.663
445.45	0.663
445.66	0.666
445.86	0.666
446.06	0.667
446.27	0.667
446.47	0.670
446.68	0.667
446.88	0.666
447.08	0.665
447.29	0.667
447.49	0.667
447.69	0.667
447.90	0.665
448.10	0.667
448.30	0.664
448.51	0.665
448.71	0.664
448.91	0.666
449.12	0.665
449.32	0.666
449.52	0.665
449.73	0.669
449.93	0.668
450.14	0.669
450.34	0.668
450.54	0.670
450.75	0.667
450.95	0.666
451.15	0.665
451.36	0.668
451.56	0.665
451.76	0.664
451.97	0.661
452.17	0.661
452.37	0.660
452.58	0.657
452.78	0.657
452.98	0.660
453.19	0.659
453.39	0.659
453.59	0.658
453.79	0.659
454.00	0.659
454.20	0.658
454.40	0.659
454.61	0.661
454.81	0.661
455.01	0.659
455.22	0.660
455.42	0.662
455.62	0.660
455.83	0.659
456.03	0.662
456.23	0.664
456.44	0.664
456.64	0.663
456.84	0.663
457.04	0.664
457.25	0.663
457.45	0.660
457.65	0.659
457.86	0.659
458.06	0.658
458.26	0.654
458.47	0.653
458.67	0.654
458.87	0.654
459.07	0.652
459.28	0.654
459.48	0.657
459.68	0.656
459.89	0.656
460.09	0.655
460.29	0.656
460.49	0.658
460.70	0.657
460.90	0.656
461.10	0.657
461.31	0.657
461.51	0.654
461.71	0.655
461.91	0.657
462.12	0.656
462.32	0.655
462.52	0.656
462.72	0.659
462.93	0.658
463.13	0.658
463.33	0.658
463.53	0.660
463.74	0.659
463.94	0.655
464.14	0.655
464.35	0.657
464.55	0.658
464.75	0.655
464.95	0.653
465.16	0.655
465.36	0.653
465.56	0.652
465.76	0.652
465.97	0.652
466.17	0.653
466.37	0.651
466.57	0.652
466.78	0.653
466.98	0.653
467.18	0.652
467.38	0.651
467.59	0.652
467.79	0.654
467.99	0.653
468.19	0.654
468.39	0.657
468.60	0.657
468.80	0.655
469.00	0.656
469.20	0.657
469.41	0.657
469.61	0.656
469.81	0.656
470.01	0.655
470.22	0.655
470.42	0.653
470.62	0.650
470.82	0.652
471.02	0.651
471.23	0.649
471.43	0.650
471.63	0.652
471.83	0.652
472.04	0.651
472.24	0.649
472.44	0.655
472.64	0.656
472.84	0.654
473.05	0.653
473.25	0.657
473.45	0.656
473.65	0.654
473.85	0.654
474.06	0.656
474.26	0.655
474.46	0.657
474.66	0.653
474.86	0.653
475.07	0.653
475.27	0.652
475.47	0.649
475.67	0.650
475.87	0.651
476.08	0.648
476.28	0.649
476.48	0.651
476.68	0.649
476.88	0.647
477.09	0.648
477.29	0.650
477.49	0.650
477.69	0.649
477.89	0.649
478.09	0.649
478.30	0.651
478.50	0.648
478.70	0.647
478.90	0.648
479.10	0.651
479.31	0.652
479.51	0.650
479.71	0.651
479.91	0.650
480.11	0.649
480.31	0.650
480.52	0.648
480.72	0.649
480.92	0.648
481.12	0.646
481.32	0.644
481.52	0.641
481.72	0.642
481.93	0.645
482.13	0.645
482.33	0.645
482.53	0.643
482.73	0.644
482.93	0.644
483.14	0.644
483.34	0.643
483.54	0.644
483.74	0.643
483.94	0.642
484.14	0.638
484.34	0.638
484.55	0.639
484.75	0.639
484.95	0.638
485.15	0.637
485.35	0.637
485.55	0.637
485.75	0.635
485.96	0.636
486.16	0.637
486.36	0.637
486.56	0.635
486.76	0.634
486.96	0.635
487.16	0.634
487.36	0.632
487.57	0.632
487.77	0.633
487.97	0.633
488.17	0.632
488.37	0.631
488.57	0.631
488.77	0.632
488.97	0.630
489.18	0.630
489.38	0.632
489.58	0.633
489.78	0.632
489.98	0.631
490.18	0.631
490.38	0.632
490.58	0.630
490.78	0.631
490.98	0.633
491.19	0.634
491.39	0.633
491.59	0.632
491.79	0.636
491.99	0.636
492.19	0.636
492.39	0.639
492.59	0.639
492.79	0.642
492.99	0.641
493.20	0.641
493.40	0.641
493.60	0.643
493.80	0.641
494.00	0.638
494.20	0.639
494.40	0.639
494.60	0.636
494.80	0.640
495.00	0.639
495.20	0.638
495.40	0.637
495.61	0.639
495.81	0.638
496.01	0.642
496.21	0.643
496.41	0.642
496.61	0.642
496.81	0.641
497.01	0.636
497.21	0.635
497.41	0.635
497.61	0.635
497.81	0.633
498.01	0.633
498.21	0.630
498.41	0.628
498.61	0.628
498.82	0.629
499.02	0.631
499.22	0.632
499.42	0.632
499.62	0.633
499.82	0.633
500.02	0.634
500.22	0.633
500.42	0.635
500.62	0.636
500.82	0.636
501.02	0.634
501.22	0.634
501.42	0.634
501.62	0.636
501.82	0.636
502.02	0.636
502.22	0.636
502.42	0.638
502.62	0.635
502.82	0.636
503.02	0.637
503.22	0.637
503.42	0.635
503.63	0.635
503.83	0.633
504.03	0.631
504.23	0.630
504.43	0.631
504.63	0.632
504.83	0.631
505.03	0.630
505.23	0.631
505.43	0.633
505.63	0.634
505.83	0.634
506.03	0.635
506.23	0.637
506.43	0.637
506.63	0.636
506.83	0.635
507.03	0.637
507.23	0.637
507.43	0.634
507.63	0.635
507.83	0.635
508.03	0.635
508.23	0.634
508.43	0.633
508.63	0.635
508.83	0.636
509.03	0.637
509.23	0.636
509.43	0.637
509.63	0.638
509.83	0.636
510.03	0.640
510.23	0.641
510.43	0.641
510.63	0.642
510.83	0.641
511.03	0.642
511.23	0.640
511.43	0.639
511.63	0.641
511.83	0.643
512.03	0.643
512.22	0.640
512.42	0.640
512.62	0.641
512.82	0.640
513.02	0.640
513.22	0.640
513.42	0.642
513.62	0.644
513.82	0.642
514.02	0.642
514.22	0.643
514.42	0.644
514.62	0.643
514.82	0.644
515.02	0.646
515.22	0.649
515.42	0.648
515.62	0.650
515.82	0.650
516.02	0.651
516.22	0.651
516.42	0.652
516.62	0.654
516.82	0.655
517.01	0.653
517.21	0.652
517.41	0.656
517.61	0.656
517.81	0.652
518.01	0.651
518.21	0.651
518.41	0.649
518.61	0.648
518.81	0.649
519.01	0.650
519.21	0.650
519.41	0.649
519.61	0.643
519.81	0.645
520.00	0.646
520.20	0.646
520.40	0.649
520.60	0.650
520.80	0.649
521.00	0.650
521.20	0.650
521.40	0.655
521.60	0.655
521.80	0.654
522.00	0.654
522.20	0.656
522.39	0.656
522.59	0.653
522.79	0.654
522.99	0.657
523.19	0.655
523.39	0.653
523.59	0.651
523.79	0.654
523.99	0.656
524.19	0.655
524.38	0.653
524.58	0.655
524.78	0.655
524.98	0.653
525.18	0.655
525.38	0.656
525.58	0.656
525.78	0.654
525.98	0.652
526.18	0.652
526.37	0.652
526.57	0.654
526.77	0.654
526.97	0.655
527.17	0.655
527.37	0.652
527.57	0.654
527.77	0.656
527.96	0.656
528.16	0.655
528.36	0.656
528.56	0.658
528.76	0.655
528.96	0.654
529.16	0.655
529.36	0.659
529.55	0.659
529.75	0.656
529.95	0.655
530.15	0.657
530.35	0.659
530.55	0.657
530.75	0.657
530.94	0.659
531.14	0.659
531.34	0.657
531.54	0.655
531.74	0.658
531.94	0.661
532.13	0.659
532.33	0.661
532.53	0.660
532.73	0.659
532.93	0.657
533.13	0.658
533.33	0.659
533.52	0.659
533.72	0.662
533.92	0.660
534.12	0.658
534.32	0.659
534.52	0.657
534.71	0.659
534.91	0.662
535.11	0.664
535.31	0.663
535.51	0.664
535.71	0.666
535.90	0.664
536.10	0.665
536.30	0.666
536.50	0.667
536.70	0.667
536.89	0.664
537.09	0.664
537.29	0.666
537.49	0.666
537.69	0.664
537.89	0.665
538.08	0.665
538.28	0.663
538.48	0.664
538.68	0.665
538.88	0.668
539.07	0.667
539.27	0.665
539.47	0.664
539.67	0.664
539.87	0.666
540.06	0.664
540.26	0.664
540.46	0.667
540.66	0.664
540.86	0.661
541.05	0.661
541.25	0.663
541.45	0.663
541.65	0.661
541.84	0.663
542.04	0.664
542.24	0.665
542.44	0.663
542.64	0.665
542.83	0.667
543.03	0.668
543.23	0.665
543.43	0.667
543.62	0.668
543.82	0.668
544.02	0.667
544.22	0.667
544.42	0.670
544.61	0.670
544.81	0.667
545.01	0.666
545.21	0.668
545.40	0.669
545.60	0.667
545.80	0.670
546.00	0.670
546.19	0.670
546.39	0.668
546.59	0.666
546.79	0.667
546.98	0.667
547.18	0.667
547.38	0.668
547.58	0.670
547.77	0.670
547.97	0.666
548.17	0.668
548.37	0.668
548.56	0.668
548.76	0.668
548.96	0.669
549.16	0.672
549.35	0.671
549.55	0.669
549.75	0.669
549.95	0.673
550.14	0.673
550.34	0.671
550.54	0.676
550.73	0.680
550.93	0.681
551.13	0.678
551.33	0.677
551.52	0.678
551.72	0.678
551.92	0.676
552.12	0.677
552.31	0.678
552.51	0.678
552.71	0.673
552.90	0.672
553.10	0.674
553.30	0.674
553.50	0.672
553.69	0.673
553.89	0.674
554.09	0.675
554.28	0.671
554.48	0.673
554.68	0.674
554.87	0.675
555.07	0.672
555.27	0.672
555.47	0.674
555.66	0.675
555.86	0.673
556.06	0.675
556.25	0.676
556.45	0.684
556.65	0.682
556.84	0.685
557.04	0.687
557.24	0.688
557.43	0.688
557.63	0.691
557.83	0.692
558.02	0.693
558.22	0.696
558.42	0.697
558.61	0.690
558.81	0.691
559.01	0.688
559.21	0.687
559.40	0.688
559.60	0.689
559.80	0.686
559.99	0.687
560.19	0.689
560.39	0.683
560.58	0.680
560.78	0.680
560.97	0.684
561.17	0.683
561.37	0.681
561.56	0.681
561.76	0.683
561.96	0.682
562.15	0.679
562.35	0.682
562.55	0.683
562.74	0.682
562.94	0.681
563.14	0.679
563.33	0.680
563.53	0.680
563.73	0.677
563.92	0.678
564.12	0.681
564.31	0.683
564.51	0.681
564.71	0.683
564.90	0.687
565.10	0.687
565.30	0.689
565.49	0.690
565.69	0.692
565.89	0.693
566.08	0.690
566.28	0.691
566.47	0.694
566.67	0.692
566.87	0.689
567.06	0.690
567.26	0.697
567.46	0.692
567.65	0.692
567.85	0.694
568.04	0.696
568.24	0.695
568.44	0.692
568.63	0.691
568.83	0.693
569.02	0.692
569.22	0.687
569.42	0.683
569.61	0.686
569.81	0.685
570.00	0.682
570.20	0.684
570.40	0.685
570.59	0.685
570.79	0.683
570.98	0.681
571.18	0.682
571.38	0.682
571.57	0.679
571.77	0.677
571.96	0.681
572.16	0.678
572.35	0.673
572.55	0.674
572.75	0.672
572.94	0.672
573.14	0.670
573.33	0.671
573.53	0.671
573.73	0.671
573.92	0.669
574.12	0.666
574.31	0.669
574.51	0.670
574.70	0.667
574.90	0.669
575.09	0.671
575.29	0.671
575.49	0.669
575.68	0.669
575.88	0.670
576.07	0.671
576.27	0.669
576.46	0.668
576.66	0.667
576.86	0.666
577.05	0.664
577.25	0.662
577.44	0.664
577.64	0.664
577.83	0.662
578.03	0.663
578.22	0.663
578.42	0.662
578.61	0.661
578.81	0.662
579.00	0.663
579.20	0.662
579.40	0.661
579.59	0.660
579.79	0.660
579.98	0.660
580.18	0.659
580.37	0.659
580.57	0.661
580.76	0.666
580.96	0.663
581.15	0.664
581.35	0.666
581.54	0.666
581.74	0.665
581.93	0.666
582.13	0.668
582.32	0.665
582.52	0.663
582.71	0.663
582.91	0.659
583.10	0.659
583.30	0.658
583.49	0.657
583.69	0.661
583.88	0.662
584.08	0.662
584.27	0.664
584.47	0.667
584.66	0.668
584.86	0.667
585.05	0.669
585.25	0.671
585.44	0.671
585.64	0.669
585.83	0.666
586.03	0.666
586.22	0.664
586.42	0.661
586.61	0.662
586.81	0.664
587.00	0.664
587.20	0.662
587.39	0.662
587.59	0.664
587.78	0.666
587.98	0.666
588.17	0.667
588.37	0.669
588.56	0.671
588.76	0.667
588.95	0.667
589.15	0.671
589.34	0.673
589.54	0.671
589.73	0.672
589.92	0.675
590.12	0.676
590.31	0.673
590.51	0.679
590.70	0.680
590.90	0.681
591.09	0.679
591.29	0.677
591.48	0.677
591.68	0.679
591.87	0.677
592.06	0.675
592.26	0.678
592.45	0.677
592.65	0.670
592.84	0.670
593.04	0.673
593.23	0.674
593.43	0.672
593.62	0.671
593.81	0.671
594.01	0.671
594.20	0.668
594.40	0.668
594.59	0.670
594.79	0.671
594.98	0.669
595.17	0.668
595.37	0.669
595.56	0.671
595.76	0.671
595.95	0.673
596.14	0.676
596.34	0.677
596.53	0.676
596.73	0.677
596.92	0.679
597.12	0.681
597.31	0.681
597.50	0.680
597.70	0.683
597.89	0.682
598.09	0.678
598.28	0.679
598.47	0.682
598.67	0.680
598.86	0.677
599.06	0.679
599.25	0.680
599.44	0.678
599.64	0.675
599.83	0.673
600.03	0.676
600.22	0.676
600.41	0.676
600.61	0.674
600.80	0.676
601.00	0.677
601.19	0.672
601.38	0.670
601.58	0.673
601.77	0.675
601.96	0.676
602.16	0.677
602.35	0.686
602.55	0.683
602.74	0.683
602.93	0.685
603.13	0.691
603.32	0.692
603.51	0.692
603.71	0.694
603.90	0.696
604.09	0.696
604.29	0.693
604.48	0.687
604.68	0.689
604.87	0.687
605.06	0.683
605.26	0.680
605.45	0.681
605.64	0.679
605.84	0.675
606.03	0.674
606.22	0.673
606.42	0.673
606.61	0.670
606.80	0.669
607.00	0.671
607.19	0.672
607.38	0.670
607.58	0.672
607.77	0.674
607.96	0.674
608.16	0.673
608.35	0.678
608.54	0.680
608.74	0.683
608.93	0.689
609.12	0.692
609.32	0.694
609.51	0.698
609.70	0.696
609.90	0.698
610.09	0.702
610.28	0.707
610.48	0.700
610.67	0.702
610.86	0.703
611.06	0.697
611.25	0.695
611.44	0.695
611.64	0.695
611.83	0.697
612.02	0.694
612.21	0.693
612.41	0.692
612.60	0.691
612.79	0.687
612.99	0.687
613.18	0.689
613.37	0.687
613.57	0.684
613.76	0.686
613.95	0.684
614.14	0.684
614.34	0.680
614.53	0.681
614.72	0.684
614.92	0.685
615.11	0.682
615.30	0.679
615.49	0.681
615.69	0.684
615.88	0.680
616.07	0.681
616.26	0.683
616.46	0.685
616.65	0.682
616.84	0.680
617.04	0.681
617.23	0.685
617.42	0.684
617.61	0.688
617.81	0.688
618.00	0.690
618.19	0.689
618.38	0.692
618.58	0.695
618.77	0.696
618.96	0.696
619.15	0.698
619.35	0.699
619.54	0.700
619.73	0.696
619.92	0.697
620.12	0.702
620.31	0.702
620.50	0.697
620.69	0.697
620.89	0.700
621.08	0.700
621.27	0.700
621.46	0.699
621.66	0.703
621.85	0.703
622.04	0.699
622.23	0.699
622.43	0.700
622.62	0.700
622.81	0.699
623.00	0.698
623.19	0.702
623.39	0.701
623.58	0.698
623.77	0.696
623.96	0.699
624.16	0.700
624.35	0.695
624.54	0.699
624.73	0.703
624.92	0.701
625.12	0.699
625.31	0.699
625.50	0.703
625.69	0.703
625.88	0.700
626.08	0.700
626.27	0.701
626.46	0.701
626.65	0.698
626.84	0.698
627.04	0.703
627.23	0.702
627.42	0.698
627.61	0.699
627.80	0.703
628.00	0.703
628.19	0.701
628.38	0.705
628.57	0.707
628.76	0.706
628.96	0.703
629.15	0.704
629.34	0.707
629.53	0.707
629.72	0.701
629.91	0.702
630.11	0.707
630.30	0.708
630.49	0.709
630.68	0.710
630.87	0.713
631.06	0.715
631.26	0.710
631.45	0.711
631.64	0.720
631.83	0.722
632.02	0.720
632.21	0.718
632.41	0.725
632.60	0.720
632.79	0.719
632.98	0.719
633.17	0.720
633.36	0.722
633.55	0.718
633.75	0.714
633.94	0.714
634.13	0.714
634.32	0.711
634.51	0.705
634.70	0.707
634.89	0.706
635.09	0.703
635.28	0.704
635.47	0.705
635.66	0.708
635.85	0.703
636.04	0.705
636.23	0.710
636.43	0.711
636.62	0.710
636.81	0.709
637.00	0.714
637.19	0.716
637.38	0.713
637.57	0.713
637.76	0.715
637.95	0.716
638.15	0.713
638.34	0.709
638.53	0.712
638.72	0.714
638.91	0.711
639.10	0.708
639.29	0.708
639.48	0.708
639.67	0.707
639.87	0.707
640.06	0.712
640.25	0.711
640.44	0.712
640.63	0.712
640.82	0.714
641.01	0.715
641.20	0.714
641.39	0.715
641.58	0.717
641.78	0.716
641.97	0.711
642.16	0.725
642.35	0.726
642.54	0.726
642.73	0.721
642.92	0.719
643.11	0.723
643.30	0.723
643.49	0.719
643.68	0.722
643.87	0.723
644.06	0.723
644.25	0.704
644.45	0.707
644.64	0.707
644.83	0.707
645.02	0.703
645.21	0.702
645.40	0.704
645.59	0.703
645.78	0.698
645.97	0.700
646.16	0.701
646.35	0.699
646.54	0.697
646.73	0.699
646.92	0.701
647.11	0.701
647.30	0.697
647.49	0.699
647.68	0.699
647.88	0.697
648.07	0.690
648.26	0.695
648.45	0.697
648.64	0.693
648.83	0.689
649.02	0.693
649.21	0.703
649.40	0.701
649.59	0.697
649.78	0.699
649.97	0.714
650.16	0.714
650.35	0.707
650.54	0.710
650.73	0.719
650.92	0.716
651.11	0.709
651.30	0.706
651.49	0.711
651.68	0.711
651.87	0.707
652.06	0.698
652.25	0.701
652.44	0.704
652.63	0.701
652.82	0.699
653.01	0.699
653.20	0.697
653.39	0.686
653.58	0.684
653.77	0.684
653.96	0.679
654.15	0.670
654.34	0.668
654.53	0.663
654.72	0.658
654.91	0.649
655.10	0.645
655.29	0.644
655.48	0.642
655.67	0.636
655.86	0.634
656.05	0.633
656.24	0.632
656.43	0.628
656.62	0.627
656.81	0.627
657.00	0.625
657.19	0.622
657.38	0.621
657.57	0.621
657.76	0.623
657.95	0.621
658.14	0.623
658.33	0.626
658.51	0.632
658.70	0.631
658.89	0.632
659.08	0.641
659.27	0.649
659.46	0.650
659.65	0.656
659.84	0.659
660.03	0.662
660.22	0.663
660.41	0.667
660.60	0.665
660.79	0.667
660.98	0.673
661.17	0.673
661.36	0.670
661.55	0.670
661.74	0.667
661.92	0.670
662.11	0.672
662.30	0.671
662.49	0.664
662.68	0.664
662.87	0.668
663.06	0.662
663.25	0.663
663.44	0.664
663.63	0.666
663.82	0.665
664.01	0.659
664.20	0.659
664.38	0.660
664.57	0.661
664.76	0.661
664.95	0.661
665.14	0.665
665.33	0.660
665.52	0.667
665.71	0.671
665.90	0.670
666.09	0.672
666.28	0.670
666.46	0.669
666.65	0.669
666.84	0.666
667.03	0.661
667.22	0.659
667.41	0.662
667.60	0.652
667.79	0.645
667.98	0.647
668.16	0.648
668.35	0.647
668.54	0.643
668.73	0.644
668.92	0.645
669.11	0.644
669.30	0.639
669.49	0.635
669.67	0.636
669.86	0.638
670.05	0.636
670.24	0.633
670.43	0.631
670.62	0.630
670.81	0.626
671.00	0.627
671.18	0.627
671.37	0.626
671.56	0.624
671.75	0.623
671.94	0.620
672.13	0.618
672.32	0.614
672.50	0.613
672.69	0.613
672.88	0.614
673.07	0.609
673.26	0.611
673.45	0.613
673.63	0.613
673.82	0.610
674.01	0.611
674.20	0.610
674.39	0.610
674.58	0.610
674.76	0.610
674.95	0.608
675.14	0.608
675.33	0.603
675.52	0.602
675.71	0.602
675.89	0.601
676.08	0.596
676.27	0.597
676.46	0.597
676.65	0.596
676.84	0.596
677.02	0.598
677.21	0.600
677.40	0.599
677.59	0.597
677.78	0.599
677.96	0.601
678.15	0.601
678.34	0.598
678.53	0.600
678.72	0.599
678.90	0.596
679.09	0.591
679.28	0.587
679.47	0.587
679.66	0.586
679.84	0.582
680.03	0.580
680.22	0.579
680.41	0.581
680.60	0.578
680.78	0.578
680.97	0.580
681.16	0.580
681.35	0.579
681.53	0.578
681.72	0.579
681.91	0.581
682.10	0.579
682.29	0.581
682.47	0.579
682.66	0.579
682.85	0.577
683.04	0.575
683.22	0.575
683.41	0.577
683.60	0.577
683.79	0.577
683.97	0.577
684.16	0.576
684.35	0.572
684.54	0.573
684.72	0.573
684.91	0.574
685.10	0.572
685.29	0.574
685.47	0.570
685.66	0.569
685.85	0.566
686.04	0.565
686.22	0.568
686.41	0.570
686.60	0.567
686.79	0.571
686.97	0.572
687.16	0.574
687.35	0.571
687.54	0.574
687.72	0.578
687.91	0.578
688.10	0.579
688.29	0.578
688.47	0.576
688.66	0.575
688.85	0.571
689.03	0.568
689.22	0.573
689.41	0.573
689.60	0.569
689.78	0.566
689.97	0.566
690.16	0.564
690.34	0.561
690.53	0.561
690.72	0.561
690.91	0.559
691.09	0.558
691.28	0.552
691.47	0.550
691.65	0.549
691.84	0.546
692.03	0.545
692.21	0.542
692.40	0.542
692.59	0.540
692.77	0.539
692.96	0.541
693.15	0.541
693.34	0.539
693.52	0.538
693.71	0.539
693.90	0.541
694.08	0.542
694.27	0.543
694.46	0.553
694.64	0.553
694.83	0.552
695.02	0.551
695.20	0.551
695.39	0.550
695.58	0.550
695.76	0.551
695.95	0.549
696.14	0.548
696.32	0.546
696.51	0.536
696.70	0.536
696.88	0.537
697.07	0.535
697.26	0.536
697.44	0.538
697.63	0.537
697.81	0.535
698.00	0.536
698.19	0.535
698.37	0.535
698.56	0.535
698.75	0.535
698.93	0.534
699.12	0.534
699.31	0.533
699.49	0.533
699.68	0.533
699.87	0.535
700.05	0.535
700.24	0.534
700.42	0.536
700.61	0.535
700.80	0.533
700.98	0.533
701.17	0.535
701.36	0.534
701.54	0.534
701.73	0.536
701.91	0.534
702.10	0.534
702.29	0.532
702.47	0.531
702.66	0.532
702.84	0.533
703.03	0.531
703.22	0.532
703.40	0.532
703.59	0.533
703.77	0.532
703.96	0.532
704.15	0.532
704.33	0.532
704.52	0.531
704.70	0.531
704.89	0.531
705.08	0.529
705.26	0.525
705.45	0.525
705.63	0.524
705.82	0.521
706.00	0.520
706.19	0.520
706.38	0.519
706.56	0.519
706.75	0.517
706.93	0.516
707.12	0.517
707.30	0.517
707.49	0.515
707.68	0.513
707.86	0.513
708.05	0.513
708.23	0.510
708.42	0.511
708.60	0.513
708.79	0.513
708.98	0.512
709.16	0.512
709.35	0.514
709.53	0.518
709.72	0.517
709.90	0.519
710.09	0.521
710.27	0.522
710.46	0.526
710.64	0.524
710.83	0.526
711.02	0.527
711.20	0.525
711.39	0.523
711.57	0.521
711.76	0.522
711.94	0.520
712.13	0.521
712.31	0.521
712.50	0.517
712.68	0.514
712.87	0.515
713.05	0.515
713.24	0.517
713.42	0.516
713.61	0.517
713.79	0.517
713.98	0.517
714.16	0.517
714.35	0.517
714.54	0.518
714.72	0.518
714.91	0.515
715.09	0.521
715.28	0.524
715.46	0.524
715.65	0.522
715.83	0.522
716.02	0.525
716.20	0.521
716.39	0.520
716.57	0.522
716.76	0.524
716.94	0.525
717.12	0.517
717.31	0.519
717.49	0.522
717.68	0.524
717.86	0.523
718.05	0.525
718.23	0.527
718.42	0.530
718.60	0.531
718.79	0.538
718.97	0.541
719.16	0.541
719.34	0.539
719.53	0.537
719.71	0.537
719.90	0.539
720.08	0.536
720.27	0.536
720.45	0.535
720.63	0.534
720.82	0.528
721.00	0.531
721.19	0.534
721.37	0.533
721.56	0.534
721.74	0.536
721.93	0.544
722.11	0.551
722.30	0.550
722.48	0.555
722.66	0.555
722.85	0.555
723.03	0.555
723.22	0.553
723.40	0.556
723.59	0.556
723.77	0.559
723.95	0.553
724.14	0.554
724.32	0.556
724.51	0.555
724.69	0.556
724.88	0.557
725.06	0.556
725.24	0.556
725.43	0.558
725.61	0.560
725.80	0.554
725.98	0.552
726.16	0.549
726.35	0.555
726.53	0.554
726.72	0.554
726.90	0.564
727.09	0.565
727.27	0.571
727.45	0.567
727.64	0.577
727.82	0.586
728.01	0.590
728.19	0.588
728.37	0.593
728.56	0.597
728.74	0.603
728.92	0.590
729.11	0.591
729.29	0.590
729.48	0.594
729.66	0.583
729.84	0.583
730.03	0.587
730.21	0.589
730.40	0.578
730.58	0.579
730.76	0.578
730.95	0.581
731.13	0.581
731.31	0.593
731.50	0.602
731.68	0.605
731.86	0.601
732.05	0.616
732.23	0.618
732.42	0.622
732.60	0.625
732.78	0.631
732.97	0.648
733.15	0.655
733.33	0.642
733.52	0.649
733.70	0.661
733.88	0.670
734.07	0.652
734.25	0.676
734.43	0.684
734.62	0.687
734.80	0.684
734.98	0.673
735.17	0.680
735.35	0.686
735.53	0.673
735.72	0.676
735.90	0.698
736.08	0.719
736.27	0.697
736.45	0.707
736.63	0.720
736.82	0.729
737.00	0.730
737.18	0.739
737.37	0.772
737.55	0.797
737.73	0.788
737.92	0.788
738.10	0.785
738.28	0.807
738.46	0.793
738.65	0.802
738.83	0.822
739.01	0.871
739.20	0.862
739.38	0.843
739.56	0.834
739.75	0.839
739.93	0.809
740.11	0.827
740.29	0.827
740.48	0.836
740.66	0.818
740.84	0.812
741.03	0.778
741.21	0.788
741.39	0.771
741.57	0.783
741.76	0.801
741.94	0.806
742.12	0.774
742.31	0.777
742.49	0.793
742.67	0.816
742.85	0.830
743.04	0.837
743.22	0.844
743.40	0.892
743.58	0.873
743.77	0.884
743.95	0.917
744.13	0.963
744.31	0.952
744.50	0.947
744.68	0.943
744.86	0.918
745.04	0.930
745.23	0.992
745.41	0.977
745.59	0.982
745.77	0.945
745.96	0.934
746.14	0.945
746.32	0.933
746.50	0.925
746.69	0.914
746.87	0.927
747.05	0.913
747.23	0.844
747.42	0.826
747.60	0.850
747.78	0.857
747.96	0.885
748.14	0.842
748.33	0.868
748.51	0.861
748.69	0.848
748.87	0.868
749.06	0.862
749.24	0.862
749.42	0.852
749.60	0.841
749.78	0.852
749.97	0.809
750.15	0.801
750.33	0.805
750.51	0.828
750.69	0.837
750.88	0.842
751.06	0.853
751.24	0.879
751.42	0.872
751.60	0.861
751.79	0.926
751.97	0.970
752.15	0.969
752.33	0.936
752.51	0.999
752.69	1.012
752.88	0.980
753.06	1.024
753.24	1.000
753.42	1.029
753.60	1.182
753.78	1.049
753.97	1.066
754.15	1.082
754.33	1.112
754.51	0.996
754.69	0.982
754.87	1.010
755.06	0.943
755.24	0.942
755.42	0.949
755.60	0.860
755.78	0.868
755.96	0.817
756.15	0.818
756.33	0.822
756.51	0.840
756.69	0.827
756.87	0.797
757.05	0.815
757.23	0.802
757.42	0.772
757.60	0.770
757.78	0.759
757.96	0.758
758.14	0.743
758.32	0.730
758.50	0.742
758.69	0.742
758.87	0.733
759.05	0.736
759.23	0.743
759.41	0.746
759.59	0.739
759.77	0.761
759.95	0.788
760.13	0.835
760.32	0.835
760.50	0.828
760.68	0.848
760.86	0.848
761.04	0.822
761.22	0.831
761.40	0.873
761.58	0.874
761.76	0.847
761.95	0.830
762.13	0.788
762.31	0.787
762.49	0.761
762.67	0.781
762.85	0.794
763.03	0.789
763.21	0.768
763.39	0.752
763.57	0.755
763.75	0.749
763.94	0.736
764.12	0.734
764.30	0.756
764.48	0.758
764.66	0.723
764.84	0.722
765.02	0.757
765.20	0.765
765.38	0.745
765.56	0.750
765.74	0.790
765.92	0.790
766.10	0.800
766.28	0.795
766.46	0.822
766.65	0.821
766.83	0.807
767.01	0.791
767.19	0.800
767.37	0.800
767.55	0.786
767.73	0.765
767.91	0.767
768.09	0.756
768.27	0.748
768.45	0.736
768.63	0.741
768.81	0.744
768.99	0.721
769.17	0.744
769.35	0.757
769.53	0.755
769.71	0.738
769.89	0.748
770.07	0.755
770.25	0.738
770.43	0.718
770.61	0.742
770.79	0.747
770.97	0.755
771.15	0.724
771.33	0.726
771.51	0.729
771.69	0.739
771.87	0.746
772.05	0.747
772.24	0.754
772.42	0.766
772.60	0.747
772.78	0.803
772.96	0.828
773.14	0.826
773.32	0.805
773.49	0.813
773.67	0.812
773.85	0.791
774.03	0.781
774.21	0.813
774.39	0.821
774.57	0.842
774.75	0.774
774.93	0.770
775.11	0.790
775.29	0.796
775.47	0.796
775.65	0.804
775.83	0.820
776.01	0.840
776.19	0.794
776.37	0.792
776.55	0.790
776.73	0.788
776.91	0.782
777.09	0.764
777.27	0.762
777.45	0.751
777.63	0.729
777.81	0.726
777.99	0.714
778.17	0.714
778.35	0.696
778.53	0.684
778.71	0.690
778.89	0.678
779.07	0.670
779.24	0.678
779.42	0.678
779.60	0.697
779.78	0.693
779.96	0.696
780.14	0.703
780.32	0.718
780.50	0.704
780.68	0.704
780.86	0.697
781.04	0.713
781.22	0.716
781.40	0.726
781.58	0.720
781.75	0.714
781.93	0.699
782.11	0.701
782.29	0.691
782.47	0.690
782.65	0.677
782.83	0.704
783.01	0.701
783.19	0.694
783.37	0.681
783.55	0.681
783.72	0.697
783.90	0.708
784.08	0.696
784.26	0.708
784.44	0.726
784.62	0.730
784.80	0.700
784.98	0.704
785.16	0.709
785.33	0.720
785.51	0.707
785.69	0.695
785.87	0.697
786.05	0.711
786.23	0.706
786.41	0.706
786.59	0.710
786.77	0.710
786.94	0.698
787.12	0.701
787.30	0.705
787.48	0.703
787.66	0.692
787.84	0.693
788.02	0.682
788.19	0.680
788.37	0.667
788.55	0.670
788.73	0.671
788.91	0.666
789.09	0.650
789.27	0.638
789.44	0.650
789.62	0.656
789.80	0.664
789.98	0.688
790.16	0.675
790.34	0.671
790.51	0.657
790.69	0.675
790.87	0.681
791.05	0.679
791.23	0.674
791.41	0.676
791.58	0.682
791.76	0.661
791.94	0.633
792.12	0.639
792.30	0.642
792.48	0.640
792.65	0.634
792.83	0.641
793.01	0.647
793.19	0.647
793.37	0.632
793.54	0.628
793.72	0.639
793.90	0.637
794.08	0.628
794.26	0.630
794.43	0.638
794.61	0.621
794.79	0.609
794.97	0.608
795.15	0.612
795.32	0.616
795.50	0.607
795.68	0.602
795.86	0.608
796.04	0.610
796.21	0.604
796.39	0.602
796.57	0.617
796.75	0.625
796.92	0.626
797.10	0.629
797.28	0.630
797.46	0.634
797.64	0.635
797.81	0.642
797.99	0.645
798.17	0.648
798.35	0.642
798.52	0.645
798.70	0.639
798.88	0.647
799.06	0.649
799.23	0.651
799.41	0.658
799.59	0.652
799.77	0.641
799.94	0.648
800.12	0.658
800.30	0.675
800.48	0.675
800.65	0.675
800.83	0.666
801.01	0.656
801.19	0.657
801.36	0.653
801.54	0.657
801.72	0.667
801.90	0.653
802.07	0.649
802.25	0.635
802.43	0.617
802.60	0.613
802.78	0.620
802.96	0.628
803.14	0.619
803.31	0.618
803.49	0.617
803.67	0.613
803.84	0.619
804.02	0.612
804.20	0.615
804.38	0.623
804.55	0.624
804.73	0.608
804.91	0.608
805.08	0.622
805.26	0.616
805.44	0.679
805.61	0.681
805.79	0.679
805.97	0.677
806.15	0.669
806.32	0.664
806.50	0.668
806.68	0.670
806.85	0.662
807.03	0.653
807.21	0.669
807.38	0.604
807.56	0.595
807.74	0.604
807.91	0.610
808.09	0.613
808.27	0.631
808.44	0.658
808.62	0.666
808.80	0.666
808.97	0.661
809.15	0.656
809.33	0.672
809.50	0.680
809.68	0.667
809.86	0.674
810.03	0.703
810.21	0.682
810.39	0.665
810.56	0.669
810.74	0.695
810.91	0.764
811.09	0.752
811.27	0.773
811.44	0.779
811.62	0.781
811.80	0.766
811.97	0.738
812.15	0.735
812.33	0.730
812.50	0.720
812.68	0.707
812.85	0.653
813.03	0.655
813.21	0.623
813.38	0.617
813.56	0.619
813.74	0.628
813.91	0.635
814.09	0.666
814.26	0.660
814.44	0.661
814.62	0.651
814.79	0.656
814.97	0.662
815.14	0.668
815.32	0.670
815.50	0.686
815.67	0.690
815.85	0.680
816.02	0.669
816.20	0.675
816.38	0.689
816.55	0.695
816.73	0.692
816.90	0.701
817.08	0.728
817.26	0.734
817.43	0.715
817.61	0.737
817.78	0.755
817.96	0.734
818.13	0.724
818.31	0.725
818.49	0.736
818.66	0.727
818.84	0.713
819.01	0.694
819.19	0.701
819.36	0.701
819.54	0.674
819.71	0.713
819.89	0.728
820.07	0.739
820.24	0.735
820.42	0.736
820.59	0.756
820.77	0.779
820.94	0.768
821.12	0.786
821.29	0.803
821.47	0.804
821.64	0.743
821.82	0.757
822.00	0.755
822.17	0.752
822.35	0.745
822.52	0.745
822.70	0.729
822.87	0.741
823.05	0.719
823.22	0.730
823.40	0.755
823.57	0.774
823.75	0.752
823.92	0.771
824.10	0.790
824.27	0.829
824.45	0.818
824.62	0.879
824.80	0.893
824.97	0.906
825.15	0.891
825.32	0.904
825.50	0.905
825.67	0.915
825.85	0.897
826.02	0.913
826.20	0.926
826.37	1.048
826.55	0.972
826.72	1.145
826.90	1.203
827.07	1.252
827.25	1.201
827.42	1.354
827.60	1.486
827.77	1.633
827.95	1.578
828.12	1.692
828.30	1.357
828.47	1.465
828.65	1.158
828.82	1.209
829.00	1.252
829.17	1.313
829.34	1.285
829.52	1.309
829.69	-0.000
829.87	-0.000
830.04	-0.000
830.22	-0.000
830.39	-0.000
830.57	-0.000
830.74	-0.000
830.92	-0.000
831.09	-0.000
831.26	-0.000
831.44	-0.000
831.61	-0.000
831.79	-0.000
831.96	-0.000
832.14	-0.000
832.31	-0.000
832.49	-0.000
832.66	-0.000
832.83	-0.000
833.01	-0.000
833.18	-0.000
833.36	-0.000
833.53	-0.000
833.70	-0.000
833.88	-0.000
834.05	-0.000
834.23	-0.000
834.40	-0.000
834.58	-0.000
834.75	-0.000
834.92	-0.000
835.10	-0.000
835.27	-0.000
835.45	-0.000
835.62	-0.000
835.79	-0.000
835.97	-0.000
836.14	-0.000
836.32	-0.000
836.49	-0.000
836.66	-0.000
836.84	-0.000
837.01	-0.000
837.18	-0.000
837.36	-0.000
837.53	-0.000
837.71	-0.000
837.88	-0.000
838.05	-0.000
838.23	-0.000
838.40	-0.000
838.58	-0.000
838.75	-0.000
838.92	-0.000
839.10	-0.000
839.27	-0.000
839.44	-0.000
839.62	-0.000
839.79	-0.000
839.96	-0.000
840.14	-0.000
840.31	-0.000
840.48	-0.000
840.66	-0.000
840.83	-0.000
841.01	-0.000
841.18	-0.000
841.35	-0.000
841.53	-0.000
841.70	-0.000
841.87	-0.000
842.05	-0.000
842.22	-0.000
842.39	-0.000
842.57	-0.000
842.74	-0.000
842.91	-0.000
843.09	-0.000
843.26	-0.000
843.43	-0.000
843.60	-0.000
843.78	-0.000
843.95	-0.000
844.12	-0.000
844.30	-0.000
844.47	-0.000
844.64	-0.000
844.82	-0.000
844.99	-0.000
845.16	-0.000
845.34	-0.000
845.51	-0.000
845.68	-0.000
845.85	-0.000
846.03	-0.000
846.20	-0.000
846.37	-0.000
846.55	-0.000
846.72	-0.000
846.89	-0.000
847.06	-0.000
847.24	-0.000
847.41	-0.000
847.58	-0.000
847.76	-0.000
847.93	-0.000
848.10	-0.000
848.27	-0.000
848.45	-0.000
848.62	-0.000
848.79	-0.000
848.97	-0.000
849.14	-0.000
849.31	-0.000
849.48	-0.000
849.66	-0.000
849.83	-0.000
850.00	-0.000
850.17	-0.000
850.35	-0.000
850.52	-0.000
850.69	-0.000
850.86	-0.000
851.04	-0.000
851.21	-0.000
851.38	-0.000
851.55	-0.000
851.72	-0.000
851.90	-0.000
852.07	-0.000
852.24	-0.000
852.41	-0.000
852.59	-0.000
852.76	-0.000
852.93	-0.000
853.10	-0.000
853.28	-0.000
853.45	-0.000
853.62	-0.000
853.79	-0.000
853.96	-0.000
854.14	-0.000
854.31	-0.000
854.48	-0.000
854.65	-0.000
854.82	-0.000
855.00	-0.000
855.17	-0.000
855.34	-0.000
855.51	-0.000
855.68	-0.000
855.86	-0.000
856.03	-0.000
856.20	-0.000
856.37	-0.000
856.54	-0.000
856.72	-0.000
856.89	-0.000
857.06	-0.000
857.23	-0.000
857.40	-0.000
857.57	-0.000
857.75	-0.000
857.92	-0.000
858.09	-0.000
858.26	-0.000
858.43	-0.000
858.60	-0.000
858.78	-0.000
858.95	-0.000
859.12	-0.000
859.29	-0.000
859.46	-0.000
859.63	-0.000
859.81	-0.000
859.98	-0.000
860.15	-0.000
860.32	-0.000
860.49	-0.000
860.66	-0.000
860.83	-0.000
861.01	-0.000
861.18	-0.000
861.35	-0.000
861.52	-0.000
861.69	-0.000
861.86	-0.000
862.03	-0.000
862.21	-0.000
862.38	-0.000
862.55	-0.000
862.72	-0.000
862.89	-0.000
863.06	-0.000
863.23	-0.000
863.40	-0.000
863.58	-0.000
863.75	-0.000
863.92	-0.000
864.09	-0.000
864.26	-0.000
864.43	-0.000
864.60	-0.000
864.77	-0.000
864.94	-0.000
865.11	-0.000
865.29	-0.000
865.46	-0.000
865.63	-0.000
865.80	-0.000
865.97	-0.000
866.14	-0.000
866.31	-0.000
866.48	-0.000
866.65	-0.000
866.82	-0.000
866.99	-0.000
867.16	-0.000
867.34	-0.000
867.51	-0.000
867.68	-0.000
867.85	-0.000
868.02	-0.000
868.19	-0.000
868.36	-0.000
868.53	-0.000
868.70	-0.000
868.87	-0.000
869.04	-0.000
869.21	-0.000
869.38	-0.000
869.55	-0.000
869.72	-0.000
869.89	-0.000
870.06	-0.000
870.24	-0.000
870.41	-0.000
870.58	-0.000
870.75	-0.000
870.92	-0.000
871.09	-0.000
871.26	-0.000
871.43	-0.000
871.60	-0.000
871.77	-0.000
871.94	-0.000
872.11	-0.000
872.28	-0.000
872.45	-0.000
872.62	-0.000
872.79	-0.000
872.96	-0.000
873.13	-0.000
873.30	-0.000
873.47	-0.000
873.64	-0.000
873.81	-0.000
873.98	-0.000
874.15	-0.000
874.32	-0.000
874.49	-0.000
874.66	-0.000
874.83	-0.000
875.00	-0.000
875.17	-0.000
875.34	-0.000
875.51	-0.000
875.68	-0.000
875.85	-0.000
876.02	-0.000
876.19	-0.000
876.36	-0.000
876.53	-0.000
876.70	-0.000
876.87	-0.000
877.04	-0.000
877.21	-0.000
877.38	-0.000
877.55	-0.000
877.72	-0.000
877.89	-0.000
878.06	-0.000
878.23	-0.000
878.39	-0.000
878.56	-0.000
878.73	-0.000
878.90	-0.000
879.07	-0.000
879.24	-0.000
879.41	-0.000
879.58	-0.000
879.75	-0.000
879.92	-0.000
880.09	-0.000
880.26	-0.000
880.43	-0.000
880.60	-0.000
880.77	-0.000
880.94	-0.000
881.11	-0.000
881.27	-0.000
881.44	-0.000
881.61	-0.000
881.78	-0.000
881.95	-0.000
882.12	-0.000
882.29	-0.000
882.46	-0.000
882.63	-0.000
882.80	-0.000
882.97	-0.000
883.14	-0.000
883.30	-0.000
883.47	-0.000
883.64	-0.000
883.81	-0.000
883.98	-0.000
884.15	-0.000
884.32	-0.000
884.49	-0.000
884.66	-0.000
884.82	-0.000
884.99	-0.000
885.16	-0.000
885.33	-0.000
885.50	-0.000
885.67	-0.000
885.84	-0.000
886.01	-0.000
886.17	-0.000
886.34	-0.000
886.51	-0.000
886.68	-0.000
886.85	-0.000
887.02	-0.000
887.19	-0.000
887.36	-0.000
887.52	-0.000
887.69	-0.000
887.86	-0.000
888.03	-0.000
888.20	-0.000
888.37	-0.000
888.54	-0.000
888.70	-0.000
888.87	-0.000
889.04	-0.000
889.21	-0.000
889.38	-0.000
889.55	-0.000
889.71	-0.000
889.88	-0.000
890.05	-0.000
890.22	-0.000
890.39	-0.000
>>>>>End Processed Spectral Data<<<<<
