SpectraSuite Data File
++++++++++++++++++++++++++++++++++++
Date: Fri Jun 19 15:17:05 CEST 2015
User: introlabs
Dark Spectrum Present: Yes
Reference Spectrum Present: Yes
Number of Sampled Component Spectra: 1
Spectrometers: USB4H08886
Integration Time (usec): 745692 (USB4H08886)
Spectra Averaged: 5 (USB4H08886)
Boxcar Smoothing: 5 (USB4H08886)
Correct for Electrical Dark: Yes (USB4H08886)
Strobe/Lamp Enabled: No (USB4H08886)
Correct for Detector Non-linearity: Yes (USB4H08886)
Correct for Stray Light: Yes (USB4H08886)
Number of Pixels in Processed Spectrum: 3648
>>>>>Begin Processed Spectral Data<<<<<
178.14	-0.000
178.36	-0.000
178.57	-0.000
178.79	-0.000
179.01	-0.000
179.22	-0.000
179.44	-0.000
179.65	-0.000
179.87	-0.000
180.08	-0.000
180.30	-0.000
180.52	-0.000
180.73	-0.000
180.95	-0.000
181.16	-0.000
181.38	-0.000
181.59	-0.000
181.81	-0.000
182.03	-0.000
182.24	-0.000
182.46	-0.000
182.67	-0.000
182.89	-0.000
183.10	-0.000
183.32	-0.000
183.54	-0.000
183.75	-0.000
183.97	-0.000
184.18	-0.000
184.40	-0.000
184.61	-0.000
184.83	-0.000
185.04	-0.000
185.26	-0.000
185.48	-0.000
185.69	-0.000
185.91	-0.000
186.12	-0.000
186.34	-0.000
186.55	-0.000
186.77	-0.000
186.98	-0.000
187.20	-0.000
187.42	-0.000
187.63	-0.000
187.85	-0.000
188.06	-0.000
188.28	-0.000
188.49	-0.000
188.71	-0.000
188.92	-0.000
189.14	-0.000
189.36	-0.000
189.57	-0.000
189.79	-0.000
190.00	-0.000
190.22	-0.000
190.43	-0.000
190.65	-0.000
190.86	-0.000
191.08	-0.000
191.29	-0.000
191.51	-0.000
191.72	-0.000
191.94	-0.000
192.16	-0.000
192.37	-0.000
192.59	-0.000
192.80	-0.000
193.02	-0.000
193.23	-0.000
193.45	-0.000
193.66	-0.000
193.88	-0.000
194.09	-0.000
194.31	-0.000
194.52	-0.000
194.74	-0.000
194.95	-0.000
195.17	-0.000
195.38	-0.000
195.60	-0.000
195.81	-0.000
196.03	-0.000
196.25	-0.000
196.46	-0.000
196.68	-0.000
196.89	-0.000
197.11	-0.000
197.32	-0.000
197.54	-0.000
197.75	-0.000
197.97	-0.000
198.18	-0.000
198.40	-0.000
198.61	-0.000
198.83	-0.000
199.04	-0.000
199.26	-0.000
199.47	-0.000
199.69	-0.000
199.90	-0.000
200.12	-0.000
200.33	-0.000
200.55	-0.000
200.76	-0.000
200.98	-0.000
201.19	-0.000
201.41	-0.000
201.62	-0.000
201.84	-0.000
202.05	-0.000
202.27	-0.000
202.48	-0.000
202.70	-0.000
202.91	-0.000
203.13	-0.000
203.34	-0.000
203.56	-0.000
203.77	-0.000
203.99	-0.000
204.20	-0.000
204.42	-0.000
204.63	-0.000
204.85	-0.000
205.06	-0.000
205.28	-0.000
205.49	-0.000
205.71	-0.000
205.92	-0.000
206.14	-0.000
206.35	-0.000
206.56	-0.000
206.78	-0.000
206.99	-0.000
207.21	-0.000
207.42	-0.000
207.64	-0.000
207.85	-0.000
208.07	-0.000
208.28	-0.000
208.50	-0.000
208.71	-0.000
208.93	-0.000
209.14	-0.000
209.36	-0.000
209.57	-0.000
209.79	-0.000
210.00	-0.000
210.22	-0.000
210.43	-0.000
210.64	-0.000
210.86	-0.000
211.07	-0.000
211.29	-0.000
211.50	-0.000
211.72	-0.000
211.93	-0.000
212.15	-0.000
212.36	-0.000
212.58	-0.000
212.79	-0.000
213.01	-0.000
213.22	-0.000
213.43	-0.000
213.65	-0.000
213.86	-0.000
214.08	-0.000
214.29	-0.000
214.51	-0.000
214.72	-0.000
214.94	-0.000
215.15	-0.000
215.36	-0.000
215.58	-0.000
215.79	-0.000
216.01	-0.000
216.22	-0.000
216.44	-0.000
216.65	-0.000
216.87	-0.000
217.08	-0.000
217.29	-0.000
217.51	-0.000
217.72	-0.000
217.94	-0.000
218.15	-0.000
218.37	-0.000
218.58	-0.000
218.80	-0.000
219.01	-0.000
219.22	-0.000
219.44	-0.000
219.65	-0.000
219.87	-0.000
220.08	-0.000
220.30	-0.000
220.51	-0.000
220.72	-0.000
220.94	-0.000
221.15	-0.000
221.37	-0.000
221.58	-0.000
221.79	-0.000
222.01	-0.000
222.22	-0.000
222.44	-0.000
222.65	-0.000
222.87	-0.000
223.08	-0.000
223.29	-0.000
223.51	-0.000
223.72	-0.000
223.94	-0.000
224.15	-0.000
224.36	-0.000
224.58	-0.000
224.79	-0.000
225.01	-0.000
225.22	-0.000
225.44	-0.000
225.65	-0.000
225.86	-0.000
226.08	-0.000
226.29	-0.000
226.51	-0.000
226.72	-0.000
226.93	-0.000
227.15	-0.000
227.36	-0.000
227.58	-0.000
227.79	-0.000
228.00	-0.000
228.22	-0.000
228.43	-0.000
228.65	-0.000
228.86	-0.000
229.07	-0.000
229.29	-0.000
229.50	-0.000
229.72	-0.000
229.93	-0.000
230.14	-0.000
230.36	-0.000
230.57	-0.000
230.78	-0.000
231.00	-0.000
231.21	-0.000
231.43	-0.000
231.64	-0.000
231.85	-0.000
232.07	-0.000
232.28	-0.000
232.50	-0.000
232.71	-0.000
232.92	-0.000
233.14	-0.000
233.35	-0.000
233.56	-0.000
233.78	-0.000
233.99	-0.000
234.21	-0.000
234.42	-0.000
234.63	-0.000
234.85	-0.000
235.06	-0.000
235.27	-0.000
235.49	-0.000
235.70	-0.000
235.91	-0.000
236.13	-0.000
236.34	-0.000
236.56	-0.000
236.77	-0.000
236.98	-0.000
237.20	-0.000
237.41	-0.000
237.62	-0.000
237.84	-0.000
238.05	-0.000
238.26	-0.000
238.48	-0.000
238.69	-0.000
238.91	-0.000
239.12	-0.000
239.33	-0.000
239.55	-0.000
239.76	-0.000
239.97	-0.000
240.19	-0.000
240.40	-0.000
240.61	-0.000
240.83	-0.000
241.04	-0.000
241.25	-0.000
241.47	-0.000
241.68	-0.000
241.89	-0.000
242.11	-0.000
242.32	-0.000
242.53	-0.000
242.75	-0.000
242.96	-0.000
243.17	-0.000
243.39	-0.000
243.60	-0.000
243.81	-0.000
244.03	-0.000
244.24	-0.000
244.45	-0.000
244.67	-0.000
244.88	-0.000
245.09	-0.000
245.31	-0.000
245.52	-0.000
245.73	-0.000
245.95	-0.000
246.16	-0.000
246.37	-0.000
246.59	-0.000
246.80	-0.000
247.01	-0.000
247.23	-0.000
247.44	-0.000
247.65	-0.000
247.87	-0.000
248.08	-0.000
248.29	-0.000
248.51	-0.000
248.72	-0.000
248.93	-0.000
249.15	-0.000
249.36	-0.000
249.57	-0.000
249.78	-0.000
250.00	-0.000
250.21	-0.000
250.42	-0.000
250.64	-0.000
250.85	-0.000
251.06	-0.000
251.28	-0.000
251.49	-0.000
251.70	-0.000
251.92	-0.000
252.13	-0.000
252.34	-0.000
252.55	-0.000
252.77	-0.000
252.98	-0.000
253.19	-0.000
253.41	-0.000
253.62	-0.000
253.83	-0.000
254.05	-0.000
254.26	-0.000
254.47	-0.000
254.68	-0.000
254.90	-0.000
255.11	-0.000
255.32	-0.000
255.54	-0.000
255.75	-0.000
255.96	-0.000
256.17	-0.000
256.39	-0.000
256.60	-0.000
256.81	-0.000
257.03	-0.000
257.24	-0.000
257.45	-0.000
257.66	-0.000
257.88	-0.000
258.09	-0.000
258.30	-0.000
258.51	-0.000
258.73	-0.000
258.94	-0.000
259.15	-0.000
259.37	-0.000
259.58	-0.000
259.79	-0.000
260.00	-0.000
260.22	-0.000
260.43	-0.000
260.64	-0.000
260.85	-0.000
261.07	-0.000
261.28	-0.000
261.49	-0.000
261.71	-0.000
261.92	-0.000
262.13	-0.000
262.34	-0.000
262.56	-0.000
262.77	-0.000
262.98	-0.000
263.19	-0.000
263.41	-0.000
263.62	-0.000
263.83	-0.000
264.04	-0.000
264.26	-0.000
264.47	-0.000
264.68	-0.000
264.89	-0.000
265.11	-0.000
265.32	-0.000
265.53	-0.000
265.74	-0.000
265.96	-0.000
266.17	-0.000
266.38	-0.000
266.59	-0.000
266.81	-0.000
267.02	-0.000
267.23	-0.000
267.44	-0.000
267.65	-0.000
267.87	-0.000
268.08	-0.000
268.29	-0.000
268.50	-0.000
268.72	-0.000
268.93	-0.000
269.14	-0.000
269.35	-0.000
269.57	-0.000
269.78	-0.000
269.99	-0.000
270.20	-0.000
270.41	-0.000
270.63	-0.000
270.84	-0.000
271.05	-0.000
271.26	-0.000
271.48	-0.000
271.69	-0.000
271.90	-0.000
272.11	-0.000
272.32	-0.000
272.54	-0.000
272.75	-0.000
272.96	-0.000
273.17	-0.000
273.39	-0.000
273.60	-0.000
273.81	-0.000
274.02	-0.000
274.23	-0.000
274.45	-0.000
274.66	-0.000
274.87	-0.000
275.08	-0.000
275.29	-0.000
275.51	-0.000
275.72	-0.000
275.93	-0.000
276.14	-0.000
276.35	-0.000
276.57	-0.000
276.78	-0.000
276.99	-0.000
277.20	-0.000
277.41	-0.000
277.63	-0.000
277.84	-0.000
278.05	-0.000
278.26	-0.000
278.47	-0.000
278.69	-0.000
278.90	-0.000
279.11	-0.000
279.32	-0.000
279.53	-0.000
279.74	-0.000
279.96	-0.000
280.17	-0.000
280.38	-0.000
280.59	-0.000
280.80	-0.000
281.02	-0.000
281.23	-0.000
281.44	-0.000
281.65	-0.000
281.86	-0.000
282.07	-0.000
282.29	-0.000
282.50	-0.000
282.71	-0.000
282.92	-0.000
283.13	-0.000
283.35	-0.000
283.56	-0.000
283.77	-0.000
283.98	-0.000
284.19	-0.000
284.40	-0.000
284.62	-0.000
284.83	-0.000
285.04	-0.000
285.25	-0.000
285.46	-0.000
285.67	-0.000
285.88	-0.000
286.10	-0.000
286.31	-0.000
286.52	-0.000
286.73	-0.000
286.94	-0.000
287.15	-0.000
287.37	-0.000
287.58	-0.000
287.79	-0.000
288.00	-0.000
288.21	-0.000
288.42	-0.000
288.63	-0.000
288.85	-0.000
289.06	-0.000
289.27	-0.000
289.48	-0.000
289.69	-0.000
289.90	-0.000
290.11	-0.000
290.33	-0.000
290.54	-0.000
290.75	-0.000
290.96	-0.000
291.17	-0.000
291.38	-0.000
291.59	-0.000
291.81	-0.000
292.02	-0.000
292.23	-0.000
292.44	-0.000
292.65	-0.000
292.86	-0.000
293.07	-0.000
293.28	-0.000
293.50	-0.000
293.71	-0.000
293.92	-0.000
294.13	-0.000
294.34	-0.000
294.55	-0.000
294.76	-0.000
294.97	-0.000
295.19	-0.000
295.40	-0.000
295.61	-0.000
295.82	-0.000
296.03	-0.000
296.24	-0.000
296.45	2.153
296.66	1.810
296.87	1.821
297.09	1.871
297.30	2.117
297.51	1.731
297.72	1.692
297.93	1.781
298.14	1.739
298.35	1.688
298.56	1.656
298.77	1.772
298.99	1.740
299.20	1.732
299.41	1.716
299.62	1.659
299.83	1.645
300.04	1.589
300.25	1.580
300.46	1.613
300.67	1.587
300.88	1.548
301.10	1.547
301.31	1.615
301.52	1.554
301.73	1.504
301.94	1.510
302.15	1.525
302.36	1.484
302.57	1.425
302.78	1.432
302.99	1.470
303.20	1.490
303.41	1.402
303.63	1.387
303.84	1.389
304.05	1.389
304.26	1.328
304.47	1.335
304.68	1.333
304.89	1.327
305.10	1.291
305.31	1.279
305.52	1.318
305.73	1.311
305.94	1.271
306.15	1.263
306.37	1.280
306.58	1.289
306.79	1.265
307.00	1.288
307.21	1.324
307.42	1.317
307.63	1.283
307.84	1.250
308.05	1.285
308.26	1.283
308.47	1.264
308.68	1.262
308.89	1.261
309.10	1.254
309.31	1.217
309.52	1.207
309.73	1.221
309.95	1.217
310.16	1.193
310.37	1.182
310.58	1.201
310.79	1.198
311.00	1.194
311.21	1.195
311.42	1.197
311.63	1.191
311.84	1.174
312.05	1.173
312.26	1.194
312.47	1.204
312.68	1.180
312.89	1.162
313.10	1.166
313.31	1.140
313.52	1.145
313.73	1.146
313.94	1.148
314.15	1.131
314.36	1.110
314.57	1.101
314.78	1.088
314.99	1.084
315.21	1.073
315.42	1.079
315.63	1.090
315.84	1.068
316.05	1.054
316.26	1.063
316.47	1.080
316.68	1.077
316.89	1.059
317.10	1.079
317.31	1.084
317.52	1.086
317.73	1.066
317.94	1.066
318.15	1.107
318.36	1.109
318.57	1.089
318.78	1.079
318.99	1.113
319.20	1.111
319.41	1.078
319.62	1.080
319.83	1.093
320.04	1.087
320.25	1.073
320.46	1.042
320.67	1.044
320.88	1.042
321.09	1.027
321.30	1.012
321.51	1.026
321.72	1.023
321.93	1.007
322.14	0.998
322.35	1.024
322.56	1.026
322.77	1.014
322.98	1.024
323.19	1.031
323.40	1.037
323.61	1.018
323.82	1.014
324.03	1.018
324.24	1.016
324.45	1.006
324.66	0.987
324.87	0.983
325.08	0.982
325.29	0.963
325.50	0.955
325.71	0.960
325.92	0.967
326.13	0.954
326.34	0.955
326.55	0.962
326.76	0.960
326.97	0.950
327.18	0.945
327.39	0.970
327.60	0.970
327.80	0.972
328.01	0.971
328.22	0.970
328.43	0.974
328.64	0.962
328.85	0.965
329.06	0.967
329.27	0.968
329.48	0.965
329.69	0.945
329.90	0.956
330.11	0.949
330.32	0.944
330.53	0.936
330.74	0.934
330.95	0.933
331.16	0.920
331.37	0.928
331.58	0.927
331.79	0.926
332.00	0.918
332.21	0.911
332.42	0.914
332.63	0.905
332.83	0.903
333.04	0.907
333.25	0.917
333.46	0.916
333.67	0.903
333.88	0.907
334.09	0.917
334.30	0.914
334.51	0.905
334.72	0.902
334.93	0.903
335.14	0.902
335.35	0.895
335.56	0.891
335.77	0.900
335.98	0.898
336.18	0.891
336.39	0.883
336.60	0.887
336.81	0.887
337.02	0.886
337.23	0.891
337.44	0.894
337.65	0.897
337.86	0.886
338.07	0.880
338.28	0.884
338.49	0.882
338.70	0.876
338.91	0.882
339.11	0.889
339.32	0.885
339.53	0.874
339.74	0.870
339.95	0.866
340.16	0.865
340.37	0.858
340.58	0.855
340.79	0.858
341.00	0.857
341.21	0.847
341.41	0.845
341.62	0.845
341.83	0.845
342.04	0.842
342.25	0.852
342.46	0.855
342.67	0.855
342.88	0.850
343.09	0.849
343.30	0.856
343.50	0.859
343.71	0.850
343.92	0.849
344.13	0.853
344.34	0.852
344.55	0.837
344.76	0.836
344.97	0.839
345.18	0.837
345.38	0.835
345.59	0.830
345.80	0.829
346.01	0.828
346.22	0.825
346.43	0.819
346.64	0.828
346.85	0.827
347.06	0.820
347.26	0.820
347.47	0.824
347.68	0.819
347.89	0.815
348.10	0.810
348.31	0.815
348.52	0.814
348.73	0.812
348.93	0.808
349.14	0.810
349.35	0.810
349.56	0.805
349.77	0.801
349.98	0.807
350.19	0.804
350.39	0.800
350.60	0.797
350.81	0.812
351.02	0.811
351.23	0.807
351.44	0.809
351.65	0.811
351.86	0.808
352.06	0.808
352.27	0.806
352.48	0.808
352.69	0.808
352.90	0.803
353.11	0.789
353.31	0.795
353.52	0.792
353.73	0.783
353.94	0.785
354.15	0.790
354.36	0.790
354.57	0.782
354.77	0.784
354.98	0.783
355.19	0.783
355.40	0.782
355.61	0.788
355.82	0.791
356.02	0.791
356.23	0.784
356.44	0.786
356.65	0.789
356.86	0.789
357.07	0.784
357.27	0.786
357.48	0.788
357.69	0.783
357.90	0.769
358.11	0.766
358.32	0.769
358.52	0.771
358.73	0.762
358.94	0.764
359.15	0.767
359.36	0.768
359.56	0.764
359.77	0.762
359.98	0.769
360.19	0.769
360.40	0.766
360.61	0.767
360.81	0.765
361.02	0.765
361.23	0.758
361.44	0.757
361.65	0.756
361.85	0.755
362.06	0.754
362.27	0.755
362.48	0.756
362.69	0.758
362.89	0.752
363.10	0.754
363.31	0.758
363.52	0.760
363.73	0.755
363.93	0.755
364.14	0.756
364.35	0.758
364.56	0.749
364.77	0.749
364.97	0.751
365.18	0.752
365.39	0.746
365.60	0.743
365.81	0.744
366.01	0.745
366.22	0.742
366.43	0.741
366.64	0.741
366.84	0.748
367.05	0.745
367.26	0.745
367.47	0.746
367.68	0.747
367.88	0.744
368.09	0.742
368.30	0.744
368.51	0.744
368.71	0.743
368.92	0.747
369.13	0.744
369.34	0.744
369.55	0.743
369.75	0.743
369.96	0.750
370.17	0.749
370.38	0.747
370.58	0.747
370.79	0.751
371.00	0.749
371.21	0.741
371.41	0.746
371.62	0.750
371.83	0.746
372.04	0.744
372.24	0.737
372.45	0.738
372.66	0.739
372.87	0.736
373.07	0.733
373.28	0.735
373.49	0.739
373.70	0.730
373.90	0.729
374.11	0.737
374.32	0.736
374.53	0.736
374.73	0.736
374.94	0.738
375.15	0.737
375.36	0.734
375.56	0.743
375.77	0.742
375.98	0.742
376.19	0.741
376.39	0.735
376.60	0.738
376.81	0.739
377.02	0.737
377.22	0.736
377.43	0.736
377.64	0.737
377.84	0.729
378.05	0.733
378.26	0.739
378.47	0.738
378.67	0.735
378.88	0.733
379.09	0.733
379.30	0.733
379.50	0.731
379.71	0.733
379.92	0.735
380.12	0.734
380.33	0.727
380.54	0.723
380.75	0.729
380.95	0.729
381.16	0.727
381.37	0.727
381.57	0.728
381.78	0.728
381.99	0.729
382.20	0.729
382.40	0.731
382.61	0.732
382.82	0.729
383.02	0.722
383.23	0.726
383.44	0.725
383.64	0.724
383.85	0.727
384.06	0.729
384.27	0.726
384.47	0.725
384.68	0.725
384.89	0.731
385.09	0.730
385.30	0.730
385.51	0.729
385.71	0.734
385.92	0.733
386.13	0.732
386.33	0.735
386.54	0.736
386.75	0.734
386.95	0.731
387.16	0.727
387.37	0.730
387.58	0.730
387.78	0.729
387.99	0.726
388.20	0.728
388.40	0.725
388.61	0.720
388.82	0.724
389.02	0.726
389.23	0.726
389.44	0.724
389.64	0.724
389.85	0.735
390.06	0.734
390.26	0.735
390.47	0.735
390.68	0.737
390.88	0.736
391.09	0.731
391.30	0.730
391.50	0.731
391.71	0.730
391.92	0.728
392.12	0.721
392.33	0.722
392.53	0.722
392.74	0.722
392.95	0.721
393.15	0.723
393.36	0.726
393.57	0.724
393.77	0.726
393.98	0.729
394.19	0.727
394.39	0.726
394.60	0.728
394.81	0.729
395.01	0.727
395.22	0.725
395.43	0.726
395.63	0.731
395.84	0.732
396.04	0.729
396.25	0.730
396.46	0.732
396.66	0.731
396.87	0.729
397.08	0.726
397.28	0.728
397.49	0.729
397.69	0.726
397.90	0.721
398.11	0.722
398.31	0.722
398.52	0.719
398.73	0.721
398.93	0.720
399.14	0.719
399.34	0.718
399.55	0.719
399.76	0.719
399.96	0.720
400.17	0.719
400.37	0.718
400.58	0.725
400.79	0.726
400.99	0.723
401.20	0.729
401.41	0.731
401.61	0.733
401.82	0.738
402.02	0.738
402.23	0.739
402.44	0.739
402.64	0.739
402.85	0.733
403.05	0.732
403.26	0.731
403.47	0.725
403.67	0.725
403.88	0.724
404.08	0.719
404.29	0.717
404.50	0.716
404.70	0.716
404.91	0.715
405.11	0.713
405.32	0.713
405.52	0.713
405.73	0.713
405.94	0.712
406.14	0.715
406.35	0.717
406.55	0.717
406.76	0.715
406.97	0.716
407.17	0.718
407.38	0.718
407.58	0.716
407.79	0.719
407.99	0.722
408.20	0.722
408.41	0.718
408.61	0.716
408.82	0.717
409.02	0.717
409.23	0.715
409.43	0.714
409.64	0.715
409.84	0.715
410.05	0.711
410.26	0.710
410.46	0.709
410.67	0.708
410.87	0.710
411.08	0.712
411.28	0.713
411.49	0.715
411.69	0.713
411.90	0.714
412.11	0.716
412.31	0.717
412.52	0.715
412.72	0.716
412.93	0.716
413.13	0.715
413.34	0.712
413.54	0.713
413.75	0.714
413.95	0.714
414.16	0.710
414.37	0.713
414.57	0.713
414.78	0.716
414.98	0.715
415.19	0.716
415.39	0.713
415.60	0.716
415.80	0.714
416.01	0.712
416.21	0.714
416.42	0.714
416.62	0.709
416.83	0.710
417.03	0.709
417.24	0.708
417.44	0.706
417.65	0.706
417.86	0.706
418.06	0.704
418.27	0.702
418.47	0.704
418.68	0.704
418.88	0.705
419.09	0.703
419.29	0.704
419.50	0.704
419.70	0.704
419.91	0.703
420.11	0.700
420.32	0.703
420.52	0.702
420.73	0.702
420.93	0.703
421.14	0.705
421.34	0.704
421.55	0.701
421.75	0.700
421.96	0.701
422.16	0.701
422.37	0.701
422.57	0.698
422.78	0.700
422.98	0.696
423.19	0.694
423.39	0.692
423.60	0.695
423.80	0.696
424.01	0.695
424.21	0.698
424.42	0.699
424.62	0.699
424.83	0.698
425.03	0.698
425.23	0.700
425.44	0.700
425.64	0.700
425.85	0.699
426.05	0.699
426.26	0.700
426.46	0.696
426.67	0.695
426.87	0.699
427.08	0.700
427.28	0.698
427.49	0.699
427.69	0.700
427.90	0.699
428.10	0.696
428.31	0.696
428.51	0.698
428.71	0.697
428.92	0.699
429.12	0.696
429.33	0.696
429.53	0.700
429.74	0.704
429.94	0.704
430.15	0.703
430.35	0.704
430.56	0.701
430.76	0.699
430.96	0.700
431.17	0.697
431.37	0.694
431.58	0.692
431.78	0.689
431.99	0.681
432.19	0.683
432.40	0.685
432.60	0.685
432.80	0.688
433.01	0.686
433.21	0.686
433.42	0.688
433.62	0.689
433.83	0.689
434.03	0.690
434.23	0.693
434.44	0.692
434.64	0.689
434.85	0.695
435.05	0.696
435.26	0.696
435.46	0.694
435.66	0.694
435.87	0.694
436.07	0.694
436.28	0.690
436.48	0.688
436.69	0.687
436.89	0.687
437.09	0.681
437.30	0.680
437.50	0.680
437.71	0.692
437.91	0.691
438.11	0.692
438.32	0.696
438.52	0.696
438.73	0.695
438.93	0.694
439.13	0.693
439.34	0.697
439.54	0.695
439.75	0.695
439.95	0.685
440.15	0.690
440.36	0.688
440.56	0.685
440.77	0.686
440.97	0.686
441.17	0.684
441.38	0.685
441.58	0.682
441.79	0.681
441.99	0.680
442.19	0.679
442.40	0.676
442.60	0.675
442.81	0.673
443.01	0.674
443.21	0.674
443.42	0.673
443.62	0.672
443.82	0.672
444.03	0.673
444.23	0.673
444.44	0.673
444.64	0.672
444.84	0.674
445.05	0.674
445.25	0.672
445.45	0.672
445.66	0.674
445.86	0.674
446.06	0.675
446.27	0.674
446.47	0.677
446.68	0.675
446.88	0.674
447.08	0.673
447.29	0.675
447.49	0.675
447.69	0.674
447.90	0.673
448.10	0.676
448.30	0.674
448.51	0.676
448.71	0.673
448.91	0.676
449.12	0.675
449.32	0.676
449.52	0.675
449.73	0.678
449.93	0.678
450.14	0.678
450.34	0.676
450.54	0.678
450.75	0.675
450.95	0.675
451.15	0.674
451.36	0.676
451.56	0.673
451.76	0.671
451.97	0.669
452.17	0.669
452.37	0.667
452.58	0.664
452.78	0.664
452.98	0.666
453.19	0.665
453.39	0.666
453.59	0.664
453.79	0.665
454.00	0.665
454.20	0.664
454.40	0.665
454.61	0.667
454.81	0.668
455.01	0.666
455.22	0.667
455.42	0.669
455.62	0.666
455.83	0.666
456.03	0.670
456.23	0.670
456.44	0.671
456.64	0.670
456.84	0.670
457.04	0.671
457.25	0.670
457.45	0.668
457.65	0.667
457.86	0.668
458.06	0.667
458.26	0.662
458.47	0.662
458.67	0.662
458.87	0.662
459.07	0.659
459.28	0.660
459.48	0.663
459.68	0.662
459.89	0.661
460.09	0.660
460.29	0.660
460.49	0.662
460.70	0.660
460.90	0.660
461.10	0.661
461.31	0.660
461.51	0.657
461.71	0.660
461.91	0.661
462.12	0.661
462.32	0.661
462.52	0.661
462.72	0.664
462.93	0.665
463.13	0.664
463.33	0.664
463.53	0.666
463.74	0.665
463.94	0.661
464.14	0.662
464.35	0.663
464.55	0.663
464.75	0.661
464.95	0.659
465.16	0.660
465.36	0.659
465.56	0.658
465.76	0.657
465.97	0.657
466.17	0.658
466.37	0.656
466.57	0.656
466.78	0.657
466.98	0.657
467.18	0.655
467.38	0.654
467.59	0.655
467.79	0.657
467.99	0.656
468.19	0.657
468.39	0.660
468.60	0.660
468.80	0.658
469.00	0.660
469.20	0.661
469.41	0.661
469.61	0.661
469.81	0.662
470.01	0.661
470.22	0.661
470.42	0.659
470.62	0.657
470.82	0.658
471.02	0.658
471.23	0.656
471.43	0.657
471.63	0.659
471.83	0.659
472.04	0.657
472.24	0.656
472.44	0.662
472.64	0.662
472.84	0.660
473.05	0.660
473.25	0.663
473.45	0.662
473.65	0.660
473.85	0.661
474.06	0.661
474.26	0.661
474.46	0.662
474.66	0.658
474.86	0.659
475.07	0.659
475.27	0.657
475.47	0.655
475.67	0.655
475.87	0.657
476.08	0.654
476.28	0.655
476.48	0.656
476.68	0.654
476.88	0.652
477.09	0.653
477.29	0.655
477.49	0.655
477.69	0.654
477.89	0.654
478.09	0.653
478.30	0.655
478.50	0.652
478.70	0.652
478.90	0.653
479.10	0.655
479.31	0.657
479.51	0.655
479.71	0.656
479.91	0.656
480.11	0.655
480.31	0.655
480.52	0.654
480.72	0.654
480.92	0.653
481.12	0.652
481.32	0.650
481.52	0.647
481.72	0.647
481.93	0.651
482.13	0.651
482.33	0.651
482.53	0.649
482.73	0.650
482.93	0.652
483.14	0.651
483.34	0.650
483.54	0.651
483.74	0.650
483.94	0.650
484.14	0.645
484.34	0.645
484.55	0.646
484.75	0.646
484.95	0.644
485.15	0.643
485.35	0.642
485.55	0.642
485.75	0.640
485.96	0.640
486.16	0.642
486.36	0.641
486.56	0.639
486.76	0.639
486.96	0.639
487.16	0.638
487.36	0.637
487.57	0.637
487.77	0.637
487.97	0.638
488.17	0.636
488.37	0.635
488.57	0.636
488.77	0.636
488.97	0.635
489.18	0.634
489.38	0.637
489.58	0.637
489.78	0.637
489.98	0.636
490.18	0.636
490.38	0.637
490.58	0.636
490.78	0.636
490.98	0.638
491.19	0.638
491.39	0.637
491.59	0.636
491.79	0.639
491.99	0.639
492.19	0.639
492.39	0.642
492.59	0.642
492.79	0.644
492.99	0.644
493.20	0.645
493.40	0.645
493.60	0.647
493.80	0.645
494.00	0.643
494.20	0.643
494.40	0.643
494.60	0.641
494.80	0.645
495.00	0.644
495.20	0.642
495.40	0.641
495.61	0.642
495.81	0.642
496.01	0.645
496.21	0.646
496.41	0.645
496.61	0.646
496.81	0.645
497.01	0.640
497.21	0.639
497.41	0.640
497.61	0.639
497.81	0.637
498.01	0.637
498.21	0.635
498.41	0.632
498.61	0.633
498.82	0.634
499.02	0.635
499.22	0.636
499.42	0.636
499.62	0.637
499.82	0.638
500.02	0.640
500.22	0.638
500.42	0.640
500.62	0.641
500.82	0.641
501.02	0.640
501.22	0.640
501.42	0.639
501.62	0.641
501.82	0.640
502.02	0.641
502.22	0.639
502.42	0.641
502.62	0.639
502.82	0.639
503.02	0.639
503.22	0.639
503.42	0.637
503.63	0.637
503.83	0.635
504.03	0.634
504.23	0.634
504.43	0.634
504.63	0.635
504.83	0.635
505.03	0.635
505.23	0.636
505.43	0.638
505.63	0.639
505.83	0.638
506.03	0.640
506.23	0.641
506.43	0.641
506.63	0.640
506.83	0.639
507.03	0.640
507.23	0.640
507.43	0.638
507.63	0.638
507.83	0.639
508.03	0.639
508.23	0.639
508.43	0.637
508.63	0.639
508.83	0.639
509.03	0.641
509.23	0.640
509.43	0.640
509.63	0.640
509.83	0.639
510.03	0.642
510.23	0.642
510.43	0.643
510.63	0.644
510.83	0.644
511.03	0.645
511.23	0.642
511.43	0.643
511.63	0.645
511.83	0.647
512.03	0.647
512.22	0.644
512.42	0.644
512.62	0.645
512.82	0.644
513.02	0.643
513.22	0.643
513.42	0.645
513.62	0.647
513.82	0.644
514.02	0.644
514.22	0.645
514.42	0.646
514.62	0.646
514.82	0.646
515.02	0.648
515.22	0.651
515.42	0.650
515.62	0.652
515.82	0.651
516.02	0.652
516.22	0.652
516.42	0.654
516.62	0.655
516.82	0.657
517.01	0.655
517.21	0.654
517.41	0.657
517.61	0.657
517.81	0.654
518.01	0.653
518.21	0.652
518.41	0.651
518.61	0.650
518.81	0.651
519.01	0.652
519.21	0.652
519.41	0.652
519.61	0.647
519.81	0.649
520.00	0.650
520.20	0.651
520.40	0.654
520.60	0.654
520.80	0.654
521.00	0.654
521.20	0.655
521.40	0.659
521.60	0.659
521.80	0.658
522.00	0.657
522.20	0.659
522.39	0.658
522.59	0.654
522.79	0.656
522.99	0.658
523.19	0.657
523.39	0.655
523.59	0.654
523.79	0.657
523.99	0.659
524.19	0.658
524.38	0.657
524.58	0.659
524.78	0.659
524.98	0.658
525.18	0.660
525.38	0.660
525.58	0.660
525.78	0.658
525.98	0.657
526.18	0.657
526.37	0.657
526.57	0.659
526.77	0.659
526.97	0.659
527.17	0.659
527.37	0.655
527.57	0.658
527.77	0.659
527.96	0.660
528.16	0.659
528.36	0.660
528.56	0.661
528.76	0.658
528.96	0.657
529.16	0.658
529.36	0.661
529.55	0.661
529.75	0.658
529.95	0.658
530.15	0.660
530.35	0.662
530.55	0.659
530.75	0.659
530.94	0.660
531.14	0.661
531.34	0.661
531.54	0.658
531.74	0.662
531.94	0.665
532.13	0.663
532.33	0.664
532.53	0.663
532.73	0.664
532.93	0.662
533.13	0.663
533.33	0.663
533.52	0.663
533.72	0.667
533.92	0.665
534.12	0.663
534.32	0.663
534.52	0.661
534.71	0.663
534.91	0.665
535.11	0.667
535.31	0.665
535.51	0.667
535.71	0.669
535.90	0.666
536.10	0.667
536.30	0.669
536.50	0.670
536.70	0.670
536.89	0.668
537.09	0.668
537.29	0.669
537.49	0.669
537.69	0.667
537.89	0.667
538.08	0.666
538.28	0.664
538.48	0.665
538.68	0.666
538.88	0.668
539.07	0.668
539.27	0.666
539.47	0.665
539.67	0.665
539.87	0.666
540.06	0.665
540.26	0.666
540.46	0.668
540.66	0.665
540.86	0.663
541.05	0.663
541.25	0.665
541.45	0.665
541.65	0.664
541.84	0.666
542.04	0.666
542.24	0.667
542.44	0.666
542.64	0.668
542.83	0.670
543.03	0.671
543.23	0.668
543.43	0.669
543.62	0.670
543.82	0.670
544.02	0.669
544.22	0.669
544.42	0.672
544.61	0.672
544.81	0.669
545.01	0.667
545.21	0.669
545.40	0.670
545.60	0.668
545.80	0.671
546.00	0.672
546.19	0.671
546.39	0.671
546.59	0.668
546.79	0.669
546.98	0.670
547.18	0.669
547.38	0.670
547.58	0.672
547.77	0.673
547.97	0.669
548.17	0.671
548.37	0.671
548.56	0.671
548.76	0.670
548.96	0.671
549.16	0.674
549.35	0.674
549.55	0.672
549.75	0.672
549.95	0.676
550.14	0.676
550.34	0.675
550.54	0.680
550.73	0.683
550.93	0.684
551.13	0.682
551.33	0.680
551.52	0.681
551.72	0.681
551.92	0.679
552.12	0.679
552.31	0.680
552.51	0.680
552.71	0.675
552.90	0.675
553.10	0.675
553.30	0.676
553.50	0.674
553.69	0.676
553.89	0.676
554.09	0.676
554.28	0.674
554.48	0.675
554.68	0.677
554.87	0.677
555.07	0.674
555.27	0.674
555.47	0.676
555.66	0.677
555.86	0.676
556.06	0.678
556.25	0.679
556.45	0.687
556.65	0.685
556.84	0.688
557.04	0.691
557.24	0.693
557.43	0.692
557.63	0.695
557.83	0.696
558.02	0.697
558.22	0.701
558.42	0.702
558.61	0.694
558.81	0.695
559.01	0.691
559.21	0.691
559.40	0.692
559.60	0.692
559.80	0.688
559.99	0.688
560.19	0.690
560.39	0.685
560.58	0.683
560.78	0.683
560.97	0.686
561.17	0.685
561.37	0.683
561.56	0.683
561.76	0.685
561.96	0.684
562.15	0.682
562.35	0.684
562.55	0.685
562.74	0.685
562.94	0.685
563.14	0.683
563.33	0.684
563.53	0.684
563.73	0.681
563.92	0.683
564.12	0.685
564.31	0.687
564.51	0.685
564.71	0.687
564.90	0.689
565.10	0.689
565.30	0.691
565.49	0.692
565.69	0.695
565.89	0.695
566.08	0.693
566.28	0.694
566.47	0.695
566.67	0.694
566.87	0.691
567.06	0.693
567.26	0.700
567.46	0.697
567.65	0.697
567.85	0.698
568.04	0.701
568.24	0.701
568.44	0.698
568.63	0.697
568.83	0.698
569.02	0.697
569.22	0.692
569.42	0.689
569.61	0.690
569.81	0.689
570.00	0.687
570.20	0.688
570.40	0.689
570.59	0.689
570.79	0.687
570.98	0.685
571.18	0.686
571.38	0.686
571.57	0.683
571.77	0.681
571.96	0.685
572.16	0.681
572.35	0.676
572.55	0.677
572.75	0.675
572.94	0.675
573.14	0.674
573.33	0.674
573.53	0.674
573.73	0.674
573.92	0.672
574.12	0.670
574.31	0.672
574.51	0.673
574.70	0.670
574.90	0.672
575.09	0.673
575.29	0.673
575.49	0.671
575.68	0.671
575.88	0.672
576.07	0.673
576.27	0.671
576.46	0.669
576.66	0.668
576.86	0.668
577.05	0.666
577.25	0.665
577.44	0.667
577.64	0.667
577.83	0.665
578.03	0.667
578.22	0.666
578.42	0.666
578.61	0.664
578.81	0.665
579.00	0.666
579.20	0.665
579.40	0.664
579.59	0.662
579.79	0.662
579.98	0.661
580.18	0.661
580.37	0.661
580.57	0.662
580.76	0.666
580.96	0.665
581.15	0.666
581.35	0.668
581.54	0.667
581.74	0.667
581.93	0.669
582.13	0.670
582.32	0.667
582.52	0.665
582.71	0.665
582.91	0.660
583.10	0.660
583.30	0.659
583.49	0.658
583.69	0.661
583.88	0.662
584.08	0.661
584.27	0.664
584.47	0.667
584.66	0.668
584.86	0.667
585.05	0.670
585.25	0.672
585.44	0.672
585.64	0.671
585.83	0.668
586.03	0.668
586.22	0.666
586.42	0.662
586.61	0.664
586.81	0.666
587.00	0.665
587.20	0.663
587.39	0.663
587.59	0.665
587.78	0.666
587.98	0.666
588.17	0.667
588.37	0.670
588.56	0.671
588.76	0.667
588.95	0.668
589.15	0.672
589.34	0.675
589.54	0.673
589.73	0.674
589.92	0.678
590.12	0.678
590.31	0.676
590.51	0.682
590.70	0.683
590.90	0.684
591.09	0.682
591.29	0.680
591.48	0.680
591.68	0.681
591.87	0.679
592.06	0.678
592.26	0.680
592.45	0.680
592.65	0.673
592.84	0.673
593.04	0.675
593.23	0.677
593.43	0.675
593.62	0.674
593.81	0.674
594.01	0.674
594.20	0.671
594.40	0.670
594.59	0.671
594.79	0.672
594.98	0.671
595.17	0.670
595.37	0.670
595.56	0.672
595.76	0.672
595.95	0.674
596.14	0.677
596.34	0.678
596.53	0.677
596.73	0.680
596.92	0.681
597.12	0.684
597.31	0.683
597.50	0.683
597.70	0.684
597.89	0.684
598.09	0.680
598.28	0.682
598.47	0.684
598.67	0.683
598.86	0.679
599.06	0.681
599.25	0.681
599.44	0.679
599.64	0.676
599.83	0.674
600.03	0.677
600.22	0.677
600.41	0.677
600.61	0.675
600.80	0.677
601.00	0.677
601.19	0.673
601.38	0.671
601.58	0.674
601.77	0.675
601.96	0.677
602.16	0.677
602.35	0.685
602.55	0.683
602.74	0.684
602.93	0.685
603.13	0.690
603.32	0.692
603.51	0.691
603.71	0.694
603.90	0.696
604.09	0.697
604.29	0.695
604.48	0.690
604.68	0.691
604.87	0.689
605.06	0.687
605.26	0.683
605.45	0.684
605.64	0.684
605.84	0.679
606.03	0.678
606.22	0.676
606.42	0.675
606.61	0.671
606.80	0.672
607.00	0.673
607.19	0.673
607.38	0.671
607.58	0.672
607.77	0.674
607.96	0.674
608.16	0.673
608.35	0.677
608.54	0.680
608.74	0.683
608.93	0.688
609.12	0.691
609.32	0.693
609.51	0.697
609.70	0.696
609.90	0.697
610.09	0.702
610.28	0.707
610.48	0.701
610.67	0.703
610.86	0.704
611.06	0.698
611.25	0.695
611.44	0.696
611.64	0.696
611.83	0.699
612.02	0.697
612.21	0.695
612.41	0.694
612.60	0.693
612.79	0.689
612.99	0.689
613.18	0.691
613.37	0.689
613.57	0.686
613.76	0.688
613.95	0.685
614.14	0.684
614.34	0.681
614.53	0.682
614.72	0.685
614.92	0.684
615.11	0.682
615.30	0.678
615.49	0.680
615.69	0.682
615.88	0.678
616.07	0.679
616.26	0.681
616.46	0.682
616.65	0.679
616.84	0.678
617.04	0.679
617.23	0.683
617.42	0.684
617.61	0.687
617.81	0.687
618.00	0.690
618.19	0.689
618.38	0.693
618.58	0.697
618.77	0.698
618.96	0.699
619.15	0.700
619.35	0.701
619.54	0.702
619.73	0.697
619.92	0.700
620.12	0.703
620.31	0.703
620.50	0.698
620.69	0.698
620.89	0.701
621.08	0.700
621.27	0.701
621.46	0.700
621.66	0.704
621.85	0.704
622.04	0.699
622.23	0.700
622.43	0.701
622.62	0.701
622.81	0.700
623.00	0.700
623.19	0.703
623.39	0.702
623.58	0.698
623.77	0.697
623.96	0.700
624.16	0.700
624.35	0.696
624.54	0.699
624.73	0.702
624.92	0.700
625.12	0.697
625.31	0.697
625.50	0.700
625.69	0.702
625.88	0.698
626.08	0.698
626.27	0.699
626.46	0.699
626.65	0.696
626.84	0.695
627.04	0.700
627.23	0.700
627.42	0.697
627.61	0.699
627.80	0.701
628.00	0.701
628.19	0.700
628.38	0.704
628.57	0.706
628.76	0.706
628.96	0.703
629.15	0.703
629.34	0.706
629.53	0.707
629.72	0.701
629.91	0.702
630.11	0.707
630.30	0.707
630.49	0.710
630.68	0.709
630.87	0.712
631.06	0.714
631.26	0.709
631.45	0.710
631.64	0.718
631.83	0.720
632.02	0.718
632.21	0.716
632.41	0.722
632.60	0.716
632.79	0.716
632.98	0.717
633.17	0.718
633.36	0.722
633.55	0.719
633.75	0.715
633.94	0.716
634.13	0.716
634.32	0.714
634.51	0.709
634.70	0.711
634.89	0.711
635.09	0.706
635.28	0.706
635.47	0.706
635.66	0.708
635.85	0.704
636.04	0.706
636.23	0.710
636.43	0.710
636.62	0.709
636.81	0.708
637.00	0.710
637.19	0.713
637.38	0.709
637.57	0.709
637.76	0.710
637.95	0.711
638.15	0.708
638.34	0.706
638.53	0.708
638.72	0.709
638.91	0.707
639.10	0.706
639.29	0.706
639.48	0.708
639.67	0.707
639.87	0.706
640.06	0.711
640.25	0.711
640.44	0.712
640.63	0.714
640.82	0.716
641.01	0.717
641.20	0.717
641.39	0.718
641.58	0.719
641.78	0.719
641.97	0.716
642.16	0.729
642.35	0.729
642.54	0.728
642.73	0.723
642.92	0.721
643.11	0.724
643.30	0.723
643.49	0.719
643.68	0.722
643.87	0.722
644.06	0.722
644.25	0.702
644.45	0.705
644.64	0.706
644.83	0.706
645.02	0.703
645.21	0.702
645.40	0.704
645.59	0.705
645.78	0.700
645.97	0.702
646.16	0.704
646.35	0.704
646.54	0.702
646.73	0.703
646.92	0.705
647.11	0.704
647.30	0.700
647.49	0.701
647.68	0.700
647.88	0.698
648.07	0.691
648.26	0.695
648.45	0.696
648.64	0.692
648.83	0.690
649.02	0.692
649.21	0.702
649.40	0.701
649.59	0.696
649.78	0.697
649.97	0.711
650.16	0.710
650.35	0.704
650.54	0.707
650.73	0.715
650.92	0.711
651.11	0.706
651.30	0.703
651.49	0.708
651.68	0.708
651.87	0.705
652.06	0.695
652.25	0.698
652.44	0.702
652.63	0.702
652.82	0.704
653.01	0.705
653.20	0.703
653.39	0.692
653.58	0.690
653.77	0.689
653.96	0.684
654.15	0.677
654.34	0.676
654.53	0.670
654.72	0.663
654.91	0.654
655.10	0.649
655.29	0.647
655.48	0.645
655.67	0.640
655.86	0.637
656.05	0.635
656.24	0.634
656.43	0.629
656.62	0.627
656.81	0.627
657.00	0.623
657.19	0.620
657.38	0.619
657.57	0.617
657.76	0.618
657.95	0.616
658.14	0.619
658.33	0.621
658.51	0.625
658.70	0.625
658.89	0.627
659.08	0.637
659.27	0.645
659.46	0.646
659.65	0.653
659.84	0.658
660.03	0.661
660.22	0.663
660.41	0.667
660.60	0.667
660.79	0.668
660.98	0.673
661.17	0.672
661.36	0.671
661.55	0.673
661.74	0.671
661.92	0.673
662.11	0.675
662.30	0.673
662.49	0.667
662.68	0.667
662.87	0.669
663.06	0.664
663.25	0.666
663.44	0.666
663.63	0.666
663.82	0.665
664.01	0.660
664.20	0.659
664.38	0.660
664.57	0.661
664.76	0.660
664.95	0.661
665.14	0.665
665.33	0.661
665.52	0.668
665.71	0.672
665.90	0.671
666.09	0.672
666.28	0.669
666.46	0.667
666.65	0.668
666.84	0.667
667.03	0.661
667.22	0.659
667.41	0.662
667.60	0.651
667.79	0.645
667.98	0.646
668.16	0.647
668.35	0.648
668.54	0.644
668.73	0.645
668.92	0.646
669.11	0.645
669.30	0.639
669.49	0.636
669.67	0.638
669.86	0.640
670.05	0.638
670.24	0.635
670.43	0.633
670.62	0.633
670.81	0.628
671.00	0.629
671.18	0.628
671.37	0.628
671.56	0.626
671.75	0.624
671.94	0.621
672.13	0.618
672.32	0.614
672.50	0.614
672.69	0.614
672.88	0.614
673.07	0.610
673.26	0.612
673.45	0.613
673.63	0.613
673.82	0.610
674.01	0.611
674.20	0.611
674.39	0.610
674.58	0.610
674.76	0.610
674.95	0.609
675.14	0.609
675.33	0.605
675.52	0.604
675.71	0.603
675.89	0.604
676.08	0.601
676.27	0.601
676.46	0.601
676.65	0.600
676.84	0.600
677.02	0.601
677.21	0.603
677.40	0.602
677.59	0.599
677.78	0.599
677.96	0.601
678.15	0.600
678.34	0.598
678.53	0.599
678.72	0.598
678.90	0.594
679.09	0.590
679.28	0.586
679.47	0.587
679.66	0.587
679.84	0.584
680.03	0.581
680.22	0.580
680.41	0.582
680.60	0.579
680.78	0.578
680.97	0.581
681.16	0.581
681.35	0.580
681.53	0.579
681.72	0.580
681.91	0.582
682.10	0.580
682.29	0.583
682.47	0.580
682.66	0.578
682.85	0.576
683.04	0.574
683.22	0.574
683.41	0.576
683.60	0.575
683.79	0.576
683.97	0.575
684.16	0.574
684.35	0.570
684.54	0.572
684.72	0.573
684.91	0.574
685.10	0.572
685.29	0.573
685.47	0.571
685.66	0.570
685.85	0.567
686.04	0.566
686.22	0.568
686.41	0.570
686.60	0.567
686.79	0.570
686.97	0.571
687.16	0.573
687.35	0.570
687.54	0.574
687.72	0.577
687.91	0.577
688.10	0.579
688.29	0.580
688.47	0.578
688.66	0.578
688.85	0.574
689.03	0.572
689.22	0.575
689.41	0.575
689.60	0.571
689.78	0.568
689.97	0.568
690.16	0.565
690.34	0.561
690.53	0.560
690.72	0.560
690.91	0.558
691.09	0.556
691.28	0.551
691.47	0.549
691.65	0.548
691.84	0.545
692.03	0.544
692.21	0.542
692.40	0.542
692.59	0.539
692.77	0.538
692.96	0.539
693.15	0.540
693.34	0.538
693.52	0.538
693.71	0.539
693.90	0.540
694.08	0.541
694.27	0.542
694.46	0.551
694.64	0.552
694.83	0.552
695.02	0.551
695.20	0.551
695.39	0.550
695.58	0.550
695.76	0.551
695.95	0.550
696.14	0.549
696.32	0.547
696.51	0.537
696.70	0.537
696.88	0.538
697.07	0.536
697.26	0.538
697.44	0.539
697.63	0.538
697.81	0.536
698.00	0.536
698.19	0.535
698.37	0.535
698.56	0.535
698.75	0.535
698.93	0.534
699.12	0.534
699.31	0.533
699.49	0.532
699.68	0.532
699.87	0.534
700.05	0.534
700.24	0.533
700.42	0.535
700.61	0.535
700.80	0.533
700.98	0.533
701.17	0.535
701.36	0.534
701.54	0.534
701.73	0.535
701.91	0.533
702.10	0.532
702.29	0.530
702.47	0.530
702.66	0.531
702.84	0.532
703.03	0.530
703.22	0.530
703.40	0.530
703.59	0.531
703.77	0.530
703.96	0.531
704.15	0.532
704.33	0.532
704.52	0.531
704.70	0.531
704.89	0.531
705.08	0.530
705.26	0.526
705.45	0.527
705.63	0.526
705.82	0.524
706.00	0.522
706.19	0.521
706.38	0.521
706.56	0.520
706.75	0.518
706.93	0.516
707.12	0.518
707.30	0.518
707.49	0.516
707.68	0.514
707.86	0.513
708.05	0.513
708.23	0.511
708.42	0.511
708.60	0.513
708.79	0.513
708.98	0.512
709.16	0.512
709.35	0.513
709.53	0.517
709.72	0.516
709.90	0.518
710.09	0.519
710.27	0.521
710.46	0.525
710.64	0.524
710.83	0.526
711.02	0.527
711.20	0.526
711.39	0.524
711.57	0.522
711.76	0.522
711.94	0.521
712.13	0.522
712.31	0.521
712.50	0.516
712.68	0.514
712.87	0.515
713.05	0.515
713.24	0.516
713.42	0.515
713.61	0.516
713.79	0.517
713.98	0.516
714.16	0.517
714.35	0.518
714.54	0.520
714.72	0.519
714.91	0.518
715.09	0.524
715.28	0.526
715.46	0.526
715.65	0.524
715.83	0.523
716.02	0.525
716.20	0.521
716.39	0.520
716.57	0.521
716.76	0.523
716.94	0.523
717.12	0.515
717.31	0.517
717.49	0.520
717.68	0.522
717.86	0.522
718.05	0.524
718.23	0.527
718.42	0.529
718.60	0.530
718.79	0.537
718.97	0.540
719.16	0.540
719.34	0.537
719.53	0.537
719.71	0.536
719.90	0.538
720.08	0.534
720.27	0.534
720.45	0.534
720.63	0.533
720.82	0.527
721.00	0.529
721.19	0.532
721.37	0.531
721.56	0.531
721.74	0.534
721.93	0.541
722.11	0.547
722.30	0.547
722.48	0.552
722.66	0.552
722.85	0.552
723.03	0.553
723.22	0.551
723.40	0.554
723.59	0.555
723.77	0.559
723.95	0.552
724.14	0.554
724.32	0.556
724.51	0.556
724.69	0.558
724.88	0.558
725.06	0.556
725.24	0.557
725.43	0.559
725.61	0.561
725.80	0.555
725.98	0.553
726.16	0.551
726.35	0.556
726.53	0.555
726.72	0.554
726.90	0.565
727.09	0.566
727.27	0.572
727.45	0.569
727.64	0.577
727.82	0.585
728.01	0.591
728.19	0.588
728.37	0.594
728.56	0.597
728.74	0.604
728.92	0.592
729.11	0.594
729.29	0.590
729.48	0.593
729.66	0.584
729.84	0.583
730.03	0.586
730.21	0.587
730.40	0.578
730.58	0.578
730.76	0.577
730.95	0.579
731.13	0.578
731.31	0.593
731.50	0.601
731.68	0.605
731.86	0.602
732.05	0.615
732.23	0.619
732.42	0.622
732.60	0.627
732.78	0.632
732.97	0.649
733.15	0.656
733.33	0.646
733.52	0.652
733.70	0.659
733.88	0.667
734.07	0.654
734.25	0.680
734.43	0.687
734.62	0.689
734.80	0.685
734.98	0.675
735.17	0.681
735.35	0.686
735.53	0.676
735.72	0.681
735.90	0.701
736.08	0.718
736.27	0.692
736.45	0.701
736.63	0.714
736.82	0.723
737.00	0.725
737.18	0.731
737.37	0.759
737.55	0.781
737.73	0.775
737.92	0.777
738.10	0.773
738.28	0.795
738.46	0.782
738.65	0.791
738.83	0.810
739.01	0.859
739.20	0.855
739.38	0.838
739.56	0.826
739.75	0.831
739.93	0.802
740.11	0.825
740.29	0.823
740.48	0.829
740.66	0.811
740.84	0.803
741.03	0.767
741.21	0.778
741.39	0.763
741.57	0.777
741.76	0.789
741.94	0.795
742.12	0.766
742.31	0.772
742.49	0.791
742.67	0.814
742.85	0.830
743.04	0.837
743.22	0.843
743.40	0.891
743.58	0.872
743.77	0.888
743.95	0.914
744.13	0.957
744.31	0.938
744.50	0.930
744.68	0.922
744.86	0.895
745.04	0.907
745.23	0.960
745.41	0.944
745.59	0.954
745.77	0.926
745.96	0.922
746.14	0.932
746.32	0.936
746.50	0.930
746.69	0.920
746.87	0.927
747.05	0.916
747.23	0.852
747.42	0.839
747.60	0.857
747.78	0.861
747.96	0.884
748.14	0.840
748.33	0.860
748.51	0.852
748.69	0.846
748.87	0.875
749.06	0.872
749.24	0.868
749.42	0.853
749.60	0.840
749.78	0.844
749.97	0.804
750.15	0.800
750.33	0.798
750.51	0.821
750.69	0.827
750.88	0.832
751.06	0.836
751.24	0.854
751.42	0.849
751.60	0.842
751.79	0.903
751.97	0.944
752.15	0.945
752.33	0.921
752.51	0.971
752.69	0.977
752.88	0.947
753.06	0.994
753.24	0.976
753.42	1.003
753.60	1.146
753.78	1.036
753.97	1.047
754.15	1.056
754.33	1.084
754.51	0.988
754.69	0.973
754.87	0.998
755.06	0.933
755.24	0.939
755.42	0.947
755.60	0.856
755.78	0.861
755.96	0.815
756.15	0.816
756.33	0.819
756.51	0.834
756.69	0.824
756.87	0.794
757.05	0.808
757.23	0.793
757.42	0.764
757.60	0.762
757.78	0.752
757.96	0.753
758.14	0.739
758.32	0.727
758.50	0.736
758.69	0.735
758.87	0.730
759.05	0.736
759.23	0.744
759.41	0.749
759.59	0.743
759.77	0.762
759.95	0.783
760.13	0.826
760.32	0.824
760.50	0.821
760.68	0.840
760.86	0.840
761.04	0.816
761.22	0.818
761.40	0.852
761.58	0.854
761.76	0.830
761.95	0.813
762.13	0.772
762.31	0.775
762.49	0.750
762.67	0.767
762.85	0.776
763.03	0.771
763.21	0.756
763.39	0.741
763.57	0.744
763.75	0.742
763.94	0.733
764.12	0.736
764.30	0.755
764.48	0.759
764.66	0.728
764.84	0.728
765.02	0.763
765.20	0.770
765.38	0.753
765.56	0.757
765.74	0.790
765.92	0.790
766.10	0.796
766.28	0.791
766.46	0.813
766.65	0.814
766.83	0.802
767.01	0.784
767.19	0.788
767.37	0.786
767.55	0.775
767.73	0.755
767.91	0.754
768.09	0.744
768.27	0.735
768.45	0.726
768.63	0.729
768.81	0.732
768.99	0.709
769.17	0.731
769.35	0.745
769.53	0.743
769.71	0.729
769.89	0.736
770.07	0.738
770.25	0.724
770.43	0.706
770.61	0.725
770.79	0.728
770.97	0.739
771.15	0.713
771.33	0.714
771.51	0.715
771.69	0.723
771.87	0.735
772.05	0.740
772.24	0.746
772.42	0.755
772.60	0.736
772.78	0.790
772.96	0.813
773.14	0.808
773.32	0.788
773.49	0.797
773.67	0.796
773.85	0.775
774.03	0.766
774.21	0.796
774.39	0.804
774.57	0.827
774.75	0.762
774.93	0.760
775.11	0.781
775.29	0.790
775.47	0.792
775.65	0.802
775.83	0.817
776.01	0.837
776.19	0.791
776.37	0.794
776.55	0.791
776.73	0.789
776.91	0.785
777.09	0.769
777.27	0.762
777.45	0.754
777.63	0.735
777.81	0.735
777.99	0.722
778.17	0.722
778.35	0.702
778.53	0.690
778.71	0.694
778.89	0.681
779.07	0.671
779.24	0.677
779.42	0.675
779.60	0.691
779.78	0.685
779.96	0.688
780.14	0.693
780.32	0.713
780.50	0.701
780.68	0.700
780.86	0.692
781.04	0.708
781.22	0.713
781.40	0.724
781.58	0.714
781.75	0.710
781.93	0.695
782.11	0.695
782.29	0.680
782.47	0.678
782.65	0.668
782.83	0.693
783.01	0.686
783.19	0.681
783.37	0.669
783.55	0.671
783.72	0.688
783.90	0.699
784.08	0.694
784.26	0.707
784.44	0.725
784.62	0.725
784.80	0.698
784.98	0.703
785.16	0.706
785.33	0.718
785.51	0.707
785.69	0.691
785.87	0.688
786.05	0.699
786.23	0.695
786.41	0.692
786.59	0.701
786.77	0.700
786.94	0.690
787.12	0.693
787.30	0.694
787.48	0.692
787.66	0.684
787.84	0.686
788.02	0.675
788.19	0.673
788.37	0.660
788.55	0.661
788.73	0.661
788.91	0.655
789.09	0.640
789.27	0.630
789.44	0.640
789.62	0.645
789.80	0.654
789.98	0.675
790.16	0.663
790.34	0.659
790.51	0.648
790.69	0.666
790.87	0.671
791.05	0.671
791.23	0.667
791.41	0.666
791.58	0.671
791.76	0.652
791.94	0.628
792.12	0.636
792.30	0.639
792.48	0.637
792.65	0.632
792.83	0.637
793.01	0.642
793.19	0.639
793.37	0.627
793.54	0.623
793.72	0.632
793.90	0.630
794.08	0.623
794.26	0.624
794.43	0.632
794.61	0.616
794.79	0.605
794.97	0.605
795.15	0.609
795.32	0.612
795.50	0.604
795.68	0.598
795.86	0.601
796.04	0.599
796.21	0.594
796.39	0.591
796.57	0.604
796.75	0.613
796.92	0.614
797.10	0.620
797.28	0.622
797.46	0.625
797.64	0.629
797.81	0.635
797.99	0.641
798.17	0.645
798.35	0.641
798.52	0.643
798.70	0.637
798.88	0.645
799.06	0.645
799.23	0.647
799.41	0.655
799.59	0.649
799.77	0.639
799.94	0.644
800.12	0.651
800.30	0.667
800.48	0.668
800.65	0.668
800.83	0.658
801.01	0.650
801.19	0.650
801.36	0.643
801.54	0.647
801.72	0.657
801.90	0.648
802.07	0.644
802.25	0.630
802.43	0.615
802.60	0.611
802.78	0.617
802.96	0.620
803.14	0.615
803.31	0.614
803.49	0.613
803.67	0.609
803.84	0.612
804.02	0.605
804.20	0.606
804.38	0.611
804.55	0.611
804.73	0.599
804.91	0.600
805.08	0.611
805.26	0.609
805.44	0.670
805.61	0.671
805.79	0.668
805.97	0.670
806.15	0.664
806.32	0.657
806.50	0.663
806.68	0.663
806.85	0.656
807.03	0.646
807.21	0.658
807.38	0.596
807.56	0.588
807.74	0.597
807.91	0.601
808.09	0.604
808.27	0.622
808.44	0.647
808.62	0.654
808.80	0.656
808.97	0.654
809.15	0.649
809.33	0.664
809.50	0.671
809.68	0.661
809.86	0.666
810.03	0.693
810.21	0.674
810.39	0.657
810.56	0.661
810.74	0.681
810.91	0.749
811.09	0.741
811.27	0.759
811.44	0.764
811.62	0.764
811.80	0.752
811.97	0.726
812.15	0.724
812.33	0.719
812.50	0.710
812.68	0.699
812.85	0.643
813.03	0.646
813.21	0.617
813.38	0.611
813.56	0.613
813.74	0.623
813.91	0.628
814.09	0.656
814.26	0.651
814.44	0.653
814.62	0.645
814.79	0.648
814.97	0.652
815.14	0.657
815.32	0.668
815.50	0.684
815.67	0.685
815.85	0.677
816.02	0.668
816.20	0.674
816.38	0.687
816.55	0.692
816.73	0.692
816.90	0.698
817.08	0.724
817.26	0.724
817.43	0.706
817.61	0.729
817.78	0.751
817.96	0.730
818.13	0.720
818.31	0.719
818.49	0.729
818.66	0.719
818.84	0.709
819.01	0.690
819.19	0.690
819.36	0.691
819.54	0.665
819.71	0.699
819.89	0.711
820.07	0.724
820.24	0.721
820.42	0.721
820.59	0.740
820.77	0.761
820.94	0.755
821.12	0.775
821.29	0.787
821.47	0.788
821.64	0.732
821.82	0.743
822.00	0.738
822.17	0.739
822.35	0.734
822.52	0.738
822.70	0.727
822.87	0.735
823.05	0.718
823.22	0.728
823.40	0.749
823.57	0.769
823.75	0.752
823.92	0.779
824.10	0.791
824.27	0.828
824.45	0.820
824.62	0.873
824.80	0.886
824.97	0.893
825.15	0.887
825.32	0.904
825.50	0.899
825.67	0.911
825.85	0.889
826.02	0.906
826.20	0.921
826.37	1.025
826.55	0.961
826.72	1.125
826.90	1.202
827.07	1.255
827.25	1.199
827.42	1.346
827.60	1.450
827.77	1.555
827.95	1.559
828.12	1.661
828.30	1.360
828.47	1.471
828.65	1.168
828.82	1.192
829.00	1.212
829.17	1.283
829.34	1.269
829.52	1.306
829.69	-0.000
829.87	-0.000
830.04	-0.000
830.22	-0.000
830.39	-0.000
830.57	-0.000
830.74	-0.000
830.92	-0.000
831.09	-0.000
831.26	-0.000
831.44	-0.000
831.61	-0.000
831.79	-0.000
831.96	-0.000
832.14	-0.000
832.31	-0.000
832.49	-0.000
832.66	-0.000
832.83	-0.000
833.01	-0.000
833.18	-0.000
833.36	-0.000
833.53	-0.000
833.70	-0.000
833.88	-0.000
834.05	-0.000
834.23	-0.000
834.40	-0.000
834.58	-0.000
834.75	-0.000
834.92	-0.000
835.10	-0.000
835.27	-0.000
835.45	-0.000
835.62	-0.000
835.79	-0.000
835.97	-0.000
836.14	-0.000
836.32	-0.000
836.49	-0.000
836.66	-0.000
836.84	-0.000
837.01	-0.000
837.18	-0.000
837.36	-0.000
837.53	-0.000
837.71	-0.000
837.88	-0.000
838.05	-0.000
838.23	-0.000
838.40	-0.000
838.58	-0.000
838.75	-0.000
838.92	-0.000
839.10	-0.000
839.27	-0.000
839.44	-0.000
839.62	-0.000
839.79	-0.000
839.96	-0.000
840.14	-0.000
840.31	-0.000
840.48	-0.000
840.66	-0.000
840.83	-0.000
841.01	-0.000
841.18	-0.000
841.35	-0.000
841.53	-0.000
841.70	-0.000
841.87	-0.000
842.05	-0.000
842.22	-0.000
842.39	-0.000
842.57	-0.000
842.74	-0.000
842.91	-0.000
843.09	-0.000
843.26	-0.000
843.43	-0.000
843.60	-0.000
843.78	-0.000
843.95	-0.000
844.12	-0.000
844.30	-0.000
844.47	-0.000
844.64	-0.000
844.82	-0.000
844.99	-0.000
845.16	-0.000
845.34	-0.000
845.51	-0.000
845.68	-0.000
845.85	-0.000
846.03	-0.000
846.20	-0.000
846.37	-0.000
846.55	-0.000
846.72	-0.000
846.89	-0.000
847.06	-0.000
847.24	-0.000
847.41	-0.000
847.58	-0.000
847.76	-0.000
847.93	-0.000
848.10	-0.000
848.27	-0.000
848.45	-0.000
848.62	-0.000
848.79	-0.000
848.97	-0.000
849.14	-0.000
849.31	-0.000
849.48	-0.000
849.66	-0.000
849.83	-0.000
850.00	-0.000
850.17	-0.000
850.35	-0.000
850.52	-0.000
850.69	-0.000
850.86	-0.000
851.04	-0.000
851.21	-0.000
851.38	-0.000
851.55	-0.000
851.72	-0.000
851.90	-0.000
852.07	-0.000
852.24	-0.000
852.41	-0.000
852.59	-0.000
852.76	-0.000
852.93	-0.000
853.10	-0.000
853.28	-0.000
853.45	-0.000
853.62	-0.000
853.79	-0.000
853.96	-0.000
854.14	-0.000
854.31	-0.000
854.48	-0.000
854.65	-0.000
854.82	-0.000
855.00	-0.000
855.17	-0.000
855.34	-0.000
855.51	-0.000
855.68	-0.000
855.86	-0.000
856.03	-0.000
856.20	-0.000
856.37	-0.000
856.54	-0.000
856.72	-0.000
856.89	-0.000
857.06	-0.000
857.23	-0.000
857.40	-0.000
857.57	-0.000
857.75	-0.000
857.92	-0.000
858.09	-0.000
858.26	-0.000
858.43	-0.000
858.60	-0.000
858.78	-0.000
858.95	-0.000
859.12	-0.000
859.29	-0.000
859.46	-0.000
859.63	-0.000
859.81	-0.000
859.98	-0.000
860.15	-0.000
860.32	-0.000
860.49	-0.000
860.66	-0.000
860.83	-0.000
861.01	-0.000
861.18	-0.000
861.35	-0.000
861.52	-0.000
861.69	-0.000
861.86	-0.000
862.03	-0.000
862.21	-0.000
862.38	-0.000
862.55	-0.000
862.72	-0.000
862.89	-0.000
863.06	-0.000
863.23	-0.000
863.40	-0.000
863.58	-0.000
863.75	-0.000
863.92	-0.000
864.09	-0.000
864.26	-0.000
864.43	-0.000
864.60	-0.000
864.77	-0.000
864.94	-0.000
865.11	-0.000
865.29	-0.000
865.46	-0.000
865.63	-0.000
865.80	-0.000
865.97	-0.000
866.14	-0.000
866.31	-0.000
866.48	-0.000
866.65	-0.000
866.82	-0.000
866.99	-0.000
867.16	-0.000
867.34	-0.000
867.51	-0.000
867.68	-0.000
867.85	-0.000
868.02	-0.000
868.19	-0.000
868.36	-0.000
868.53	-0.000
868.70	-0.000
868.87	-0.000
869.04	-0.000
869.21	-0.000
869.38	-0.000
869.55	-0.000
869.72	-0.000
869.89	-0.000
870.06	-0.000
870.24	-0.000
870.41	-0.000
870.58	-0.000
870.75	-0.000
870.92	-0.000
871.09	-0.000
871.26	-0.000
871.43	-0.000
871.60	-0.000
871.77	-0.000
871.94	-0.000
872.11	-0.000
872.28	-0.000
872.45	-0.000
872.62	-0.000
872.79	-0.000
872.96	-0.000
873.13	-0.000
873.30	-0.000
873.47	-0.000
873.64	-0.000
873.81	-0.000
873.98	-0.000
874.15	-0.000
874.32	-0.000
874.49	-0.000
874.66	-0.000
874.83	-0.000
875.00	-0.000
875.17	-0.000
875.34	-0.000
875.51	-0.000
875.68	-0.000
875.85	-0.000
876.02	-0.000
876.19	-0.000
876.36	-0.000
876.53	-0.000
876.70	-0.000
876.87	-0.000
877.04	-0.000
877.21	-0.000
877.38	-0.000
877.55	-0.000
877.72	-0.000
877.89	-0.000
878.06	-0.000
878.23	-0.000
878.39	-0.000
878.56	-0.000
878.73	-0.000
878.90	-0.000
879.07	-0.000
879.24	-0.000
879.41	-0.000
879.58	-0.000
879.75	-0.000
879.92	-0.000
880.09	-0.000
880.26	-0.000
880.43	-0.000
880.60	-0.000
880.77	-0.000
880.94	-0.000
881.11	-0.000
881.27	-0.000
881.44	-0.000
881.61	-0.000
881.78	-0.000
881.95	-0.000
882.12	-0.000
882.29	-0.000
882.46	-0.000
882.63	-0.000
882.80	-0.000
882.97	-0.000
883.14	-0.000
883.30	-0.000
883.47	-0.000
883.64	-0.000
883.81	-0.000
883.98	-0.000
884.15	-0.000
884.32	-0.000
884.49	-0.000
884.66	-0.000
884.82	-0.000
884.99	-0.000
885.16	-0.000
885.33	-0.000
885.50	-0.000
885.67	-0.000
885.84	-0.000
886.01	-0.000
886.17	-0.000
886.34	-0.000
886.51	-0.000
886.68	-0.000
886.85	-0.000
887.02	-0.000
887.19	-0.000
887.36	-0.000
887.52	-0.000
887.69	-0.000
887.86	-0.000
888.03	-0.000
888.20	-0.000
888.37	-0.000
888.54	-0.000
888.70	-0.000
888.87	-0.000
889.04	-0.000
889.21	-0.000
889.38	-0.000
889.55	-0.000
889.71	-0.000
889.88	-0.000
890.05	-0.000
890.22	-0.000
890.39	-0.000
>>>>>End Processed Spectral Data<<<<<
