SpectraSuite Data File
++++++++++++++++++++++++++++++++++++
Date: Fri Jun 19 16:47:41 CEST 2015
User: introlabs
Dark Spectrum Present: Yes
Reference Spectrum Present: Yes
Number of Sampled Component Spectra: 1
Spectrometers: USB4H08886
Integration Time (usec): 745692 (USB4H08886)
Spectra Averaged: 5 (USB4H08886)
Boxcar Smoothing: 5 (USB4H08886)
Correct for Electrical Dark: Yes (USB4H08886)
Strobe/Lamp Enabled: No (USB4H08886)
Correct for Detector Non-linearity: Yes (USB4H08886)
Correct for Stray Light: Yes (USB4H08886)
Number of Pixels in Processed Spectrum: 3648
>>>>>Begin Processed Spectral Data<<<<<
178.14	-0.000
178.36	-0.000
178.57	-0.000
178.79	-0.000
179.01	-0.000
179.22	-0.000
179.44	-0.000
179.65	-0.000
179.87	-0.000
180.08	-0.000
180.30	-0.000
180.52	-0.000
180.73	-0.000
180.95	-0.000
181.16	-0.000
181.38	-0.000
181.59	-0.000
181.81	-0.000
182.03	-0.000
182.24	-0.000
182.46	-0.000
182.67	-0.000
182.89	-0.000
183.10	-0.000
183.32	-0.000
183.54	-0.000
183.75	-0.000
183.97	-0.000
184.18	-0.000
184.40	-0.000
184.61	-0.000
184.83	-0.000
185.04	-0.000
185.26	-0.000
185.48	-0.000
185.69	-0.000
185.91	-0.000
186.12	-0.000
186.34	-0.000
186.55	-0.000
186.77	-0.000
186.98	-0.000
187.20	-0.000
187.42	-0.000
187.63	-0.000
187.85	-0.000
188.06	-0.000
188.28	-0.000
188.49	-0.000
188.71	-0.000
188.92	-0.000
189.14	-0.000
189.36	-0.000
189.57	-0.000
189.79	-0.000
190.00	-0.000
190.22	-0.000
190.43	-0.000
190.65	-0.000
190.86	-0.000
191.08	-0.000
191.29	-0.000
191.51	-0.000
191.72	-0.000
191.94	-0.000
192.16	-0.000
192.37	-0.000
192.59	-0.000
192.80	-0.000
193.02	-0.000
193.23	-0.000
193.45	-0.000
193.66	-0.000
193.88	-0.000
194.09	-0.000
194.31	-0.000
194.52	-0.000
194.74	-0.000
194.95	-0.000
195.17	-0.000
195.38	-0.000
195.60	-0.000
195.81	-0.000
196.03	-0.000
196.25	-0.000
196.46	-0.000
196.68	-0.000
196.89	-0.000
197.11	-0.000
197.32	-0.000
197.54	-0.000
197.75	-0.000
197.97	-0.000
198.18	-0.000
198.40	-0.000
198.61	-0.000
198.83	-0.000
199.04	-0.000
199.26	-0.000
199.47	-0.000
199.69	-0.000
199.90	-0.000
200.12	-0.000
200.33	-0.000
200.55	-0.000
200.76	-0.000
200.98	-0.000
201.19	-0.000
201.41	-0.000
201.62	-0.000
201.84	-0.000
202.05	-0.000
202.27	-0.000
202.48	-0.000
202.70	-0.000
202.91	-0.000
203.13	-0.000
203.34	-0.000
203.56	-0.000
203.77	-0.000
203.99	-0.000
204.20	-0.000
204.42	-0.000
204.63	-0.000
204.85	-0.000
205.06	-0.000
205.28	-0.000
205.49	-0.000
205.71	-0.000
205.92	-0.000
206.14	-0.000
206.35	-0.000
206.56	-0.000
206.78	-0.000
206.99	-0.000
207.21	-0.000
207.42	-0.000
207.64	-0.000
207.85	-0.000
208.07	-0.000
208.28	-0.000
208.50	-0.000
208.71	-0.000
208.93	-0.000
209.14	-0.000
209.36	-0.000
209.57	-0.000
209.79	-0.000
210.00	-0.000
210.22	-0.000
210.43	-0.000
210.64	-0.000
210.86	-0.000
211.07	-0.000
211.29	-0.000
211.50	-0.000
211.72	-0.000
211.93	-0.000
212.15	-0.000
212.36	-0.000
212.58	-0.000
212.79	-0.000
213.01	-0.000
213.22	-0.000
213.43	-0.000
213.65	-0.000
213.86	-0.000
214.08	-0.000
214.29	-0.000
214.51	-0.000
214.72	-0.000
214.94	-0.000
215.15	-0.000
215.36	-0.000
215.58	-0.000
215.79	-0.000
216.01	-0.000
216.22	-0.000
216.44	-0.000
216.65	-0.000
216.87	-0.000
217.08	-0.000
217.29	-0.000
217.51	-0.000
217.72	-0.000
217.94	-0.000
218.15	-0.000
218.37	-0.000
218.58	-0.000
218.80	-0.000
219.01	-0.000
219.22	-0.000
219.44	-0.000
219.65	-0.000
219.87	-0.000
220.08	-0.000
220.30	-0.000
220.51	-0.000
220.72	-0.000
220.94	-0.000
221.15	-0.000
221.37	-0.000
221.58	-0.000
221.79	-0.000
222.01	-0.000
222.22	-0.000
222.44	-0.000
222.65	-0.000
222.87	-0.000
223.08	-0.000
223.29	-0.000
223.51	-0.000
223.72	-0.000
223.94	-0.000
224.15	-0.000
224.36	-0.000
224.58	-0.000
224.79	-0.000
225.01	-0.000
225.22	-0.000
225.44	-0.000
225.65	-0.000
225.86	-0.000
226.08	-0.000
226.29	-0.000
226.51	-0.000
226.72	-0.000
226.93	-0.000
227.15	-0.000
227.36	-0.000
227.58	-0.000
227.79	-0.000
228.00	-0.000
228.22	-0.000
228.43	-0.000
228.65	-0.000
228.86	-0.000
229.07	-0.000
229.29	-0.000
229.50	-0.000
229.72	-0.000
229.93	-0.000
230.14	-0.000
230.36	-0.000
230.57	-0.000
230.78	-0.000
231.00	-0.000
231.21	-0.000
231.43	-0.000
231.64	-0.000
231.85	-0.000
232.07	-0.000
232.28	-0.000
232.50	-0.000
232.71	-0.000
232.92	-0.000
233.14	-0.000
233.35	-0.000
233.56	-0.000
233.78	-0.000
233.99	-0.000
234.21	-0.000
234.42	-0.000
234.63	-0.000
234.85	-0.000
235.06	-0.000
235.27	-0.000
235.49	-0.000
235.70	-0.000
235.91	-0.000
236.13	-0.000
236.34	-0.000
236.56	-0.000
236.77	-0.000
236.98	-0.000
237.20	-0.000
237.41	-0.000
237.62	-0.000
237.84	-0.000
238.05	-0.000
238.26	-0.000
238.48	-0.000
238.69	-0.000
238.91	-0.000
239.12	-0.000
239.33	-0.000
239.55	-0.000
239.76	-0.000
239.97	-0.000
240.19	-0.000
240.40	-0.000
240.61	-0.000
240.83	-0.000
241.04	-0.000
241.25	-0.000
241.47	-0.000
241.68	-0.000
241.89	-0.000
242.11	-0.000
242.32	-0.000
242.53	-0.000
242.75	-0.000
242.96	-0.000
243.17	-0.000
243.39	-0.000
243.60	-0.000
243.81	-0.000
244.03	-0.000
244.24	-0.000
244.45	-0.000
244.67	-0.000
244.88	-0.000
245.09	-0.000
245.31	-0.000
245.52	-0.000
245.73	-0.000
245.95	-0.000
246.16	-0.000
246.37	-0.000
246.59	-0.000
246.80	-0.000
247.01	-0.000
247.23	-0.000
247.44	-0.000
247.65	-0.000
247.87	-0.000
248.08	-0.000
248.29	-0.000
248.51	-0.000
248.72	-0.000
248.93	-0.000
249.15	-0.000
249.36	-0.000
249.57	-0.000
249.78	-0.000
250.00	-0.000
250.21	-0.000
250.42	-0.000
250.64	-0.000
250.85	-0.000
251.06	-0.000
251.28	-0.000
251.49	-0.000
251.70	-0.000
251.92	-0.000
252.13	-0.000
252.34	-0.000
252.55	-0.000
252.77	-0.000
252.98	-0.000
253.19	-0.000
253.41	-0.000
253.62	-0.000
253.83	-0.000
254.05	-0.000
254.26	-0.000
254.47	-0.000
254.68	-0.000
254.90	-0.000
255.11	-0.000
255.32	-0.000
255.54	-0.000
255.75	-0.000
255.96	-0.000
256.17	-0.000
256.39	-0.000
256.60	-0.000
256.81	-0.000
257.03	-0.000
257.24	-0.000
257.45	-0.000
257.66	-0.000
257.88	-0.000
258.09	-0.000
258.30	-0.000
258.51	-0.000
258.73	-0.000
258.94	-0.000
259.15	-0.000
259.37	-0.000
259.58	-0.000
259.79	-0.000
260.00	-0.000
260.22	-0.000
260.43	-0.000
260.64	-0.000
260.85	-0.000
261.07	-0.000
261.28	-0.000
261.49	-0.000
261.71	-0.000
261.92	-0.000
262.13	-0.000
262.34	-0.000
262.56	-0.000
262.77	-0.000
262.98	-0.000
263.19	-0.000
263.41	-0.000
263.62	-0.000
263.83	-0.000
264.04	-0.000
264.26	-0.000
264.47	-0.000
264.68	-0.000
264.89	-0.000
265.11	-0.000
265.32	-0.000
265.53	-0.000
265.74	-0.000
265.96	-0.000
266.17	-0.000
266.38	-0.000
266.59	-0.000
266.81	-0.000
267.02	-0.000
267.23	-0.000
267.44	-0.000
267.65	-0.000
267.87	-0.000
268.08	-0.000
268.29	-0.000
268.50	-0.000
268.72	-0.000
268.93	-0.000
269.14	-0.000
269.35	-0.000
269.57	-0.000
269.78	-0.000
269.99	-0.000
270.20	-0.000
270.41	-0.000
270.63	-0.000
270.84	-0.000
271.05	-0.000
271.26	-0.000
271.48	-0.000
271.69	-0.000
271.90	-0.000
272.11	-0.000
272.32	-0.000
272.54	-0.000
272.75	-0.000
272.96	-0.000
273.17	-0.000
273.39	-0.000
273.60	-0.000
273.81	-0.000
274.02	-0.000
274.23	-0.000
274.45	-0.000
274.66	-0.000
274.87	-0.000
275.08	-0.000
275.29	-0.000
275.51	-0.000
275.72	-0.000
275.93	-0.000
276.14	-0.000
276.35	-0.000
276.57	-0.000
276.78	-0.000
276.99	-0.000
277.20	-0.000
277.41	-0.000
277.63	-0.000
277.84	-0.000
278.05	-0.000
278.26	-0.000
278.47	-0.000
278.69	-0.000
278.90	-0.000
279.11	-0.000
279.32	-0.000
279.53	-0.000
279.74	-0.000
279.96	-0.000
280.17	-0.000
280.38	-0.000
280.59	-0.000
280.80	-0.000
281.02	-0.000
281.23	-0.000
281.44	-0.000
281.65	-0.000
281.86	-0.000
282.07	-0.000
282.29	-0.000
282.50	-0.000
282.71	-0.000
282.92	-0.000
283.13	-0.000
283.35	-0.000
283.56	-0.000
283.77	-0.000
283.98	-0.000
284.19	-0.000
284.40	-0.000
284.62	-0.000
284.83	-0.000
285.04	-0.000
285.25	-0.000
285.46	-0.000
285.67	-0.000
285.88	-0.000
286.10	-0.000
286.31	-0.000
286.52	-0.000
286.73	-0.000
286.94	-0.000
287.15	-0.000
287.37	-0.000
287.58	-0.000
287.79	-0.000
288.00	-0.000
288.21	-0.000
288.42	-0.000
288.63	-0.000
288.85	-0.000
289.06	-0.000
289.27	-0.000
289.48	-0.000
289.69	-0.000
289.90	-0.000
290.11	-0.000
290.33	-0.000
290.54	-0.000
290.75	-0.000
290.96	-0.000
291.17	-0.000
291.38	-0.000
291.59	-0.000
291.81	-0.000
292.02	-0.000
292.23	-0.000
292.44	-0.000
292.65	-0.000
292.86	-0.000
293.07	-0.000
293.28	-0.000
293.50	-0.000
293.71	-0.000
293.92	-0.000
294.13	-0.000
294.34	-0.000
294.55	-0.000
294.76	-0.000
294.97	-0.000
295.19	-0.000
295.40	-0.000
295.61	-0.000
295.82	-0.000
296.03	-0.000
296.24	-0.000
296.45	-0.000
296.66	-0.000
296.87	-0.000
297.09	-0.000
297.30	-0.000
297.51	-0.000
297.72	-0.000
297.93	-0.000
298.14	-0.000
298.35	-0.000
298.56	-0.000
298.77	-0.000
298.99	-0.000
299.20	-0.000
299.41	-0.000
299.62	-0.000
299.83	-0.000
300.04	-0.000
300.25	-0.000
300.46	-0.000
300.67	-0.000
300.88	-0.000
301.10	-0.000
301.31	-0.000
301.52	-0.000
301.73	-0.000
301.94	-0.000
302.15	-0.000
302.36	-0.000
302.57	-0.000
302.78	-0.000
302.99	-0.000
303.20	-0.000
303.41	-0.000
303.63	-0.000
303.84	-0.000
304.05	-0.000
304.26	3.146
304.47	3.436
304.68	2.836
304.89	2.605
305.10	2.356
305.31	2.169
305.52	2.661
305.73	2.567
305.94	2.193
306.15	2.095
306.37	2.206
306.58	2.251
306.79	2.091
307.00	2.294
307.21	2.739
307.42	2.499
307.63	2.248
307.84	2.022
308.05	2.208
308.26	2.222
308.47	2.128
308.68	2.108
308.89	2.038
309.10	2.031
309.31	1.880
309.52	1.834
309.73	1.872
309.95	1.849
310.16	1.758
310.37	1.712
310.58	1.740
310.79	1.733
311.00	1.740
311.21	1.756
311.42	1.756
311.63	1.732
311.84	1.696
312.05	1.700
312.26	1.759
312.47	1.800
312.68	1.752
312.89	1.707
313.10	1.706
313.31	1.626
313.52	1.656
313.73	1.654
313.94	1.663
314.15	1.624
314.36	1.577
314.57	1.570
314.78	1.541
314.99	1.527
315.21	1.508
315.42	1.528
315.63	1.555
315.84	1.497
316.05	1.477
316.26	1.488
316.47	1.521
316.68	1.518
316.89	1.475
317.10	1.524
317.31	1.536
317.52	1.543
317.73	1.502
317.94	1.498
318.15	1.605
318.36	1.605
318.57	1.578
318.78	1.545
318.99	1.620
319.20	1.619
319.41	1.539
319.62	1.545
319.83	1.576
320.04	1.561
320.25	1.543
320.46	1.457
320.67	1.459
320.88	1.447
321.09	1.428
321.30	1.399
321.51	1.426
321.72	1.419
321.93	1.389
322.14	1.366
322.35	1.420
322.56	1.429
322.77	1.412
322.98	1.435
323.19	1.446
323.40	1.467
323.61	1.429
323.82	1.414
324.03	1.421
324.24	1.420
324.45	1.401
324.66	1.360
324.87	1.346
325.08	1.344
325.29	1.313
325.50	1.299
325.71	1.299
325.92	1.312
326.13	1.292
326.34	1.295
326.55	1.305
326.76	1.306
326.97	1.293
327.18	1.284
327.39	1.331
327.60	1.331
327.80	1.340
328.01	1.343
328.22	1.341
328.43	1.347
328.64	1.327
328.85	1.337
329.06	1.338
329.27	1.336
329.48	1.332
329.69	1.292
329.90	1.310
330.11	1.300
330.32	1.292
330.53	1.279
330.74	1.276
330.95	1.275
331.16	1.252
331.37	1.268
331.58	1.266
331.79	1.267
332.00	1.257
332.21	1.241
332.42	1.242
332.63	1.225
332.83	1.222
333.04	1.229
333.25	1.249
333.46	1.247
333.67	1.222
333.88	1.225
334.09	1.241
334.30	1.236
334.51	1.227
334.72	1.222
334.93	1.224
335.14	1.219
335.35	1.208
335.56	1.200
335.77	1.210
335.98	1.210
336.18	1.203
336.39	1.189
336.60	1.192
336.81	1.189
337.02	1.191
337.23	1.200
337.44	1.206
337.65	1.208
337.86	1.193
338.07	1.184
338.28	1.190
338.49	1.189
338.70	1.179
338.91	1.191
339.11	1.204
339.32	1.197
339.53	1.184
339.74	1.183
339.95	1.175
340.16	1.174
340.37	1.167
340.58	1.163
340.79	1.163
341.00	1.164
341.21	1.151
341.41	1.150
341.62	1.150
341.83	1.149
342.04	1.142
342.25	1.163
342.46	1.166
342.67	1.164
342.88	1.157
343.09	1.159
343.30	1.171
343.50	1.178
343.71	1.165
343.92	1.162
344.13	1.170
344.34	1.169
344.55	1.144
344.76	1.144
344.97	1.150
345.18	1.150
345.38	1.149
345.59	1.141
345.80	1.138
346.01	1.136
346.22	1.134
346.43	1.123
346.64	1.136
346.85	1.135
347.06	1.125
347.26	1.126
347.47	1.130
347.68	1.123
347.89	1.118
348.10	1.111
348.31	1.119
348.52	1.119
348.73	1.117
348.93	1.114
349.14	1.116
349.35	1.116
349.56	1.109
349.77	1.101
349.98	1.109
350.19	1.104
350.39	1.099
350.60	1.093
350.81	1.118
351.02	1.119
351.23	1.113
351.44	1.117
351.65	1.120
351.86	1.116
352.06	1.115
352.27	1.116
352.48	1.116
352.69	1.115
352.90	1.106
353.11	1.085
353.31	1.097
353.52	1.091
353.73	1.082
353.94	1.086
354.15	1.095
354.36	1.096
354.57	1.083
354.77	1.089
354.98	1.088
355.19	1.088
355.40	1.087
355.61	1.097
355.82	1.101
356.02	1.100
356.23	1.090
356.44	1.093
356.65	1.097
356.86	1.099
357.07	1.092
357.27	1.097
357.48	1.101
357.69	1.095
357.90	1.069
358.11	1.064
358.32	1.068
358.52	1.075
358.73	1.060
358.94	1.065
359.15	1.072
359.36	1.071
359.56	1.066
359.77	1.063
359.98	1.075
360.19	1.075
360.40	1.073
360.61	1.077
360.81	1.070
361.02	1.072
361.23	1.060
361.44	1.057
361.65	1.059
361.85	1.058
362.06	1.056
362.27	1.059
362.48	1.059
362.69	1.061
362.89	1.052
363.10	1.057
363.31	1.064
363.52	1.069
363.73	1.062
363.93	1.063
364.14	1.065
364.35	1.067
364.56	1.052
364.77	1.057
364.97	1.060
365.18	1.061
365.39	1.055
365.60	1.049
365.81	1.050
366.01	1.050
366.22	1.045
366.43	1.045
366.64	1.047
366.84	1.056
367.05	1.053
367.26	1.051
367.47	1.052
367.68	1.051
367.88	1.051
368.09	1.047
368.30	1.050
368.51	1.051
368.71	1.051
368.92	1.060
369.13	1.055
369.34	1.055
369.55	1.057
369.75	1.056
369.96	1.068
370.17	1.069
370.38	1.066
370.58	1.066
370.79	1.072
371.00	1.069
371.21	1.056
371.41	1.067
371.62	1.073
371.83	1.067
372.04	1.067
372.24	1.057
372.45	1.056
372.66	1.057
372.87	1.055
373.07	1.050
373.28	1.052
373.49	1.057
373.70	1.042
373.90	1.040
374.11	1.053
374.32	1.053
374.53	1.054
374.73	1.056
374.94	1.059
375.15	1.059
375.36	1.058
375.56	1.074
375.77	1.073
375.98	1.074
376.19	1.072
376.39	1.061
376.60	1.065
376.81	1.065
377.02	1.063
377.22	1.062
377.43	1.062
377.64	1.062
377.84	1.047
378.05	1.056
378.26	1.066
378.47	1.065
378.67	1.062
378.88	1.059
379.09	1.059
379.30	1.060
379.50	1.056
379.71	1.059
379.92	1.062
380.12	1.062
380.33	1.050
380.54	1.043
380.75	1.054
380.95	1.054
381.16	1.053
381.37	1.053
381.57	1.054
381.78	1.056
381.99	1.058
382.20	1.058
382.40	1.063
382.61	1.062
382.82	1.060
383.02	1.049
383.23	1.053
383.44	1.053
383.64	1.053
383.85	1.058
384.06	1.062
384.27	1.058
384.47	1.057
384.68	1.056
384.89	1.067
385.09	1.065
385.30	1.066
385.51	1.066
385.71	1.070
385.92	1.070
386.13	1.069
386.33	1.076
386.54	1.076
386.75	1.074
386.95	1.069
387.16	1.060
387.37	1.064
387.58	1.063
387.78	1.061
387.99	1.059
388.20	1.061
388.40	1.056
388.61	1.046
388.82	1.054
389.02	1.056
389.23	1.056
389.44	1.055
389.64	1.057
389.85	1.079
390.06	1.077
390.26	1.079
390.47	1.076
390.68	1.080
390.88	1.079
391.09	1.070
391.30	1.071
391.50	1.070
391.71	1.070
391.92	1.065
392.12	1.048
392.33	1.048
392.53	1.046
392.74	1.048
392.95	1.045
393.15	1.048
393.36	1.052
393.57	1.049
393.77	1.054
393.98	1.055
394.19	1.055
394.39	1.055
394.60	1.058
394.81	1.060
395.01	1.055
395.22	1.054
395.43	1.055
395.63	1.062
395.84	1.062
396.04	1.057
396.25	1.059
396.46	1.059
396.66	1.055
396.87	1.051
397.08	1.045
397.28	1.049
397.49	1.051
397.69	1.045
397.90	1.036
398.11	1.037
398.31	1.036
398.52	1.030
398.73	1.035
398.93	1.032
399.14	1.029
399.34	1.029
399.55	1.029
399.76	1.028
399.96	1.029
400.17	1.028
400.37	1.026
400.58	1.037
400.79	1.040
400.99	1.034
401.20	1.043
401.41	1.046
401.61	1.046
401.82	1.057
402.02	1.055
402.23	1.056
402.44	1.055
402.64	1.054
402.85	1.041
403.05	1.037
403.26	1.034
403.47	1.024
403.67	1.022
403.88	1.021
404.08	1.008
404.29	1.005
404.50	1.004
404.70	1.003
404.91	1.003
405.11	1.000
405.32	1.001
405.52	1.000
405.73	1.001
405.94	0.999
406.14	1.003
406.35	1.005
406.55	1.005
406.76	1.002
406.97	1.003
407.17	1.006
407.38	1.005
407.58	1.003
407.79	1.007
407.99	1.009
408.20	1.009
408.41	1.002
408.61	1.000
408.82	0.999
409.02	0.998
409.23	0.995
409.43	0.991
409.64	0.991
409.84	0.991
410.05	0.985
410.26	0.982
410.46	0.981
410.67	0.980
410.87	0.984
411.08	0.986
411.28	0.988
411.49	0.989
411.69	0.986
411.90	0.988
412.11	0.989
412.31	0.990
412.52	0.988
412.72	0.988
412.93	0.987
413.13	0.985
413.34	0.980
413.54	0.983
413.75	0.986
413.95	0.985
414.16	0.981
414.37	0.984
414.57	0.983
414.78	0.987
414.98	0.986
415.19	0.987
415.39	0.981
415.60	0.984
415.80	0.982
416.01	0.977
416.21	0.977
416.42	0.976
416.62	0.969
416.83	0.969
417.03	0.966
417.24	0.966
417.44	0.962
417.65	0.962
417.86	0.961
418.06	0.957
418.27	0.954
418.47	0.957
418.68	0.957
418.88	0.957
419.09	0.956
419.29	0.956
419.50	0.956
419.70	0.956
419.91	0.954
420.11	0.950
420.32	0.952
420.52	0.951
420.73	0.950
420.93	0.949
421.14	0.952
421.34	0.949
421.55	0.945
421.75	0.944
421.96	0.943
422.16	0.942
422.37	0.941
422.57	0.938
422.78	0.938
422.98	0.933
423.19	0.931
423.39	0.927
423.60	0.933
423.80	0.932
424.01	0.931
424.21	0.935
424.42	0.935
424.62	0.934
424.83	0.933
425.03	0.933
425.23	0.934
425.44	0.934
425.64	0.935
425.85	0.932
426.05	0.933
426.26	0.933
426.46	0.928
426.67	0.927
426.87	0.933
427.08	0.933
427.28	0.929
427.49	0.931
427.69	0.930
427.90	0.928
428.10	0.925
428.31	0.924
428.51	0.925
428.71	0.924
428.92	0.926
429.12	0.923
429.33	0.923
429.53	0.930
429.74	0.937
429.94	0.937
430.15	0.935
430.35	0.934
430.56	0.930
430.76	0.927
430.96	0.927
431.17	0.923
431.37	0.919
431.58	0.917
431.78	0.911
431.99	0.899
432.19	0.903
432.40	0.905
432.60	0.906
432.80	0.910
433.01	0.909
433.21	0.910
433.42	0.911
433.62	0.911
433.83	0.912
434.03	0.915
434.23	0.918
434.44	0.916
434.64	0.912
434.85	0.920
435.05	0.920
435.26	0.920
435.46	0.918
435.66	0.917
435.87	0.916
436.07	0.915
436.28	0.910
436.48	0.907
436.69	0.905
436.89	0.906
437.09	0.897
437.30	0.895
437.50	0.895
437.71	0.913
437.91	0.912
438.11	0.913
438.32	0.918
438.52	0.918
438.73	0.917
438.93	0.915
439.13	0.913
439.34	0.919
439.54	0.915
439.75	0.915
439.95	0.899
440.15	0.906
440.36	0.904
440.56	0.899
440.77	0.900
440.97	0.900
441.17	0.898
441.38	0.900
441.58	0.895
441.79	0.895
441.99	0.894
442.19	0.891
442.40	0.886
442.60	0.886
442.81	0.883
443.01	0.883
443.21	0.883
443.42	0.883
443.62	0.881
443.82	0.881
444.03	0.882
444.23	0.882
444.44	0.884
444.64	0.882
444.84	0.884
445.05	0.884
445.25	0.881
445.45	0.881
445.66	0.883
445.86	0.882
446.06	0.885
446.27	0.883
446.47	0.886
446.68	0.883
446.88	0.881
447.08	0.880
447.29	0.881
447.49	0.881
447.69	0.881
447.90	0.879
448.10	0.883
448.30	0.879
448.51	0.882
448.71	0.879
448.91	0.881
449.12	0.880
449.32	0.882
449.52	0.880
449.73	0.884
449.93	0.884
450.14	0.886
450.34	0.884
450.54	0.886
450.75	0.881
450.95	0.881
451.15	0.879
451.36	0.882
451.56	0.878
451.76	0.877
451.97	0.874
452.17	0.874
452.37	0.871
452.58	0.869
452.78	0.868
452.98	0.871
453.19	0.870
453.39	0.872
453.59	0.870
453.79	0.871
454.00	0.871
454.20	0.870
454.40	0.871
454.61	0.873
454.81	0.873
455.01	0.872
455.22	0.874
455.42	0.875
455.62	0.872
455.83	0.871
456.03	0.875
456.23	0.876
456.44	0.877
456.64	0.876
456.84	0.875
457.04	0.876
457.25	0.875
457.45	0.869
457.65	0.869
457.86	0.870
458.06	0.869
458.26	0.864
458.47	0.862
458.67	0.863
458.87	0.863
459.07	0.860
459.28	0.861
459.48	0.863
459.68	0.864
459.89	0.862
460.09	0.861
460.29	0.861
460.49	0.863
460.70	0.862
460.90	0.860
461.10	0.861
461.31	0.861
461.51	0.858
461.71	0.862
461.91	0.863
462.12	0.863
462.32	0.862
462.52	0.862
462.72	0.865
462.93	0.866
463.13	0.865
463.33	0.866
463.53	0.867
463.74	0.867
463.94	0.860
464.14	0.862
464.35	0.863
464.55	0.863
464.75	0.862
464.95	0.859
465.16	0.860
465.36	0.858
465.56	0.857
465.76	0.857
465.97	0.857
466.17	0.857
466.37	0.854
466.57	0.855
466.78	0.854
466.98	0.854
467.18	0.852
467.38	0.851
467.59	0.852
467.79	0.854
467.99	0.853
468.19	0.853
468.39	0.856
468.60	0.856
468.80	0.854
469.00	0.856
469.20	0.857
469.41	0.858
469.61	0.857
469.81	0.857
470.01	0.856
470.22	0.856
470.42	0.855
470.62	0.853
470.82	0.854
471.02	0.854
471.23	0.851
471.43	0.850
471.63	0.853
471.83	0.853
472.04	0.851
472.24	0.849
472.44	0.857
472.64	0.857
472.84	0.856
473.05	0.855
473.25	0.857
473.45	0.856
473.65	0.855
473.85	0.855
474.06	0.855
474.26	0.855
474.46	0.857
474.66	0.850
474.86	0.851
475.07	0.850
475.27	0.849
475.47	0.845
475.67	0.846
475.87	0.848
476.08	0.844
476.28	0.846
476.48	0.846
476.68	0.844
476.88	0.842
477.09	0.843
477.29	0.844
477.49	0.845
477.69	0.844
477.89	0.844
478.09	0.843
478.30	0.846
478.50	0.843
478.70	0.842
478.90	0.843
479.10	0.847
479.31	0.849
479.51	0.847
479.71	0.848
479.91	0.847
480.11	0.846
480.31	0.846
480.52	0.844
480.72	0.843
480.92	0.842
481.12	0.840
481.32	0.836
481.52	0.833
481.72	0.832
481.93	0.836
482.13	0.837
482.33	0.836
482.53	0.834
482.73	0.835
482.93	0.836
483.14	0.836
483.34	0.836
483.54	0.836
483.74	0.835
483.94	0.834
484.14	0.828
484.34	0.828
484.55	0.828
484.75	0.828
484.95	0.825
485.15	0.824
485.35	0.823
485.55	0.822
485.75	0.820
485.96	0.820
486.16	0.821
486.36	0.821
486.56	0.819
486.76	0.819
486.96	0.819
487.16	0.818
487.36	0.817
487.57	0.816
487.77	0.816
487.97	0.817
488.17	0.815
488.37	0.814
488.57	0.814
488.77	0.814
488.97	0.813
489.18	0.812
489.38	0.815
489.58	0.815
489.78	0.815
489.98	0.815
490.18	0.815
490.38	0.815
490.58	0.814
490.78	0.815
490.98	0.816
491.19	0.817
491.39	0.816
491.59	0.814
491.79	0.817
491.99	0.817
492.19	0.817
492.39	0.821
492.59	0.821
492.79	0.823
492.99	0.824
493.20	0.825
493.40	0.824
493.60	0.827
493.80	0.825
494.00	0.823
494.20	0.823
494.40	0.823
494.60	0.820
494.80	0.825
495.00	0.823
495.20	0.821
495.40	0.820
495.61	0.822
495.81	0.821
496.01	0.825
496.21	0.827
496.41	0.826
496.61	0.826
496.81	0.825
497.01	0.819
497.21	0.817
497.41	0.817
497.61	0.816
497.81	0.813
498.01	0.814
498.21	0.810
498.41	0.806
498.61	0.806
498.82	0.808
499.02	0.810
499.22	0.811
499.42	0.811
499.62	0.813
499.82	0.814
500.02	0.816
500.22	0.814
500.42	0.818
500.62	0.818
500.82	0.818
501.02	0.815
501.22	0.816
501.42	0.815
501.62	0.817
501.82	0.817
502.02	0.817
502.22	0.816
502.42	0.819
502.62	0.816
502.82	0.816
503.02	0.816
503.22	0.816
503.42	0.814
503.63	0.814
503.83	0.811
504.03	0.809
504.23	0.808
504.43	0.809
504.63	0.809
504.83	0.808
505.03	0.807
505.23	0.809
505.43	0.812
505.63	0.812
505.83	0.812
506.03	0.814
506.23	0.816
506.43	0.816
506.63	0.815
506.83	0.813
507.03	0.815
507.23	0.816
507.43	0.813
507.63	0.813
507.83	0.813
508.03	0.813
508.23	0.813
508.43	0.811
508.63	0.813
508.83	0.814
509.03	0.816
509.23	0.815
509.43	0.815
509.63	0.816
509.83	0.815
510.03	0.818
510.23	0.819
510.43	0.820
510.63	0.820
510.83	0.819
511.03	0.820
511.23	0.816
511.43	0.816
511.63	0.819
511.83	0.821
512.03	0.820
512.22	0.817
512.42	0.816
512.62	0.817
512.82	0.817
513.02	0.816
513.22	0.816
513.42	0.818
513.62	0.821
513.82	0.819
514.02	0.818
514.22	0.819
514.42	0.820
514.62	0.820
514.82	0.820
515.02	0.823
515.22	0.828
515.42	0.826
515.62	0.829
515.82	0.827
516.02	0.829
516.22	0.829
516.42	0.831
516.62	0.832
516.82	0.834
517.01	0.832
517.21	0.832
517.41	0.836
517.61	0.837
517.81	0.833
518.01	0.832
518.21	0.831
518.41	0.830
518.61	0.829
518.81	0.830
519.01	0.830
519.21	0.830
519.41	0.829
519.61	0.821
519.81	0.823
520.00	0.824
520.20	0.824
520.40	0.828
520.60	0.829
520.80	0.827
521.00	0.828
521.20	0.828
521.40	0.834
521.60	0.835
521.80	0.834
522.00	0.834
522.20	0.836
522.39	0.835
522.59	0.832
522.79	0.834
522.99	0.836
523.19	0.833
523.39	0.831
523.59	0.829
523.79	0.832
523.99	0.835
524.19	0.834
524.38	0.833
524.58	0.834
524.78	0.834
524.98	0.832
525.18	0.835
525.38	0.837
525.58	0.837
525.78	0.834
525.98	0.832
526.18	0.831
526.37	0.831
526.57	0.833
526.77	0.832
526.97	0.833
527.17	0.833
527.37	0.829
527.57	0.832
527.77	0.833
527.96	0.833
528.16	0.832
528.36	0.834
528.56	0.836
528.76	0.834
528.96	0.834
529.16	0.836
529.36	0.839
529.55	0.839
529.75	0.836
529.95	0.835
530.15	0.836
530.35	0.839
530.55	0.835
530.75	0.835
530.94	0.837
531.14	0.837
531.34	0.835
531.54	0.833
531.74	0.835
531.94	0.839
532.13	0.838
532.33	0.841
532.53	0.838
532.73	0.838
532.93	0.837
533.13	0.838
533.33	0.837
533.52	0.837
533.72	0.842
533.92	0.840
534.12	0.837
534.32	0.837
534.52	0.835
534.71	0.837
534.91	0.839
535.11	0.841
535.31	0.839
535.51	0.841
535.71	0.843
535.90	0.839
536.10	0.841
536.30	0.844
536.50	0.844
536.70	0.844
536.89	0.842
537.09	0.842
537.29	0.843
537.49	0.844
537.69	0.842
537.89	0.843
538.08	0.842
538.28	0.839
538.48	0.840
538.68	0.841
538.88	0.843
539.07	0.843
539.27	0.841
539.47	0.840
539.67	0.839
539.87	0.841
540.06	0.839
540.26	0.839
540.46	0.842
540.66	0.837
540.86	0.836
541.05	0.836
541.25	0.837
541.45	0.837
541.65	0.836
541.84	0.839
542.04	0.837
542.24	0.838
542.44	0.838
542.64	0.840
542.83	0.843
543.03	0.844
543.23	0.841
543.43	0.842
543.62	0.844
543.82	0.844
544.02	0.843
544.22	0.844
544.42	0.848
544.61	0.849
544.81	0.846
545.01	0.844
545.21	0.847
545.40	0.847
545.60	0.845
545.80	0.850
546.00	0.849
546.19	0.848
546.39	0.847
546.59	0.844
546.79	0.846
546.98	0.845
547.18	0.844
547.38	0.845
547.58	0.847
547.77	0.847
547.97	0.842
548.17	0.844
548.37	0.844
548.56	0.845
548.76	0.844
548.96	0.845
549.16	0.848
549.35	0.848
549.55	0.845
549.75	0.845
549.95	0.848
550.14	0.849
550.34	0.848
550.54	0.854
550.73	0.858
550.93	0.858
551.13	0.856
551.33	0.855
551.52	0.855
551.72	0.856
551.92	0.854
552.12	0.855
552.31	0.856
552.51	0.855
552.71	0.850
552.90	0.850
553.10	0.850
553.30	0.850
553.50	0.849
553.69	0.851
553.89	0.850
554.09	0.851
554.28	0.847
554.48	0.848
554.68	0.850
554.87	0.849
555.07	0.846
555.27	0.846
555.47	0.847
555.66	0.848
555.86	0.846
556.06	0.848
556.25	0.849
556.45	0.860
556.65	0.859
556.84	0.863
557.04	0.868
557.24	0.869
557.43	0.869
557.63	0.873
557.83	0.876
558.02	0.876
558.22	0.884
558.42	0.884
558.61	0.873
558.81	0.875
559.01	0.870
559.21	0.868
559.40	0.869
559.60	0.869
559.80	0.865
559.99	0.867
560.19	0.869
560.39	0.861
560.58	0.859
560.78	0.859
560.97	0.862
561.17	0.861
561.37	0.859
561.56	0.860
561.76	0.861
561.96	0.860
562.15	0.857
562.35	0.860
562.55	0.860
562.74	0.860
562.94	0.859
563.14	0.856
563.33	0.857
563.53	0.857
563.73	0.854
563.92	0.856
564.12	0.858
564.31	0.860
564.51	0.858
564.71	0.860
564.90	0.862
565.10	0.863
565.30	0.869
565.49	0.870
565.69	0.873
565.89	0.873
566.08	0.871
566.28	0.874
566.47	0.876
566.67	0.873
566.87	0.871
567.06	0.875
567.26	0.883
567.46	0.878
567.65	0.877
567.85	0.880
568.04	0.883
568.24	0.882
568.44	0.879
568.63	0.877
568.83	0.879
569.02	0.877
569.22	0.871
569.42	0.867
569.61	0.868
569.81	0.866
570.00	0.864
570.20	0.865
570.40	0.866
570.59	0.865
570.79	0.863
570.98	0.860
571.18	0.861
571.38	0.860
571.57	0.857
571.77	0.854
571.96	0.858
572.16	0.854
572.35	0.848
572.55	0.849
572.75	0.846
572.94	0.845
573.14	0.844
573.33	0.844
573.53	0.844
573.73	0.843
573.92	0.842
574.12	0.839
574.31	0.842
574.51	0.844
574.70	0.840
574.90	0.843
575.09	0.845
575.29	0.846
575.49	0.843
575.68	0.844
575.88	0.846
576.07	0.847
576.27	0.844
576.46	0.842
576.66	0.840
576.86	0.838
577.05	0.836
577.25	0.834
577.44	0.835
577.64	0.835
577.83	0.833
578.03	0.834
578.22	0.834
578.42	0.834
578.61	0.833
578.81	0.834
579.00	0.834
579.20	0.833
579.40	0.832
579.59	0.830
579.79	0.830
579.98	0.829
580.18	0.829
580.37	0.828
580.57	0.829
580.76	0.836
580.96	0.834
581.15	0.836
581.35	0.838
581.54	0.838
581.74	0.838
581.93	0.840
582.13	0.841
582.32	0.837
582.52	0.835
582.71	0.833
582.91	0.827
583.10	0.827
583.30	0.825
583.49	0.823
583.69	0.827
583.88	0.829
584.08	0.827
584.27	0.831
584.47	0.835
584.66	0.837
584.86	0.838
585.05	0.841
585.25	0.844
585.44	0.844
585.64	0.843
585.83	0.839
586.03	0.839
586.22	0.838
586.42	0.833
586.61	0.834
586.81	0.836
587.00	0.834
587.20	0.832
587.39	0.832
587.59	0.833
587.78	0.834
587.98	0.835
588.17	0.836
588.37	0.838
588.56	0.841
588.76	0.837
588.95	0.836
589.15	0.842
589.34	0.846
589.54	0.845
589.73	0.846
589.92	0.850
590.12	0.850
590.31	0.849
590.51	0.857
590.70	0.858
590.90	0.858
591.09	0.856
591.29	0.853
591.48	0.853
591.68	0.854
591.87	0.852
592.06	0.852
592.26	0.855
592.45	0.853
592.65	0.845
592.84	0.844
593.04	0.846
593.23	0.849
593.43	0.847
593.62	0.846
593.81	0.846
594.01	0.845
594.20	0.842
594.40	0.840
594.59	0.841
594.79	0.842
594.98	0.841
595.17	0.840
595.37	0.841
595.56	0.843
595.76	0.843
595.95	0.845
596.14	0.849
596.34	0.851
596.53	0.851
596.73	0.853
596.92	0.854
597.12	0.858
597.31	0.859
597.50	0.857
597.70	0.859
597.89	0.858
598.09	0.855
598.28	0.856
598.47	0.859
598.67	0.857
598.86	0.853
599.06	0.856
599.25	0.854
599.44	0.852
599.64	0.849
599.83	0.845
600.03	0.848
600.22	0.847
600.41	0.847
600.61	0.843
600.80	0.845
601.00	0.845
601.19	0.839
601.38	0.838
601.58	0.839
601.77	0.841
601.96	0.845
602.16	0.845
602.35	0.856
602.55	0.854
602.74	0.856
602.93	0.859
603.13	0.866
603.32	0.868
603.51	0.869
603.71	0.875
603.90	0.877
604.09	0.878
604.29	0.876
604.48	0.868
604.68	0.869
604.87	0.867
605.06	0.864
605.26	0.859
605.45	0.859
605.64	0.857
605.84	0.851
606.03	0.850
606.22	0.847
606.42	0.846
606.61	0.842
606.80	0.842
607.00	0.844
607.19	0.844
607.38	0.843
607.58	0.845
607.77	0.846
607.96	0.846
608.16	0.844
608.35	0.850
608.54	0.854
608.74	0.858
608.93	0.865
609.12	0.869
609.32	0.872
609.51	0.877
609.70	0.876
609.90	0.879
610.09	0.884
610.28	0.891
610.48	0.884
610.67	0.887
610.86	0.887
611.06	0.880
611.25	0.877
611.44	0.879
611.64	0.879
611.83	0.884
612.02	0.881
612.21	0.880
612.41	0.878
612.60	0.877
612.79	0.872
612.99	0.873
613.18	0.875
613.37	0.873
613.57	0.870
613.76	0.872
613.95	0.866
614.14	0.866
614.34	0.862
614.53	0.863
614.72	0.866
614.92	0.866
615.11	0.862
615.30	0.857
615.49	0.859
615.69	0.862
615.88	0.858
616.07	0.859
616.26	0.861
616.46	0.862
616.65	0.859
616.84	0.858
617.04	0.858
617.23	0.862
617.42	0.863
617.61	0.866
617.81	0.865
618.00	0.868
618.19	0.867
618.38	0.872
618.58	0.876
618.77	0.878
618.96	0.879
619.15	0.882
619.35	0.885
619.54	0.886
619.73	0.882
619.92	0.886
620.12	0.891
620.31	0.893
620.50	0.888
620.69	0.889
620.89	0.892
621.08	0.891
621.27	0.892
621.46	0.891
621.66	0.895
621.85	0.895
622.04	0.892
622.23	0.894
622.43	0.893
622.62	0.893
622.81	0.892
623.00	0.891
623.19	0.895
623.39	0.892
623.58	0.888
623.77	0.886
623.96	0.890
624.16	0.890
624.35	0.884
624.54	0.887
624.73	0.891
624.92	0.888
625.12	0.886
625.31	0.887
625.50	0.891
625.69	0.892
625.88	0.889
626.08	0.889
626.27	0.889
626.46	0.891
626.65	0.888
626.84	0.889
627.04	0.895
627.23	0.896
627.42	0.892
627.61	0.893
627.80	0.896
628.00	0.897
628.19	0.894
628.38	0.897
628.57	0.899
628.76	0.899
628.96	0.895
629.15	0.896
629.34	0.898
629.53	0.899
629.72	0.893
629.91	0.893
630.11	0.896
630.30	0.896
630.49	0.901
630.68	0.901
630.87	0.904
631.06	0.907
631.26	0.900
631.45	0.902
631.64	0.912
631.83	0.914
632.02	0.913
632.21	0.913
632.41	0.923
632.60	0.917
632.79	0.916
632.98	0.918
633.17	0.920
633.36	0.923
633.55	0.920
633.75	0.914
633.94	0.917
634.13	0.918
634.32	0.916
634.51	0.910
634.70	0.910
634.89	0.910
635.09	0.906
635.28	0.906
635.47	0.907
635.66	0.910
635.85	0.908
636.04	0.909
636.23	0.913
636.43	0.913
636.62	0.913
636.81	0.911
637.00	0.913
637.19	0.915
637.38	0.913
637.57	0.913
637.76	0.914
637.95	0.914
638.15	0.911
638.34	0.908
638.53	0.912
638.72	0.913
638.91	0.910
639.10	0.909
639.29	0.907
639.48	0.909
639.67	0.910
639.87	0.910
640.06	0.917
640.25	0.916
640.44	0.916
640.63	0.918
640.82	0.920
641.01	0.921
641.20	0.921
641.39	0.924
641.58	0.925
641.78	0.924
641.97	0.920
642.16	0.940
642.35	0.940
642.54	0.940
642.73	0.934
642.92	0.931
643.11	0.935
643.30	0.935
643.49	0.930
643.68	0.933
643.87	0.933
644.06	0.932
644.25	0.904
644.45	0.909
644.64	0.910
644.83	0.911
645.02	0.910
645.21	0.908
645.40	0.908
645.59	0.909
645.78	0.902
645.97	0.907
646.16	0.907
646.35	0.907
646.54	0.905
646.73	0.906
646.92	0.908
647.11	0.907
647.30	0.904
647.49	0.907
647.68	0.905
647.88	0.904
648.07	0.895
648.26	0.901
648.45	0.900
648.64	0.896
648.83	0.894
649.02	0.897
649.21	0.909
649.40	0.908
649.59	0.903
649.78	0.904
649.97	0.923
650.16	0.923
650.35	0.914
650.54	0.919
650.73	0.927
650.92	0.924
651.11	0.913
651.30	0.911
651.49	0.915
651.68	0.915
651.87	0.912
652.06	0.898
652.25	0.900
652.44	0.906
652.63	0.906
652.82	0.911
653.01	0.911
653.20	0.911
653.39	0.897
653.58	0.893
653.77	0.891
653.96	0.884
654.15	0.874
654.34	0.871
654.53	0.864
654.72	0.854
654.91	0.840
655.10	0.834
655.29	0.830
655.48	0.826
655.67	0.820
655.86	0.816
656.05	0.814
656.24	0.814
656.43	0.808
656.62	0.806
656.81	0.806
657.00	0.801
657.19	0.796
657.38	0.794
657.57	0.792
657.76	0.794
657.95	0.791
658.14	0.794
658.33	0.796
658.51	0.801
658.70	0.801
658.89	0.803
659.08	0.816
659.27	0.828
659.46	0.831
659.65	0.839
659.84	0.845
660.03	0.850
660.22	0.853
660.41	0.860
660.60	0.858
660.79	0.860
660.98	0.869
661.17	0.866
661.36	0.864
661.55	0.865
661.74	0.864
661.92	0.868
662.11	0.869
662.30	0.866
662.49	0.858
662.68	0.857
662.87	0.860
663.06	0.851
663.25	0.855
663.44	0.855
663.63	0.856
663.82	0.855
664.01	0.849
664.20	0.847
664.38	0.849
664.57	0.850
664.76	0.851
664.95	0.851
665.14	0.856
665.33	0.851
665.52	0.863
665.71	0.870
665.90	0.869
666.09	0.871
666.28	0.870
666.46	0.866
666.65	0.866
666.84	0.864
667.03	0.858
667.22	0.857
667.41	0.860
667.60	0.846
667.79	0.837
667.98	0.839
668.16	0.838
668.35	0.837
668.54	0.835
668.73	0.837
668.92	0.837
669.11	0.837
669.30	0.830
669.49	0.825
669.67	0.828
669.86	0.831
670.05	0.829
670.24	0.826
670.43	0.823
670.62	0.822
670.81	0.816
671.00	0.816
671.18	0.815
671.37	0.814
671.56	0.811
671.75	0.808
671.94	0.802
672.13	0.799
672.32	0.794
672.50	0.793
672.69	0.792
672.88	0.791
673.07	0.787
673.26	0.790
673.45	0.790
673.63	0.790
673.82	0.787
674.01	0.789
674.20	0.789
674.39	0.789
674.58	0.789
674.76	0.791
674.95	0.791
675.14	0.791
675.33	0.786
675.52	0.785
675.71	0.785
675.89	0.784
676.08	0.781
676.27	0.780
676.46	0.780
676.65	0.779
676.84	0.778
677.02	0.779
677.21	0.780
677.40	0.780
677.59	0.777
677.78	0.778
677.96	0.780
678.15	0.779
678.34	0.778
678.53	0.779
678.72	0.779
678.90	0.775
679.09	0.770
679.28	0.767
679.47	0.766
679.66	0.765
679.84	0.762
680.03	0.758
680.22	0.757
680.41	0.758
680.60	0.755
680.78	0.753
680.97	0.756
681.16	0.756
681.35	0.755
681.53	0.754
681.72	0.756
681.91	0.759
682.10	0.758
682.29	0.761
682.47	0.758
682.66	0.754
682.85	0.754
683.04	0.753
683.22	0.752
683.41	0.754
683.60	0.753
683.79	0.754
683.97	0.751
684.16	0.750
684.35	0.745
684.54	0.747
684.72	0.748
684.91	0.749
685.10	0.747
685.29	0.748
685.47	0.744
685.66	0.743
685.85	0.739
686.04	0.738
686.22	0.740
686.41	0.743
686.60	0.741
686.79	0.745
686.97	0.744
687.16	0.746
687.35	0.743
687.54	0.748
687.72	0.751
687.91	0.751
688.10	0.754
688.29	0.754
688.47	0.750
688.66	0.750
688.85	0.746
689.03	0.744
689.22	0.751
689.41	0.752
689.60	0.748
689.78	0.746
689.97	0.746
690.16	0.743
690.34	0.739
690.53	0.739
690.72	0.739
690.91	0.736
691.09	0.734
691.28	0.727
691.47	0.724
691.65	0.723
691.84	0.720
692.03	0.720
692.21	0.717
692.40	0.717
692.59	0.715
692.77	0.714
692.96	0.715
693.15	0.715
693.34	0.713
693.52	0.713
693.71	0.713
693.90	0.714
694.08	0.716
694.27	0.717
694.46	0.730
694.64	0.730
694.83	0.730
695.02	0.729
695.20	0.728
695.39	0.727
695.58	0.727
695.76	0.727
695.95	0.724
696.14	0.722
696.32	0.720
696.51	0.706
696.70	0.706
696.88	0.706
697.07	0.705
697.26	0.706
697.44	0.707
697.63	0.706
697.81	0.704
698.00	0.703
698.19	0.702
698.37	0.702
698.56	0.701
698.75	0.700
698.93	0.700
699.12	0.698
699.31	0.698
699.49	0.697
699.68	0.697
699.87	0.700
700.05	0.701
700.24	0.701
700.42	0.702
700.61	0.702
700.80	0.701
700.98	0.702
701.17	0.703
701.36	0.703
701.54	0.703
701.73	0.704
701.91	0.700
702.10	0.699
702.29	0.698
702.47	0.696
702.66	0.697
702.84	0.698
703.03	0.696
703.22	0.699
703.40	0.698
703.59	0.699
703.77	0.700
703.96	0.700
704.15	0.700
704.33	0.700
704.52	0.701
704.70	0.701
704.89	0.699
705.08	0.697
705.26	0.693
705.45	0.692
705.63	0.691
705.82	0.686
706.00	0.685
706.19	0.684
706.38	0.684
706.56	0.683
706.75	0.681
706.93	0.680
707.12	0.681
707.30	0.681
707.49	0.680
707.68	0.677
707.86	0.676
708.05	0.675
708.23	0.672
708.42	0.671
708.60	0.674
708.79	0.673
708.98	0.671
709.16	0.669
709.35	0.670
709.53	0.674
709.72	0.673
709.90	0.675
710.09	0.676
710.27	0.678
710.46	0.683
710.64	0.681
710.83	0.683
711.02	0.685
711.20	0.685
711.39	0.682
711.57	0.679
711.76	0.679
711.94	0.677
712.13	0.678
712.31	0.676
712.50	0.670
712.68	0.668
712.87	0.668
713.05	0.668
713.24	0.668
713.42	0.667
713.61	0.667
713.79	0.668
713.98	0.667
714.16	0.669
714.35	0.669
714.54	0.669
714.72	0.667
714.91	0.665
715.09	0.673
715.28	0.675
715.46	0.675
715.65	0.673
715.83	0.673
716.02	0.675
716.20	0.671
716.39	0.671
716.57	0.673
716.76	0.676
716.94	0.676
717.12	0.666
717.31	0.667
717.49	0.669
717.68	0.672
717.86	0.671
718.05	0.672
718.23	0.673
718.42	0.675
718.60	0.677
718.79	0.687
718.97	0.689
719.16	0.690
719.34	0.688
719.53	0.688
719.71	0.686
719.90	0.688
720.08	0.685
720.27	0.687
720.45	0.685
720.63	0.683
720.82	0.676
721.00	0.678
721.19	0.680
721.37	0.678
721.56	0.678
721.74	0.679
721.93	0.688
722.11	0.694
722.30	0.693
722.48	0.698
722.66	0.696
722.85	0.694
723.03	0.695
723.22	0.694
723.40	0.695
723.59	0.696
723.77	0.703
723.95	0.693
724.14	0.695
724.32	0.696
724.51	0.695
724.69	0.697
724.88	0.696
725.06	0.693
725.24	0.693
725.43	0.696
725.61	0.697
725.80	0.688
725.98	0.687
726.16	0.683
726.35	0.690
726.53	0.688
726.72	0.687
726.90	0.698
727.09	0.699
727.27	0.706
727.45	0.702
727.64	0.712
727.82	0.718
728.01	0.723
728.19	0.719
728.37	0.723
728.56	0.727
728.74	0.734
728.92	0.722
729.11	0.722
729.29	0.717
729.48	0.721
729.66	0.709
729.84	0.708
730.03	0.709
730.21	0.711
730.40	0.700
730.58	0.698
730.76	0.694
730.95	0.695
731.13	0.693
731.31	0.708
731.50	0.714
731.68	0.716
731.86	0.713
732.05	0.727
732.23	0.727
732.42	0.732
732.60	0.735
732.78	0.741
732.97	0.756
733.15	0.764
733.33	0.752
733.52	0.759
733.70	0.767
733.88	0.775
734.07	0.760
734.25	0.786
734.43	0.790
734.62	0.793
734.80	0.787
734.98	0.777
735.17	0.781
735.35	0.788
735.53	0.778
735.72	0.780
735.90	0.804
736.08	0.825
736.27	0.805
736.45	0.815
736.63	0.826
736.82	0.837
737.00	0.842
737.18	0.854
737.37	0.885
737.55	0.913
737.73	0.910
737.92	0.909
738.10	0.898
738.28	0.917
738.46	0.907
738.65	0.926
738.83	0.944
739.01	1.011
739.20	1.005
739.38	0.982
739.56	0.965
739.75	0.973
739.93	0.944
740.11	0.975
740.29	0.969
740.48	0.976
740.66	0.950
740.84	0.946
741.03	0.898
741.21	0.911
741.39	0.896
741.57	0.909
741.76	0.919
741.94	0.924
742.12	0.892
742.31	0.903
742.49	0.924
742.67	0.950
742.85	0.972
743.04	0.980
743.22	0.985
743.40	1.049
743.58	1.038
743.77	1.069
743.95	1.107
744.13	1.177
744.31	1.160
744.50	1.150
744.68	1.144
744.86	1.112
745.04	1.131
745.23	1.233
745.41	1.194
745.59	1.203
745.77	1.168
745.96	1.151
746.14	1.153
746.32	1.155
746.50	1.147
746.69	1.136
746.87	1.140
747.05	1.122
747.23	1.032
747.42	1.018
747.60	1.039
747.78	1.039
747.96	1.085
748.14	1.033
748.33	1.060
748.51	1.061
748.69	1.059
748.87	1.095
749.06	1.083
749.24	1.072
749.42	1.055
749.60	1.039
749.78	1.041
749.97	0.988
750.15	0.982
750.33	0.984
750.51	1.004
750.69	1.006
750.88	1.021
751.06	1.031
751.24	1.058
751.42	1.052
751.60	1.047
751.79	1.142
751.97	1.189
752.15	1.188
752.33	1.149
752.51	1.241
752.69	1.249
752.88	1.196
753.06	1.277
753.24	1.244
753.42	1.282
753.60	1.592
753.78	1.342
753.97	1.372
754.15	1.390
754.33	1.441
754.51	1.261
754.69	1.236
754.87	1.277
755.06	1.170
755.24	1.182
755.42	1.200
755.60	1.044
755.78	1.058
755.96	0.999
756.15	0.995
756.33	0.993
756.51	1.013
756.69	1.008
756.87	0.965
757.05	0.980
757.23	0.955
757.42	0.921
757.60	0.923
757.78	0.910
757.96	0.909
758.14	0.897
758.32	0.880
758.50	0.889
758.69	0.883
758.87	0.876
759.05	0.879
759.23	0.889
759.41	0.890
759.59	0.886
759.77	0.906
759.95	0.937
760.13	0.999
760.32	1.006
760.50	1.003
760.68	1.032
760.86	1.038
761.04	1.015
761.22	1.028
761.40	1.089
761.58	1.089
761.76	1.061
761.95	1.034
762.13	0.974
762.31	0.976
762.49	0.944
762.67	0.970
762.85	0.980
763.03	0.980
763.21	0.959
763.39	0.932
763.57	0.929
763.75	0.924
763.94	0.910
764.12	0.910
764.30	0.937
764.48	0.940
764.66	0.898
764.84	0.897
765.02	0.932
765.20	0.940
765.38	0.920
765.56	0.928
765.74	0.970
765.92	0.968
766.10	0.982
766.28	0.969
766.46	1.001
766.65	0.998
766.83	0.989
767.01	0.972
767.19	0.971
767.37	0.971
767.55	0.961
767.73	0.931
767.91	0.935
768.09	0.917
768.27	0.909
768.45	0.894
768.63	0.899
768.81	0.899
768.99	0.874
769.17	0.901
769.35	0.910
769.53	0.907
769.71	0.892
769.89	0.897
770.07	0.898
770.25	0.877
770.43	0.858
770.61	0.881
770.79	0.882
770.97	0.886
771.15	0.856
771.33	0.858
771.51	0.858
771.69	0.871
771.87	0.887
772.05	0.892
772.24	0.897
772.42	0.906
772.60	0.886
772.78	0.959
772.96	0.990
773.14	0.994
773.32	0.976
773.49	0.988
773.67	0.983
773.85	0.958
774.03	0.952
774.21	0.994
774.39	1.000
774.57	1.033
774.75	0.944
774.93	0.938
775.11	0.954
775.29	0.964
775.47	0.970
775.65	0.982
775.83	1.001
776.01	1.034
776.19	0.982
776.37	0.990
776.55	0.991
776.73	0.988
776.91	0.988
777.09	0.966
777.27	0.962
777.45	0.951
777.63	0.925
777.81	0.918
777.99	0.892
778.17	0.890
778.35	0.869
778.53	0.850
778.71	0.853
778.89	0.839
779.07	0.831
779.24	0.834
779.42	0.829
779.60	0.854
779.78	0.854
779.96	0.857
780.14	0.862
780.32	0.886
780.50	0.867
780.68	0.867
780.86	0.856
781.04	0.877
781.22	0.887
781.40	0.898
781.58	0.882
781.75	0.870
781.93	0.862
782.11	0.858
782.29	0.836
782.47	0.838
782.65	0.827
782.83	0.854
783.01	0.839
783.19	0.828
783.37	0.816
783.55	0.816
783.72	0.838
783.90	0.844
784.08	0.841
784.26	0.855
784.44	0.876
784.62	0.881
784.80	0.850
784.98	0.860
785.16	0.867
785.33	0.884
785.51	0.873
785.69	0.855
785.87	0.853
786.05	0.869
786.23	0.871
786.41	0.865
786.59	0.868
786.77	0.872
786.94	0.859
787.12	0.860
787.30	0.862
787.48	0.859
787.66	0.851
787.84	0.851
788.02	0.836
788.19	0.831
788.37	0.819
788.55	0.822
788.73	0.816
788.91	0.810
789.09	0.795
789.27	0.781
789.44	0.793
789.62	0.800
789.80	0.817
789.98	0.845
790.16	0.831
790.34	0.826
790.51	0.818
790.69	0.846
790.87	0.850
791.05	0.849
791.23	0.842
791.41	0.839
791.58	0.842
791.76	0.814
791.94	0.783
792.12	0.789
792.30	0.789
792.48	0.785
792.65	0.780
792.83	0.789
793.01	0.793
793.19	0.793
793.37	0.780
793.54	0.778
793.72	0.789
793.90	0.788
794.08	0.776
794.26	0.778
794.43	0.783
794.61	0.763
794.79	0.750
794.97	0.747
795.15	0.749
795.32	0.752
795.50	0.741
795.68	0.732
795.86	0.732
796.04	0.736
796.21	0.730
796.39	0.729
796.57	0.742
796.75	0.754
796.92	0.759
797.10	0.764
797.28	0.765
797.46	0.769
797.64	0.775
797.81	0.785
797.99	0.788
798.17	0.793
798.35	0.790
798.52	0.798
798.70	0.788
798.88	0.798
799.06	0.799
799.23	0.804
799.41	0.812
799.59	0.804
799.77	0.795
799.94	0.802
800.12	0.809
800.30	0.828
800.48	0.827
800.65	0.828
800.83	0.812
801.01	0.804
801.19	0.807
801.36	0.801
801.54	0.801
801.72	0.813
801.90	0.801
802.07	0.795
802.25	0.775
802.43	0.757
802.60	0.754
802.78	0.763
802.96	0.766
803.14	0.758
803.31	0.758
803.49	0.758
803.67	0.750
803.84	0.756
804.02	0.750
804.20	0.754
804.38	0.758
804.55	0.755
804.73	0.740
804.91	0.740
805.08	0.753
805.26	0.748
805.44	0.840
805.61	0.843
805.79	0.839
805.97	0.838
806.15	0.833
806.32	0.827
806.50	0.833
806.68	0.834
806.85	0.828
807.03	0.814
807.21	0.832
807.38	0.740
807.56	0.730
807.74	0.740
807.91	0.745
808.09	0.745
808.27	0.769
808.44	0.800
808.62	0.806
808.80	0.807
808.97	0.806
809.15	0.801
809.33	0.819
809.50	0.827
809.68	0.815
809.86	0.825
810.03	0.863
810.21	0.837
810.39	0.818
810.56	0.824
810.74	0.849
810.91	0.945
811.09	0.932
811.27	0.958
811.44	0.962
811.62	0.965
811.80	0.953
811.97	0.912
812.15	0.913
812.33	0.906
812.50	0.896
812.68	0.879
812.85	0.799
813.03	0.808
813.21	0.775
813.38	0.772
813.56	0.773
813.74	0.783
813.91	0.795
814.09	0.827
814.26	0.815
814.44	0.818
814.62	0.812
814.79	0.815
814.97	0.812
815.14	0.814
815.32	0.811
815.50	0.826
815.67	0.823
815.85	0.810
816.02	0.798
816.20	0.805
816.38	0.818
816.55	0.821
816.73	0.826
816.90	0.837
817.08	0.870
817.26	0.884
817.43	0.864
817.61	0.896
817.78	0.915
817.96	0.890
818.13	0.882
818.31	0.876
818.49	0.884
818.66	0.869
818.84	0.857
819.01	0.828
819.19	0.830
819.36	0.835
819.54	0.799
819.71	0.847
819.89	0.859
820.07	0.871
820.24	0.872
820.42	0.873
820.59	0.885
820.77	0.912
820.94	0.908
821.12	0.930
821.29	0.939
821.47	0.946
821.64	0.875
821.82	0.888
822.00	0.884
822.17	0.884
822.35	0.881
822.52	0.891
822.70	0.874
822.87	0.885
823.05	0.863
823.22	0.875
823.40	0.895
823.57	0.927
823.75	0.915
823.92	0.940
824.10	0.954
824.27	1.010
824.45	1.004
824.62	1.079
824.80	1.097
824.97	1.125
825.15	1.125
825.32	1.158
825.50	1.142
825.67	1.146
825.85	1.128
826.02	1.145
826.20	1.146
826.37	1.322
826.55	1.218
826.72	1.522
826.90	1.587
827.07	1.685
827.25	1.567
827.42	1.870
827.60	2.258
827.77	-0.000
827.95	-0.000
828.12	-0.000
828.30	1.881
828.47	2.220
828.65	1.424
828.82	1.525
829.00	1.581
829.17	1.712
829.34	1.733
829.52	1.866
829.69	-0.000
829.87	-0.000
830.04	-0.000
830.22	-0.000
830.39	-0.000
830.57	-0.000
830.74	-0.000
830.92	-0.000
831.09	-0.000
831.26	-0.000
831.44	-0.000
831.61	-0.000
831.79	-0.000
831.96	-0.000
832.14	-0.000
832.31	-0.000
832.49	-0.000
832.66	-0.000
832.83	-0.000
833.01	-0.000
833.18	-0.000
833.36	-0.000
833.53	-0.000
833.70	-0.000
833.88	-0.000
834.05	-0.000
834.23	-0.000
834.40	-0.000
834.58	-0.000
834.75	-0.000
834.92	-0.000
835.10	-0.000
835.27	-0.000
835.45	-0.000
835.62	-0.000
835.79	-0.000
835.97	-0.000
836.14	-0.000
836.32	-0.000
836.49	-0.000
836.66	-0.000
836.84	-0.000
837.01	-0.000
837.18	-0.000
837.36	-0.000
837.53	-0.000
837.71	-0.000
837.88	-0.000
838.05	-0.000
838.23	-0.000
838.40	-0.000
838.58	-0.000
838.75	-0.000
838.92	-0.000
839.10	-0.000
839.27	-0.000
839.44	-0.000
839.62	-0.000
839.79	-0.000
839.96	-0.000
840.14	-0.000
840.31	-0.000
840.48	-0.000
840.66	-0.000
840.83	-0.000
841.01	-0.000
841.18	-0.000
841.35	-0.000
841.53	-0.000
841.70	-0.000
841.87	-0.000
842.05	-0.000
842.22	-0.000
842.39	-0.000
842.57	-0.000
842.74	-0.000
842.91	-0.000
843.09	-0.000
843.26	-0.000
843.43	-0.000
843.60	-0.000
843.78	-0.000
843.95	-0.000
844.12	-0.000
844.30	-0.000
844.47	-0.000
844.64	-0.000
844.82	-0.000
844.99	-0.000
845.16	-0.000
845.34	-0.000
845.51	-0.000
845.68	-0.000
845.85	-0.000
846.03	-0.000
846.20	-0.000
846.37	-0.000
846.55	-0.000
846.72	-0.000
846.89	-0.000
847.06	-0.000
847.24	-0.000
847.41	-0.000
847.58	-0.000
847.76	-0.000
847.93	-0.000
848.10	-0.000
848.27	-0.000
848.45	-0.000
848.62	-0.000
848.79	-0.000
848.97	-0.000
849.14	-0.000
849.31	-0.000
849.48	-0.000
849.66	-0.000
849.83	-0.000
850.00	-0.000
850.17	-0.000
850.35	-0.000
850.52	-0.000
850.69	-0.000
850.86	-0.000
851.04	-0.000
851.21	-0.000
851.38	-0.000
851.55	-0.000
851.72	-0.000
851.90	-0.000
852.07	-0.000
852.24	-0.000
852.41	-0.000
852.59	-0.000
852.76	-0.000
852.93	-0.000
853.10	-0.000
853.28	-0.000
853.45	-0.000
853.62	-0.000
853.79	-0.000
853.96	-0.000
854.14	-0.000
854.31	-0.000
854.48	-0.000
854.65	-0.000
854.82	-0.000
855.00	-0.000
855.17	-0.000
855.34	-0.000
855.51	-0.000
855.68	-0.000
855.86	-0.000
856.03	-0.000
856.20	-0.000
856.37	-0.000
856.54	-0.000
856.72	-0.000
856.89	-0.000
857.06	-0.000
857.23	-0.000
857.40	-0.000
857.57	-0.000
857.75	-0.000
857.92	-0.000
858.09	-0.000
858.26	-0.000
858.43	-0.000
858.60	-0.000
858.78	-0.000
858.95	-0.000
859.12	-0.000
859.29	-0.000
859.46	-0.000
859.63	-0.000
859.81	-0.000
859.98	-0.000
860.15	-0.000
860.32	-0.000
860.49	-0.000
860.66	-0.000
860.83	-0.000
861.01	-0.000
861.18	-0.000
861.35	-0.000
861.52	-0.000
861.69	-0.000
861.86	-0.000
862.03	-0.000
862.21	-0.000
862.38	-0.000
862.55	-0.000
862.72	-0.000
862.89	-0.000
863.06	-0.000
863.23	-0.000
863.40	-0.000
863.58	-0.000
863.75	-0.000
863.92	-0.000
864.09	-0.000
864.26	-0.000
864.43	-0.000
864.60	-0.000
864.77	-0.000
864.94	-0.000
865.11	-0.000
865.29	-0.000
865.46	-0.000
865.63	-0.000
865.80	-0.000
865.97	-0.000
866.14	-0.000
866.31	-0.000
866.48	-0.000
866.65	-0.000
866.82	-0.000
866.99	-0.000
867.16	-0.000
867.34	-0.000
867.51	-0.000
867.68	-0.000
867.85	-0.000
868.02	-0.000
868.19	-0.000
868.36	-0.000
868.53	-0.000
868.70	-0.000
868.87	-0.000
869.04	-0.000
869.21	-0.000
869.38	-0.000
869.55	-0.000
869.72	-0.000
869.89	-0.000
870.06	-0.000
870.24	-0.000
870.41	-0.000
870.58	-0.000
870.75	-0.000
870.92	-0.000
871.09	-0.000
871.26	-0.000
871.43	-0.000
871.60	-0.000
871.77	-0.000
871.94	-0.000
872.11	-0.000
872.28	-0.000
872.45	-0.000
872.62	-0.000
872.79	-0.000
872.96	-0.000
873.13	-0.000
873.30	-0.000
873.47	-0.000
873.64	-0.000
873.81	-0.000
873.98	-0.000
874.15	-0.000
874.32	-0.000
874.49	-0.000
874.66	-0.000
874.83	-0.000
875.00	-0.000
875.17	-0.000
875.34	-0.000
875.51	-0.000
875.68	-0.000
875.85	-0.000
876.02	-0.000
876.19	-0.000
876.36	-0.000
876.53	-0.000
876.70	-0.000
876.87	-0.000
877.04	-0.000
877.21	-0.000
877.38	-0.000
877.55	-0.000
877.72	-0.000
877.89	-0.000
878.06	-0.000
878.23	-0.000
878.39	-0.000
878.56	-0.000
878.73	-0.000
878.90	-0.000
879.07	-0.000
879.24	-0.000
879.41	-0.000
879.58	-0.000
879.75	-0.000
879.92	-0.000
880.09	-0.000
880.26	-0.000
880.43	-0.000
880.60	-0.000
880.77	-0.000
880.94	-0.000
881.11	-0.000
881.27	-0.000
881.44	-0.000
881.61	-0.000
881.78	-0.000
881.95	-0.000
882.12	-0.000
882.29	-0.000
882.46	-0.000
882.63	-0.000
882.80	-0.000
882.97	-0.000
883.14	-0.000
883.30	-0.000
883.47	-0.000
883.64	-0.000
883.81	-0.000
883.98	-0.000
884.15	-0.000
884.32	-0.000
884.49	-0.000
884.66	-0.000
884.82	-0.000
884.99	-0.000
885.16	-0.000
885.33	-0.000
885.50	-0.000
885.67	-0.000
885.84	-0.000
886.01	-0.000
886.17	-0.000
886.34	-0.000
886.51	-0.000
886.68	-0.000
886.85	-0.000
887.02	-0.000
887.19	-0.000
887.36	-0.000
887.52	-0.000
887.69	-0.000
887.86	-0.000
888.03	-0.000
888.20	-0.000
888.37	-0.000
888.54	-0.000
888.70	-0.000
888.87	-0.000
889.04	-0.000
889.21	-0.000
889.38	-0.000
889.55	-0.000
889.71	-0.000
889.88	-0.000
890.05	-0.000
890.22	-0.000
890.39	-0.000
>>>>>End Processed Spectral Data<<<<<
