SpectraSuite Data File
++++++++++++++++++++++++++++++++++++
Date: Fri Jun 19 14:11:40 CEST 2015
User: introlabs
Dark Spectrum Present: Yes
Reference Spectrum Present: Yes
Number of Sampled Component Spectra: 1
Spectrometers: USB4H08886
Integration Time (usec): 745692 (USB4H08886)
Spectra Averaged: 5 (USB4H08886)
Boxcar Smoothing: 5 (USB4H08886)
Correct for Electrical Dark: Yes (USB4H08886)
Strobe/Lamp Enabled: No (USB4H08886)
Correct for Detector Non-linearity: Yes (USB4H08886)
Correct for Stray Light: Yes (USB4H08886)
Number of Pixels in Processed Spectrum: 3648
>>>>>Begin Processed Spectral Data<<<<<
178.14	-0.000
178.36	-0.000
178.57	-0.000
178.79	-0.000
179.01	-0.000
179.22	-0.000
179.44	-0.000
179.65	-0.000
179.87	-0.000
180.08	-0.000
180.30	-0.000
180.52	-0.000
180.73	-0.000
180.95	-0.000
181.16	-0.000
181.38	-0.000
181.59	-0.000
181.81	-0.000
182.03	-0.000
182.24	-0.000
182.46	-0.000
182.67	-0.000
182.89	-0.000
183.10	-0.000
183.32	-0.000
183.54	-0.000
183.75	-0.000
183.97	-0.000
184.18	-0.000
184.40	-0.000
184.61	-0.000
184.83	-0.000
185.04	-0.000
185.26	-0.000
185.48	-0.000
185.69	-0.000
185.91	-0.000
186.12	-0.000
186.34	-0.000
186.55	-0.000
186.77	-0.000
186.98	-0.000
187.20	-0.000
187.42	-0.000
187.63	-0.000
187.85	-0.000
188.06	-0.000
188.28	-0.000
188.49	-0.000
188.71	-0.000
188.92	-0.000
189.14	-0.000
189.36	-0.000
189.57	-0.000
189.79	-0.000
190.00	-0.000
190.22	-0.000
190.43	-0.000
190.65	-0.000
190.86	-0.000
191.08	-0.000
191.29	-0.000
191.51	-0.000
191.72	-0.000
191.94	-0.000
192.16	-0.000
192.37	-0.000
192.59	-0.000
192.80	-0.000
193.02	-0.000
193.23	-0.000
193.45	-0.000
193.66	-0.000
193.88	-0.000
194.09	-0.000
194.31	-0.000
194.52	-0.000
194.74	-0.000
194.95	-0.000
195.17	-0.000
195.38	-0.000
195.60	-0.000
195.81	-0.000
196.03	-0.000
196.25	-0.000
196.46	-0.000
196.68	-0.000
196.89	-0.000
197.11	-0.000
197.32	-0.000
197.54	-0.000
197.75	-0.000
197.97	-0.000
198.18	-0.000
198.40	-0.000
198.61	-0.000
198.83	-0.000
199.04	-0.000
199.26	-0.000
199.47	-0.000
199.69	-0.000
199.90	-0.000
200.12	-0.000
200.33	-0.000
200.55	-0.000
200.76	-0.000
200.98	-0.000
201.19	-0.000
201.41	-0.000
201.62	-0.000
201.84	-0.000
202.05	-0.000
202.27	-0.000
202.48	-0.000
202.70	-0.000
202.91	-0.000
203.13	-0.000
203.34	-0.000
203.56	-0.000
203.77	-0.000
203.99	-0.000
204.20	-0.000
204.42	-0.000
204.63	-0.000
204.85	-0.000
205.06	-0.000
205.28	-0.000
205.49	-0.000
205.71	-0.000
205.92	-0.000
206.14	-0.000
206.35	-0.000
206.56	-0.000
206.78	-0.000
206.99	-0.000
207.21	-0.000
207.42	-0.000
207.64	-0.000
207.85	-0.000
208.07	-0.000
208.28	-0.000
208.50	-0.000
208.71	-0.000
208.93	-0.000
209.14	-0.000
209.36	-0.000
209.57	-0.000
209.79	-0.000
210.00	-0.000
210.22	-0.000
210.43	-0.000
210.64	-0.000
210.86	-0.000
211.07	-0.000
211.29	-0.000
211.50	-0.000
211.72	-0.000
211.93	-0.000
212.15	-0.000
212.36	-0.000
212.58	-0.000
212.79	-0.000
213.01	-0.000
213.22	-0.000
213.43	-0.000
213.65	-0.000
213.86	-0.000
214.08	-0.000
214.29	-0.000
214.51	-0.000
214.72	-0.000
214.94	-0.000
215.15	-0.000
215.36	-0.000
215.58	-0.000
215.79	-0.000
216.01	-0.000
216.22	-0.000
216.44	-0.000
216.65	-0.000
216.87	-0.000
217.08	-0.000
217.29	-0.000
217.51	-0.000
217.72	-0.000
217.94	-0.000
218.15	-0.000
218.37	-0.000
218.58	-0.000
218.80	-0.000
219.01	-0.000
219.22	-0.000
219.44	-0.000
219.65	-0.000
219.87	-0.000
220.08	-0.000
220.30	-0.000
220.51	-0.000
220.72	-0.000
220.94	-0.000
221.15	-0.000
221.37	-0.000
221.58	-0.000
221.79	-0.000
222.01	-0.000
222.22	-0.000
222.44	-0.000
222.65	-0.000
222.87	-0.000
223.08	-0.000
223.29	-0.000
223.51	-0.000
223.72	-0.000
223.94	-0.000
224.15	-0.000
224.36	-0.000
224.58	-0.000
224.79	-0.000
225.01	-0.000
225.22	-0.000
225.44	-0.000
225.65	-0.000
225.86	-0.000
226.08	-0.000
226.29	-0.000
226.51	-0.000
226.72	-0.000
226.93	-0.000
227.15	-0.000
227.36	-0.000
227.58	-0.000
227.79	-0.000
228.00	-0.000
228.22	-0.000
228.43	-0.000
228.65	-0.000
228.86	-0.000
229.07	-0.000
229.29	-0.000
229.50	-0.000
229.72	-0.000
229.93	-0.000
230.14	-0.000
230.36	-0.000
230.57	-0.000
230.78	-0.000
231.00	-0.000
231.21	-0.000
231.43	-0.000
231.64	-0.000
231.85	-0.000
232.07	-0.000
232.28	-0.000
232.50	-0.000
232.71	-0.000
232.92	-0.000
233.14	-0.000
233.35	-0.000
233.56	-0.000
233.78	-0.000
233.99	-0.000
234.21	-0.000
234.42	-0.000
234.63	-0.000
234.85	-0.000
235.06	-0.000
235.27	-0.000
235.49	-0.000
235.70	-0.000
235.91	-0.000
236.13	-0.000
236.34	-0.000
236.56	-0.000
236.77	-0.000
236.98	-0.000
237.20	-0.000
237.41	-0.000
237.62	-0.000
237.84	-0.000
238.05	-0.000
238.26	-0.000
238.48	-0.000
238.69	-0.000
238.91	-0.000
239.12	-0.000
239.33	-0.000
239.55	-0.000
239.76	-0.000
239.97	-0.000
240.19	-0.000
240.40	-0.000
240.61	-0.000
240.83	-0.000
241.04	-0.000
241.25	-0.000
241.47	-0.000
241.68	-0.000
241.89	-0.000
242.11	-0.000
242.32	-0.000
242.53	-0.000
242.75	-0.000
242.96	-0.000
243.17	-0.000
243.39	-0.000
243.60	-0.000
243.81	-0.000
244.03	-0.000
244.24	-0.000
244.45	-0.000
244.67	-0.000
244.88	-0.000
245.09	-0.000
245.31	-0.000
245.52	-0.000
245.73	-0.000
245.95	-0.000
246.16	-0.000
246.37	-0.000
246.59	-0.000
246.80	-0.000
247.01	-0.000
247.23	-0.000
247.44	-0.000
247.65	-0.000
247.87	-0.000
248.08	-0.000
248.29	-0.000
248.51	-0.000
248.72	-0.000
248.93	-0.000
249.15	-0.000
249.36	-0.000
249.57	-0.000
249.78	-0.000
250.00	-0.000
250.21	-0.000
250.42	-0.000
250.64	-0.000
250.85	-0.000
251.06	-0.000
251.28	-0.000
251.49	-0.000
251.70	-0.000
251.92	-0.000
252.13	-0.000
252.34	-0.000
252.55	-0.000
252.77	-0.000
252.98	-0.000
253.19	-0.000
253.41	-0.000
253.62	-0.000
253.83	-0.000
254.05	-0.000
254.26	-0.000
254.47	-0.000
254.68	-0.000
254.90	-0.000
255.11	-0.000
255.32	-0.000
255.54	-0.000
255.75	-0.000
255.96	-0.000
256.17	-0.000
256.39	-0.000
256.60	-0.000
256.81	-0.000
257.03	-0.000
257.24	-0.000
257.45	-0.000
257.66	-0.000
257.88	-0.000
258.09	-0.000
258.30	-0.000
258.51	-0.000
258.73	-0.000
258.94	-0.000
259.15	-0.000
259.37	-0.000
259.58	-0.000
259.79	-0.000
260.00	-0.000
260.22	-0.000
260.43	-0.000
260.64	-0.000
260.85	-0.000
261.07	-0.000
261.28	-0.000
261.49	-0.000
261.71	-0.000
261.92	-0.000
262.13	-0.000
262.34	-0.000
262.56	-0.000
262.77	-0.000
262.98	-0.000
263.19	-0.000
263.41	-0.000
263.62	-0.000
263.83	-0.000
264.04	-0.000
264.26	-0.000
264.47	-0.000
264.68	-0.000
264.89	-0.000
265.11	-0.000
265.32	-0.000
265.53	-0.000
265.74	-0.000
265.96	-0.000
266.17	-0.000
266.38	-0.000
266.59	-0.000
266.81	-0.000
267.02	-0.000
267.23	-0.000
267.44	-0.000
267.65	-0.000
267.87	-0.000
268.08	-0.000
268.29	-0.000
268.50	-0.000
268.72	-0.000
268.93	-0.000
269.14	-0.000
269.35	-0.000
269.57	-0.000
269.78	-0.000
269.99	-0.000
270.20	-0.000
270.41	-0.000
270.63	-0.000
270.84	-0.000
271.05	-0.000
271.26	-0.000
271.48	-0.000
271.69	-0.000
271.90	-0.000
272.11	-0.000
272.32	-0.000
272.54	-0.000
272.75	-0.000
272.96	-0.000
273.17	-0.000
273.39	-0.000
273.60	-0.000
273.81	-0.000
274.02	-0.000
274.23	-0.000
274.45	-0.000
274.66	-0.000
274.87	-0.000
275.08	-0.000
275.29	-0.000
275.51	-0.000
275.72	-0.000
275.93	-0.000
276.14	-0.000
276.35	-0.000
276.57	-0.000
276.78	-0.000
276.99	-0.000
277.20	-0.000
277.41	-0.000
277.63	-0.000
277.84	-0.000
278.05	-0.000
278.26	-0.000
278.47	-0.000
278.69	-0.000
278.90	-0.000
279.11	-0.000
279.32	-0.000
279.53	-0.000
279.74	-0.000
279.96	-0.000
280.17	-0.000
280.38	-0.000
280.59	-0.000
280.80	-0.000
281.02	-0.000
281.23	-0.000
281.44	-0.000
281.65	-0.000
281.86	-0.000
282.07	-0.000
282.29	-0.000
282.50	-0.000
282.71	-0.000
282.92	-0.000
283.13	-0.000
283.35	-0.000
283.56	-0.000
283.77	-0.000
283.98	-0.000
284.19	-0.000
284.40	-0.000
284.62	-0.000
284.83	-0.000
285.04	-0.000
285.25	-0.000
285.46	-0.000
285.67	-0.000
285.88	-0.000
286.10	-0.000
286.31	-0.000
286.52	-0.000
286.73	-0.000
286.94	-0.000
287.15	-0.000
287.37	-0.000
287.58	-0.000
287.79	-0.000
288.00	-0.000
288.21	-0.000
288.42	-0.000
288.63	-0.000
288.85	-0.000
289.06	-0.000
289.27	-0.000
289.48	-0.000
289.69	-0.000
289.90	-0.000
290.11	-0.000
290.33	-0.000
290.54	-0.000
290.75	-0.000
290.96	-0.000
291.17	-0.000
291.38	-0.000
291.59	-0.000
291.81	-0.000
292.02	-0.000
292.23	-0.000
292.44	-0.000
292.65	-0.000
292.86	-0.000
293.07	-0.000
293.28	3.391
293.50	-0.000
293.71	-0.000
293.92	-0.000
294.13	-0.000
294.34	-0.000
294.55	-0.000
294.76	-0.000
294.97	-0.000
295.19	-0.000
295.40	-0.000
295.61	-0.000
295.82	-0.000
296.03	2.874
296.24	-0.000
296.45	1.982
296.66	1.693
296.87	1.696
297.09	1.760
297.30	1.940
297.51	1.633
297.72	1.601
297.93	1.669
298.14	1.641
298.35	1.599
298.56	1.574
298.77	1.675
298.99	1.657
299.20	1.645
299.41	1.624
299.62	1.584
299.83	1.577
300.04	1.523
300.25	1.517
300.46	1.555
300.67	1.530
300.88	1.482
301.10	1.487
301.31	1.553
301.52	1.492
301.73	1.442
301.94	1.446
302.15	1.461
302.36	1.419
302.57	1.364
302.78	1.368
302.99	1.407
303.20	1.421
303.41	1.340
303.63	1.325
303.84	1.335
304.05	1.335
304.26	1.278
304.47	1.283
304.68	1.283
304.89	1.275
305.10	1.239
305.31	1.226
305.52	1.267
305.73	1.261
305.94	1.224
306.15	1.213
306.37	1.234
306.58	1.243
306.79	1.215
307.00	1.238
307.21	1.271
307.42	1.266
307.63	1.234
307.84	1.203
308.05	1.236
308.26	1.236
308.47	1.216
308.68	1.212
308.89	1.215
309.10	1.213
309.31	1.175
309.52	1.170
309.73	1.187
309.95	1.182
310.16	1.155
310.37	1.145
310.58	1.164
310.79	1.163
311.00	1.156
311.21	1.153
311.42	1.155
311.63	1.153
311.84	1.136
312.05	1.132
312.26	1.153
312.47	1.164
312.68	1.141
312.89	1.124
313.10	1.130
313.31	1.106
313.52	1.109
313.73	1.110
313.94	1.112
314.15	1.094
314.36	1.075
314.57	1.070
314.78	1.057
314.99	1.051
315.21	1.040
315.42	1.044
315.63	1.056
315.84	1.034
316.05	1.020
316.26	1.026
316.47	1.045
316.68	1.040
316.89	1.022
317.10	1.042
317.31	1.047
317.52	1.048
317.73	1.030
317.94	1.029
318.15	1.069
318.36	1.071
318.57	1.056
318.78	1.042
318.99	1.075
319.20	1.071
319.41	1.040
319.62	1.041
319.83	1.055
320.04	1.050
320.25	1.037
320.46	1.007
320.67	1.009
320.88	1.004
321.09	0.991
321.30	0.979
321.51	0.994
321.72	0.992
321.93	0.977
322.14	0.969
322.35	0.994
322.56	0.995
322.77	0.984
322.98	0.993
323.19	1.002
323.40	1.009
323.61	0.988
323.82	0.984
324.03	0.990
324.24	0.988
324.45	0.977
324.66	0.959
324.87	0.957
325.08	0.957
325.29	0.939
325.50	0.933
325.71	0.938
325.92	0.945
326.13	0.929
326.34	0.930
326.55	0.936
326.76	0.935
326.97	0.925
327.18	0.918
327.39	0.941
327.60	0.942
327.80	0.942
328.01	0.941
328.22	0.943
328.43	0.946
328.64	0.935
328.85	0.938
329.06	0.939
329.27	0.938
329.48	0.934
329.69	0.917
329.90	0.925
330.11	0.919
330.32	0.912
330.53	0.905
330.74	0.906
330.95	0.904
331.16	0.891
331.37	0.899
331.58	0.900
331.79	0.899
332.00	0.890
332.21	0.884
332.42	0.888
332.63	0.879
332.83	0.875
333.04	0.877
333.25	0.890
333.46	0.888
333.67	0.875
333.88	0.878
334.09	0.888
334.30	0.885
334.51	0.878
334.72	0.873
334.93	0.876
335.14	0.876
335.35	0.867
335.56	0.864
335.77	0.873
335.98	0.871
336.18	0.864
336.39	0.857
336.60	0.862
336.81	0.859
337.02	0.858
337.23	0.861
337.44	0.865
337.65	0.866
337.86	0.856
338.07	0.850
338.28	0.856
338.49	0.855
338.70	0.847
338.91	0.855
339.11	0.863
339.32	0.860
339.53	0.849
339.74	0.846
339.95	0.843
340.16	0.842
340.37	0.835
340.58	0.833
340.79	0.836
341.00	0.836
341.21	0.825
341.41	0.824
341.62	0.826
341.83	0.827
342.04	0.823
342.25	0.832
342.46	0.837
342.67	0.836
342.88	0.828
343.09	0.827
343.30	0.833
343.50	0.836
343.71	0.827
343.92	0.824
344.13	0.828
344.34	0.828
344.55	0.813
344.76	0.812
344.97	0.817
345.18	0.815
345.38	0.813
345.59	0.809
345.80	0.809
346.01	0.807
346.22	0.803
346.43	0.797
346.64	0.805
346.85	0.804
347.06	0.797
347.26	0.797
347.47	0.801
347.68	0.797
347.89	0.792
348.10	0.786
348.31	0.793
348.52	0.792
348.73	0.791
348.93	0.788
349.14	0.790
349.35	0.790
349.56	0.783
349.77	0.779
349.98	0.785
350.19	0.783
350.39	0.778
350.60	0.774
350.81	0.790
351.02	0.788
351.23	0.783
351.44	0.786
351.65	0.789
351.86	0.787
352.06	0.785
352.27	0.787
352.48	0.789
352.69	0.789
352.90	0.782
353.11	0.770
353.31	0.776
353.52	0.772
353.73	0.765
353.94	0.766
354.15	0.772
354.36	0.771
354.57	0.762
354.77	0.763
354.98	0.763
355.19	0.762
355.40	0.761
355.61	0.767
355.82	0.771
356.02	0.770
356.23	0.764
356.44	0.766
356.65	0.769
356.86	0.770
357.07	0.764
357.27	0.768
357.48	0.770
357.69	0.767
357.90	0.751
358.11	0.748
358.32	0.752
358.52	0.753
358.73	0.743
358.94	0.746
359.15	0.751
359.36	0.751
359.56	0.746
359.77	0.744
359.98	0.751
360.19	0.752
360.40	0.749
360.61	0.749
360.81	0.749
361.02	0.750
361.23	0.741
361.44	0.740
361.65	0.741
361.85	0.741
362.06	0.739
362.27	0.741
362.48	0.740
362.69	0.743
362.89	0.736
363.10	0.737
363.31	0.742
363.52	0.746
363.73	0.740
363.93	0.740
364.14	0.742
364.35	0.743
364.56	0.733
364.77	0.735
364.97	0.736
365.18	0.737
365.39	0.732
365.60	0.728
365.81	0.729
366.01	0.729
366.22	0.726
366.43	0.725
366.64	0.728
366.84	0.734
367.05	0.731
367.26	0.731
367.47	0.733
367.68	0.733
367.88	0.731
368.09	0.729
368.30	0.732
368.51	0.732
368.71	0.731
368.92	0.735
369.13	0.733
369.34	0.731
369.55	0.730
369.75	0.729
369.96	0.736
370.17	0.735
370.38	0.731
370.58	0.731
370.79	0.736
371.00	0.734
371.21	0.726
371.41	0.732
371.62	0.736
371.83	0.731
372.04	0.729
372.24	0.722
372.45	0.723
372.66	0.724
372.87	0.720
373.07	0.718
373.28	0.719
373.49	0.722
373.70	0.712
373.90	0.712
374.11	0.721
374.32	0.721
374.53	0.720
374.73	0.721
374.94	0.723
375.15	0.723
375.36	0.721
375.56	0.730
375.77	0.730
375.98	0.731
376.19	0.727
376.39	0.722
376.60	0.726
376.81	0.726
377.02	0.723
377.22	0.723
377.43	0.722
377.64	0.722
377.84	0.713
378.05	0.717
378.26	0.723
378.47	0.723
378.67	0.719
378.88	0.717
379.09	0.718
379.30	0.718
379.50	0.716
379.71	0.720
379.92	0.722
380.12	0.721
380.33	0.713
380.54	0.709
380.75	0.716
380.95	0.716
381.16	0.713
381.37	0.713
381.57	0.715
381.78	0.715
381.99	0.714
382.20	0.714
382.40	0.717
382.61	0.717
382.82	0.713
383.02	0.707
383.23	0.709
383.44	0.709
383.64	0.707
383.85	0.709
384.06	0.712
384.27	0.710
384.47	0.707
384.68	0.707
384.89	0.713
385.09	0.712
385.30	0.712
385.51	0.712
385.71	0.716
385.92	0.716
386.13	0.715
386.33	0.718
386.54	0.719
386.75	0.718
386.95	0.714
387.16	0.710
387.37	0.713
387.58	0.713
387.78	0.710
387.99	0.708
388.20	0.711
388.40	0.708
388.61	0.703
388.82	0.707
389.02	0.709
389.23	0.710
389.44	0.708
389.64	0.707
389.85	0.719
390.06	0.718
390.26	0.718
390.47	0.716
390.68	0.719
390.88	0.717
391.09	0.712
391.30	0.711
391.50	0.711
391.71	0.711
391.92	0.709
392.12	0.701
392.33	0.702
392.53	0.702
392.74	0.702
392.95	0.702
393.15	0.704
393.36	0.707
393.57	0.705
393.77	0.708
393.98	0.710
394.19	0.709
394.39	0.709
394.60	0.710
394.81	0.712
395.01	0.710
395.22	0.708
395.43	0.709
395.63	0.713
395.84	0.715
396.04	0.710
396.25	0.713
396.46	0.715
396.66	0.713
396.87	0.710
397.08	0.707
397.28	0.709
397.49	0.710
397.69	0.707
397.90	0.702
398.11	0.703
398.31	0.704
398.52	0.699
398.73	0.700
398.93	0.700
399.14	0.699
399.34	0.698
399.55	0.699
399.76	0.700
399.96	0.700
400.17	0.698
400.37	0.696
400.58	0.703
400.79	0.705
400.99	0.703
401.20	0.708
401.41	0.711
401.61	0.712
401.82	0.716
402.02	0.716
402.23	0.717
402.44	0.717
402.64	0.718
402.85	0.712
403.05	0.712
403.26	0.710
403.47	0.704
403.67	0.703
403.88	0.703
404.08	0.698
404.29	0.695
404.50	0.695
404.70	0.695
404.91	0.694
405.11	0.691
405.32	0.691
405.52	0.692
405.73	0.691
405.94	0.689
406.14	0.692
406.35	0.695
406.55	0.695
406.76	0.692
406.97	0.693
407.17	0.695
407.38	0.695
407.58	0.693
407.79	0.696
407.99	0.699
408.20	0.700
408.41	0.696
408.61	0.693
408.82	0.694
409.02	0.694
409.23	0.692
409.43	0.692
409.64	0.693
409.84	0.693
410.05	0.688
410.26	0.686
410.46	0.686
410.67	0.685
410.87	0.687
411.08	0.689
411.28	0.690
411.49	0.692
411.69	0.690
411.90	0.690
412.11	0.692
412.31	0.693
412.52	0.691
412.72	0.693
412.93	0.693
413.13	0.692
413.34	0.688
413.54	0.689
413.75	0.691
413.95	0.691
414.16	0.688
414.37	0.691
414.57	0.691
414.78	0.694
414.98	0.692
415.19	0.694
415.39	0.691
415.60	0.694
415.80	0.693
416.01	0.691
416.21	0.694
416.42	0.694
416.62	0.689
416.83	0.689
417.03	0.689
417.24	0.689
417.44	0.686
417.65	0.686
417.86	0.686
418.06	0.684
418.27	0.682
418.47	0.683
418.68	0.684
418.88	0.684
419.09	0.682
419.29	0.683
419.50	0.684
419.70	0.684
419.91	0.682
420.11	0.680
420.32	0.683
420.52	0.683
420.73	0.681
420.93	0.682
421.14	0.684
421.34	0.683
421.55	0.679
421.75	0.679
421.96	0.680
422.16	0.680
422.37	0.679
422.57	0.676
422.78	0.678
422.98	0.674
423.19	0.672
423.39	0.670
423.60	0.674
423.80	0.675
424.01	0.673
424.21	0.675
424.42	0.675
424.62	0.675
424.83	0.675
425.03	0.675
425.23	0.678
425.44	0.678
425.64	0.677
425.85	0.676
426.05	0.677
426.26	0.679
426.46	0.675
426.67	0.675
426.87	0.680
427.08	0.679
427.28	0.677
427.49	0.677
427.69	0.678
427.90	0.678
428.10	0.675
428.31	0.675
428.51	0.676
428.71	0.676
428.92	0.676
429.12	0.674
429.33	0.675
429.53	0.680
429.74	0.684
429.94	0.684
430.15	0.684
430.35	0.683
430.56	0.681
430.76	0.680
430.96	0.681
431.17	0.679
431.37	0.676
431.58	0.674
431.78	0.670
431.99	0.663
432.19	0.665
432.40	0.666
432.60	0.667
432.80	0.669
433.01	0.668
433.21	0.667
433.42	0.669
433.62	0.669
433.83	0.669
434.03	0.671
434.23	0.674
434.44	0.673
434.64	0.671
434.85	0.676
435.05	0.677
435.26	0.678
435.46	0.677
435.66	0.676
435.87	0.676
436.07	0.676
436.28	0.672
436.48	0.669
436.69	0.669
436.89	0.669
437.09	0.663
437.30	0.662
437.50	0.662
437.71	0.673
437.91	0.672
438.11	0.674
438.32	0.678
438.52	0.679
438.73	0.678
438.93	0.676
439.13	0.676
439.34	0.680
439.54	0.677
439.75	0.678
439.95	0.668
440.15	0.671
440.36	0.670
440.56	0.667
440.77	0.668
440.97	0.667
441.17	0.666
441.38	0.667
441.58	0.664
441.79	0.665
441.99	0.663
442.19	0.662
442.40	0.659
442.60	0.659
442.81	0.656
443.01	0.657
443.21	0.658
443.42	0.657
443.62	0.656
443.82	0.656
444.03	0.658
444.23	0.658
444.44	0.658
444.64	0.657
444.84	0.658
445.05	0.659
445.25	0.656
445.45	0.656
445.66	0.658
445.86	0.657
446.06	0.657
446.27	0.657
446.47	0.660
446.68	0.658
446.88	0.657
447.08	0.656
447.29	0.658
447.49	0.659
447.69	0.658
447.90	0.657
448.10	0.661
448.30	0.658
448.51	0.659
448.71	0.656
448.91	0.659
449.12	0.658
449.32	0.659
449.52	0.658
449.73	0.662
449.93	0.661
450.14	0.662
450.34	0.661
450.54	0.663
450.75	0.661
450.95	0.660
451.15	0.660
451.36	0.662
451.56	0.659
451.76	0.658
451.97	0.655
452.17	0.656
452.37	0.654
452.58	0.651
452.78	0.651
452.98	0.653
453.19	0.653
453.39	0.654
453.59	0.653
453.79	0.653
454.00	0.653
454.20	0.652
454.40	0.653
454.61	0.655
454.81	0.655
455.01	0.653
455.22	0.655
455.42	0.657
455.62	0.655
455.83	0.654
456.03	0.657
456.23	0.658
456.44	0.659
456.64	0.657
456.84	0.657
457.04	0.658
457.25	0.658
457.45	0.654
457.65	0.652
457.86	0.653
458.06	0.652
458.26	0.648
458.47	0.648
458.67	0.650
458.87	0.649
459.07	0.647
459.28	0.649
459.48	0.651
459.68	0.651
459.89	0.650
460.09	0.650
460.29	0.651
460.49	0.652
460.70	0.651
460.90	0.650
461.10	0.651
461.31	0.650
461.51	0.647
461.71	0.648
461.91	0.650
462.12	0.650
462.32	0.648
462.52	0.649
462.72	0.652
462.93	0.653
463.13	0.652
463.33	0.653
463.53	0.654
463.74	0.654
463.94	0.650
464.14	0.650
464.35	0.651
464.55	0.652
464.75	0.649
464.95	0.646
465.16	0.649
465.36	0.647
465.56	0.646
465.76	0.646
465.97	0.646
466.17	0.647
466.37	0.644
466.57	0.645
466.78	0.646
466.98	0.647
467.18	0.645
467.38	0.643
467.59	0.644
467.79	0.646
467.99	0.645
468.19	0.647
468.39	0.650
468.60	0.650
468.80	0.648
469.00	0.649
469.20	0.650
469.41	0.651
469.61	0.650
469.81	0.651
470.01	0.650
470.22	0.651
470.42	0.648
470.62	0.646
470.82	0.648
471.02	0.647
471.23	0.645
471.43	0.645
471.63	0.648
471.83	0.648
472.04	0.645
472.24	0.644
472.44	0.649
472.64	0.650
472.84	0.648
473.05	0.648
473.25	0.651
473.45	0.650
473.65	0.648
473.85	0.648
474.06	0.650
474.26	0.650
474.46	0.651
474.66	0.647
474.86	0.648
475.07	0.648
475.27	0.646
475.47	0.643
475.67	0.644
475.87	0.646
476.08	0.643
476.28	0.643
476.48	0.645
476.68	0.643
476.88	0.641
477.09	0.642
477.29	0.644
477.49	0.644
477.69	0.643
477.89	0.643
478.09	0.643
478.30	0.645
478.50	0.642
478.70	0.642
478.90	0.642
479.10	0.645
479.31	0.646
479.51	0.644
479.71	0.646
479.91	0.646
480.11	0.644
480.31	0.644
480.52	0.644
480.72	0.644
480.92	0.642
481.12	0.641
481.32	0.639
481.52	0.637
481.72	0.637
481.93	0.640
482.13	0.641
482.33	0.641
482.53	0.639
482.73	0.639
482.93	0.640
483.14	0.640
483.34	0.639
483.54	0.639
483.74	0.638
483.94	0.638
484.14	0.634
484.34	0.633
484.55	0.634
484.75	0.634
484.95	0.632
485.15	0.631
485.35	0.631
485.55	0.631
485.75	0.629
485.96	0.630
486.16	0.631
486.36	0.631
486.56	0.629
486.76	0.629
486.96	0.629
487.16	0.628
487.36	0.627
487.57	0.626
487.77	0.627
487.97	0.628
488.17	0.626
488.37	0.624
488.57	0.625
488.77	0.625
488.97	0.624
489.18	0.624
489.38	0.627
489.58	0.628
489.78	0.627
489.98	0.627
490.18	0.627
490.38	0.628
490.58	0.627
490.78	0.627
490.98	0.629
491.19	0.629
491.39	0.629
491.59	0.627
491.79	0.630
491.99	0.631
492.19	0.630
492.39	0.632
492.59	0.632
492.79	0.635
492.99	0.634
493.20	0.634
493.40	0.635
493.60	0.636
493.80	0.634
494.00	0.632
494.20	0.632
494.40	0.632
494.60	0.630
494.80	0.634
495.00	0.633
495.20	0.631
495.40	0.630
495.61	0.632
495.81	0.632
496.01	0.636
496.21	0.637
496.41	0.636
496.61	0.637
496.81	0.636
497.01	0.631
497.21	0.630
497.41	0.631
497.61	0.631
497.81	0.628
498.01	0.628
498.21	0.626
498.41	0.624
498.61	0.623
498.82	0.625
499.02	0.627
499.22	0.628
499.42	0.628
499.62	0.629
499.82	0.630
500.02	0.631
500.22	0.630
500.42	0.631
500.62	0.632
500.82	0.632
501.02	0.630
501.22	0.630
501.42	0.630
501.62	0.631
501.82	0.630
502.02	0.631
502.22	0.630
502.42	0.631
502.62	0.629
502.82	0.629
503.02	0.630
503.22	0.630
503.42	0.628
503.63	0.629
503.83	0.627
504.03	0.626
504.23	0.625
504.43	0.626
504.63	0.627
504.83	0.627
505.03	0.626
505.23	0.627
505.43	0.629
505.63	0.629
505.83	0.629
506.03	0.630
506.23	0.633
506.43	0.633
506.63	0.631
506.83	0.630
507.03	0.633
507.23	0.633
507.43	0.631
507.63	0.632
507.83	0.632
508.03	0.632
508.23	0.632
508.43	0.630
508.63	0.632
508.83	0.633
509.03	0.633
509.23	0.632
509.43	0.633
509.63	0.632
509.83	0.631
510.03	0.633
510.23	0.635
510.43	0.635
510.63	0.635
510.83	0.635
511.03	0.637
511.23	0.635
511.43	0.635
511.63	0.636
511.83	0.639
512.03	0.639
512.22	0.636
512.42	0.636
512.62	0.637
512.82	0.636
513.02	0.635
513.22	0.635
513.42	0.637
513.62	0.639
513.82	0.637
514.02	0.637
514.22	0.638
514.42	0.638
514.62	0.638
514.82	0.638
515.02	0.640
515.22	0.643
515.42	0.642
515.62	0.644
515.82	0.643
516.02	0.644
516.22	0.644
516.42	0.645
516.62	0.648
516.82	0.648
517.01	0.646
517.21	0.646
517.41	0.650
517.61	0.650
517.81	0.646
518.01	0.645
518.21	0.645
518.41	0.644
518.61	0.643
518.81	0.643
519.01	0.643
519.21	0.643
519.41	0.642
519.61	0.637
519.81	0.639
520.00	0.639
520.20	0.640
520.40	0.643
520.60	0.644
520.80	0.643
521.00	0.644
521.20	0.645
521.40	0.650
521.60	0.650
521.80	0.649
522.00	0.649
522.20	0.652
522.39	0.651
522.59	0.648
522.79	0.649
522.99	0.651
523.19	0.649
523.39	0.647
523.59	0.645
523.79	0.648
523.99	0.650
524.19	0.649
524.38	0.648
524.58	0.650
524.78	0.651
524.98	0.649
525.18	0.651
525.38	0.652
525.58	0.652
525.78	0.650
525.98	0.648
526.18	0.649
526.37	0.648
526.57	0.649
526.77	0.649
526.97	0.650
527.17	0.650
527.37	0.646
527.57	0.648
527.77	0.650
527.96	0.650
528.16	0.650
528.36	0.650
528.56	0.653
528.76	0.650
528.96	0.649
529.16	0.649
529.36	0.653
529.55	0.653
529.75	0.649
529.95	0.649
530.15	0.651
530.35	0.653
530.55	0.651
530.75	0.652
530.94	0.653
531.14	0.654
531.34	0.652
531.54	0.650
531.74	0.654
531.94	0.657
532.13	0.655
532.33	0.657
532.53	0.656
532.73	0.656
532.93	0.654
533.13	0.655
533.33	0.656
533.52	0.656
533.72	0.659
533.92	0.657
534.12	0.655
534.32	0.655
534.52	0.653
534.71	0.654
534.91	0.657
535.11	0.659
535.31	0.657
535.51	0.659
535.71	0.661
535.90	0.657
536.10	0.659
536.30	0.661
536.50	0.661
536.70	0.661
536.89	0.658
537.09	0.658
537.29	0.659
537.49	0.660
537.69	0.659
537.89	0.659
538.08	0.660
538.28	0.657
538.48	0.657
538.68	0.659
538.88	0.661
539.07	0.662
539.27	0.660
539.47	0.659
539.67	0.659
539.87	0.660
540.06	0.658
540.26	0.659
540.46	0.661
540.66	0.659
540.86	0.656
541.05	0.656
541.25	0.658
541.45	0.658
541.65	0.657
541.84	0.659
542.04	0.659
542.24	0.660
542.44	0.659
542.64	0.660
542.83	0.663
543.03	0.663
543.23	0.661
543.43	0.662
543.62	0.663
543.82	0.663
544.02	0.662
544.22	0.662
544.42	0.665
544.61	0.665
544.81	0.661
545.01	0.660
545.21	0.663
545.40	0.663
545.60	0.661
545.80	0.664
546.00	0.664
546.19	0.664
546.39	0.663
546.59	0.661
546.79	0.662
546.98	0.663
547.18	0.662
547.38	0.662
547.58	0.665
547.77	0.666
547.97	0.662
548.17	0.664
548.37	0.664
548.56	0.664
548.76	0.663
548.96	0.666
549.16	0.668
549.35	0.668
549.55	0.666
549.75	0.666
549.95	0.669
550.14	0.670
550.34	0.667
550.54	0.672
550.73	0.675
550.93	0.676
551.13	0.672
551.33	0.671
551.52	0.671
551.72	0.671
551.92	0.669
552.12	0.669
552.31	0.670
552.51	0.670
552.71	0.666
552.90	0.666
553.10	0.667
553.30	0.667
553.50	0.667
553.69	0.669
553.89	0.670
554.09	0.670
554.28	0.667
554.48	0.668
554.68	0.670
554.87	0.670
555.07	0.667
555.27	0.667
555.47	0.669
555.66	0.669
555.86	0.668
556.06	0.670
556.25	0.672
556.45	0.679
556.65	0.677
556.84	0.680
557.04	0.683
557.24	0.685
557.43	0.684
557.63	0.687
557.83	0.688
558.02	0.689
558.22	0.692
558.42	0.692
558.61	0.686
558.81	0.686
559.01	0.682
559.21	0.682
559.40	0.683
559.60	0.683
559.80	0.680
559.99	0.681
560.19	0.683
560.39	0.677
560.58	0.675
560.78	0.674
560.97	0.678
561.17	0.677
561.37	0.676
561.56	0.676
561.76	0.678
561.96	0.677
562.15	0.675
562.35	0.677
562.55	0.679
562.74	0.679
562.94	0.678
563.14	0.675
563.33	0.676
563.53	0.676
563.73	0.674
563.92	0.675
564.12	0.678
564.31	0.680
564.51	0.677
564.71	0.679
564.90	0.682
565.10	0.683
565.30	0.685
565.49	0.686
565.69	0.688
565.89	0.689
566.08	0.686
566.28	0.687
566.47	0.689
566.67	0.687
566.87	0.684
567.06	0.686
567.26	0.692
567.46	0.688
567.65	0.687
567.85	0.689
568.04	0.692
568.24	0.692
568.44	0.689
568.63	0.687
568.83	0.688
569.02	0.687
569.22	0.682
569.42	0.679
569.61	0.681
569.81	0.680
570.00	0.678
570.20	0.679
570.40	0.680
570.59	0.680
570.79	0.678
570.98	0.676
571.18	0.677
571.38	0.677
571.57	0.674
571.77	0.672
571.96	0.676
572.16	0.673
572.35	0.668
572.55	0.669
572.75	0.668
572.94	0.668
573.14	0.666
573.33	0.666
573.53	0.667
573.73	0.667
573.92	0.664
574.12	0.662
574.31	0.665
574.51	0.666
574.70	0.663
574.90	0.665
575.09	0.667
575.29	0.667
575.49	0.665
575.68	0.665
575.88	0.667
576.07	0.668
576.27	0.666
576.46	0.665
576.66	0.664
576.86	0.663
577.05	0.661
577.25	0.659
577.44	0.661
577.64	0.661
577.83	0.659
578.03	0.659
578.22	0.659
578.42	0.658
578.61	0.656
578.81	0.657
579.00	0.658
579.20	0.658
579.40	0.657
579.59	0.656
579.79	0.656
579.98	0.656
580.18	0.655
580.37	0.656
580.57	0.658
580.76	0.662
580.96	0.660
581.15	0.661
581.35	0.663
581.54	0.662
581.74	0.662
581.93	0.663
582.13	0.664
582.32	0.662
582.52	0.659
582.71	0.659
582.91	0.655
583.10	0.655
583.30	0.654
583.49	0.653
583.69	0.657
583.88	0.658
584.08	0.657
584.27	0.659
584.47	0.662
584.66	0.663
584.86	0.662
585.05	0.664
585.25	0.667
585.44	0.666
585.64	0.665
585.83	0.661
586.03	0.662
586.22	0.660
586.42	0.656
586.61	0.658
586.81	0.660
587.00	0.660
587.20	0.658
587.39	0.658
587.59	0.660
587.78	0.661
587.98	0.662
588.17	0.662
588.37	0.664
588.56	0.667
588.76	0.663
588.95	0.663
589.15	0.666
589.34	0.669
589.54	0.668
589.73	0.668
589.92	0.671
590.12	0.671
590.31	0.669
590.51	0.674
590.70	0.675
590.90	0.676
591.09	0.674
591.29	0.673
591.48	0.673
591.68	0.674
591.87	0.672
592.06	0.672
592.26	0.674
592.45	0.673
592.65	0.667
592.84	0.667
593.04	0.670
593.23	0.671
593.43	0.669
593.62	0.668
593.81	0.669
594.01	0.668
594.20	0.666
594.40	0.665
594.59	0.667
594.79	0.668
594.98	0.667
595.17	0.665
595.37	0.666
595.56	0.668
595.76	0.667
595.95	0.668
596.14	0.671
596.34	0.672
596.53	0.671
596.73	0.672
596.92	0.673
597.12	0.676
597.31	0.676
597.50	0.675
597.70	0.677
597.89	0.677
598.09	0.674
598.28	0.676
598.47	0.678
598.67	0.677
598.86	0.673
599.06	0.675
599.25	0.675
599.44	0.673
599.64	0.670
599.83	0.668
600.03	0.671
600.22	0.672
600.41	0.671
600.61	0.669
600.80	0.671
601.00	0.672
601.19	0.668
601.38	0.667
601.58	0.670
601.77	0.671
601.96	0.673
602.16	0.672
602.35	0.681
602.55	0.679
602.74	0.679
602.93	0.681
603.13	0.686
603.32	0.687
603.51	0.686
603.71	0.689
603.90	0.691
604.09	0.691
604.29	0.689
604.48	0.683
604.68	0.684
604.87	0.683
605.06	0.679
605.26	0.676
605.45	0.678
605.64	0.677
605.84	0.672
606.03	0.671
606.22	0.670
606.42	0.669
606.61	0.666
606.80	0.666
607.00	0.668
607.19	0.669
607.38	0.667
607.58	0.668
607.77	0.670
607.96	0.671
608.16	0.669
608.35	0.674
608.54	0.678
608.74	0.681
608.93	0.685
609.12	0.688
609.32	0.690
609.51	0.694
609.70	0.693
609.90	0.695
610.09	0.699
610.28	0.704
610.48	0.697
610.67	0.698
610.86	0.698
611.06	0.693
611.25	0.690
611.44	0.690
611.64	0.690
611.83	0.693
612.02	0.689
612.21	0.687
612.41	0.686
612.60	0.685
612.79	0.682
612.99	0.681
613.18	0.684
613.37	0.682
613.57	0.680
613.76	0.681
613.95	0.679
614.14	0.678
614.34	0.676
614.53	0.677
614.72	0.680
614.92	0.680
615.11	0.677
615.30	0.674
615.49	0.675
615.69	0.677
615.88	0.674
616.07	0.676
616.26	0.678
616.46	0.680
616.65	0.677
616.84	0.676
617.04	0.678
617.23	0.681
617.42	0.682
617.61	0.686
617.81	0.687
618.00	0.689
618.19	0.687
618.38	0.691
618.58	0.695
618.77	0.695
618.96	0.694
619.15	0.695
619.35	0.697
619.54	0.698
619.73	0.693
619.92	0.695
620.12	0.699
620.31	0.699
620.50	0.693
620.69	0.693
620.89	0.696
621.08	0.697
621.27	0.696
621.46	0.695
621.66	0.699
621.85	0.699
622.04	0.695
622.23	0.696
622.43	0.697
622.62	0.697
622.81	0.695
623.00	0.695
623.19	0.698
623.39	0.698
623.58	0.695
623.77	0.694
623.96	0.698
624.16	0.698
624.35	0.693
624.54	0.695
624.73	0.699
624.92	0.697
625.12	0.695
625.31	0.696
625.50	0.698
625.69	0.699
625.88	0.696
626.08	0.695
626.27	0.697
626.46	0.697
626.65	0.694
626.84	0.694
627.04	0.700
627.23	0.700
627.42	0.695
627.61	0.696
627.80	0.700
628.00	0.699
628.19	0.698
628.38	0.701
628.57	0.704
628.76	0.704
628.96	0.700
629.15	0.700
629.34	0.703
629.53	0.704
629.72	0.698
629.91	0.699
630.11	0.704
630.30	0.705
630.49	0.707
630.68	0.706
630.87	0.711
631.06	0.714
631.26	0.708
631.45	0.710
631.64	0.718
631.83	0.721
632.02	0.717
632.21	0.716
632.41	0.723
632.60	0.717
632.79	0.716
632.98	0.716
633.17	0.717
633.36	0.719
633.55	0.715
633.75	0.711
633.94	0.714
634.13	0.713
634.32	0.710
634.51	0.704
634.70	0.707
634.89	0.705
635.09	0.701
635.28	0.702
635.47	0.703
635.66	0.707
635.85	0.702
636.04	0.703
636.23	0.709
636.43	0.710
636.62	0.709
636.81	0.708
637.00	0.712
637.19	0.715
637.38	0.711
637.57	0.711
637.76	0.712
637.95	0.713
638.15	0.709
638.34	0.706
638.53	0.709
638.72	0.711
638.91	0.708
639.10	0.707
639.29	0.707
639.48	0.708
639.67	0.708
639.87	0.706
640.06	0.712
640.25	0.712
640.44	0.712
640.63	0.712
640.82	0.715
641.01	0.715
641.20	0.713
641.39	0.715
641.58	0.717
641.78	0.715
641.97	0.711
642.16	0.724
642.35	0.725
642.54	0.725
642.73	0.719
642.92	0.717
643.11	0.721
643.30	0.720
643.49	0.715
643.68	0.718
643.87	0.720
644.06	0.720
644.25	0.700
644.45	0.704
644.64	0.706
644.83	0.707
645.02	0.703
645.21	0.702
645.40	0.703
645.59	0.703
645.78	0.697
645.97	0.700
646.16	0.700
646.35	0.699
646.54	0.697
646.73	0.698
646.92	0.700
647.11	0.700
647.30	0.696
647.49	0.698
647.68	0.698
647.88	0.697
648.07	0.690
648.26	0.695
648.45	0.697
648.64	0.693
648.83	0.689
649.02	0.692
649.21	0.702
649.40	0.701
649.59	0.696
649.78	0.696
649.97	0.710
650.16	0.710
650.35	0.703
650.54	0.704
650.73	0.714
650.92	0.710
651.11	0.703
651.30	0.701
651.49	0.705
651.68	0.707
651.87	0.704
652.06	0.694
652.25	0.697
652.44	0.700
652.63	0.698
652.82	0.697
653.01	0.697
653.20	0.695
653.39	0.683
653.58	0.680
653.77	0.679
653.96	0.675
654.15	0.667
654.34	0.665
654.53	0.661
654.72	0.655
654.91	0.646
655.10	0.642
655.29	0.641
655.48	0.639
655.67	0.633
655.86	0.631
656.05	0.629
656.24	0.629
656.43	0.624
656.62	0.622
656.81	0.623
657.00	0.621
657.19	0.618
657.38	0.618
657.57	0.617
657.76	0.620
657.95	0.618
658.14	0.621
658.33	0.623
658.51	0.628
658.70	0.628
658.89	0.630
659.08	0.639
659.27	0.646
659.46	0.646
659.65	0.654
659.84	0.657
660.03	0.661
660.22	0.662
660.41	0.666
660.60	0.666
660.79	0.668
660.98	0.673
661.17	0.672
661.36	0.671
661.55	0.672
661.74	0.669
661.92	0.672
662.11	0.674
662.30	0.673
662.49	0.666
662.68	0.666
662.87	0.669
663.06	0.664
663.25	0.665
663.44	0.665
663.63	0.666
663.82	0.665
664.01	0.659
664.20	0.658
664.38	0.659
664.57	0.660
664.76	0.659
664.95	0.659
665.14	0.664
665.33	0.659
665.52	0.666
665.71	0.669
665.90	0.669
666.09	0.670
666.28	0.668
666.46	0.667
666.65	0.668
666.84	0.666
667.03	0.660
667.22	0.658
667.41	0.661
667.60	0.651
667.79	0.645
667.98	0.646
668.16	0.648
668.35	0.647
668.54	0.643
668.73	0.644
668.92	0.646
669.11	0.645
669.30	0.639
669.49	0.635
669.67	0.637
669.86	0.638
670.05	0.635
670.24	0.633
670.43	0.631
670.62	0.630
670.81	0.624
671.00	0.625
671.18	0.625
671.37	0.625
671.56	0.623
671.75	0.622
671.94	0.619
672.13	0.617
672.32	0.613
672.50	0.612
672.69	0.613
672.88	0.614
673.07	0.610
673.26	0.612
673.45	0.612
673.63	0.613
673.82	0.609
674.01	0.611
674.20	0.611
674.39	0.610
674.58	0.609
674.76	0.609
674.95	0.608
675.14	0.608
675.33	0.603
675.52	0.601
675.71	0.601
675.89	0.600
676.08	0.596
676.27	0.596
676.46	0.596
676.65	0.596
676.84	0.595
677.02	0.596
677.21	0.599
677.40	0.598
677.59	0.596
677.78	0.597
677.96	0.600
678.15	0.599
678.34	0.596
678.53	0.597
678.72	0.597
678.90	0.595
679.09	0.591
679.28	0.588
679.47	0.588
679.66	0.587
679.84	0.583
680.03	0.580
680.22	0.579
680.41	0.581
680.60	0.577
680.78	0.576
680.97	0.579
681.16	0.579
681.35	0.578
681.53	0.577
681.72	0.579
681.91	0.581
682.10	0.579
682.29	0.583
682.47	0.581
682.66	0.580
682.85	0.578
683.04	0.576
683.22	0.576
683.41	0.578
683.60	0.576
683.79	0.577
683.97	0.577
684.16	0.575
684.35	0.572
684.54	0.573
684.72	0.574
684.91	0.575
685.10	0.573
685.29	0.574
685.47	0.572
685.66	0.571
685.85	0.567
686.04	0.567
686.22	0.569
686.41	0.571
686.60	0.569
686.79	0.571
686.97	0.571
687.16	0.573
687.35	0.570
687.54	0.574
687.72	0.578
687.91	0.578
688.10	0.579
688.29	0.579
688.47	0.577
688.66	0.576
688.85	0.573
689.03	0.571
689.22	0.575
689.41	0.576
689.60	0.571
689.78	0.568
689.97	0.569
690.16	0.566
690.34	0.562
690.53	0.562
690.72	0.562
690.91	0.560
691.09	0.558
691.28	0.552
691.47	0.550
691.65	0.549
691.84	0.546
692.03	0.545
692.21	0.543
692.40	0.543
692.59	0.541
692.77	0.540
692.96	0.542
693.15	0.542
693.34	0.540
693.52	0.540
693.71	0.541
693.90	0.541
694.08	0.542
694.27	0.543
694.46	0.553
694.64	0.554
694.83	0.553
695.02	0.552
695.20	0.552
695.39	0.551
695.58	0.551
695.76	0.552
695.95	0.552
696.14	0.551
696.32	0.549
696.51	0.539
696.70	0.539
696.88	0.540
697.07	0.539
697.26	0.540
697.44	0.542
697.63	0.541
697.81	0.538
698.00	0.537
698.19	0.537
698.37	0.536
698.56	0.536
698.75	0.536
698.93	0.536
699.12	0.535
699.31	0.534
699.49	0.533
699.68	0.534
699.87	0.537
700.05	0.537
700.24	0.536
700.42	0.539
700.61	0.537
700.80	0.535
700.98	0.535
701.17	0.536
701.36	0.535
701.54	0.535
701.73	0.536
701.91	0.533
702.10	0.533
702.29	0.531
702.47	0.530
702.66	0.532
702.84	0.533
703.03	0.531
703.22	0.533
703.40	0.532
703.59	0.533
703.77	0.532
703.96	0.532
704.15	0.533
704.33	0.533
704.52	0.532
704.70	0.531
704.89	0.531
705.08	0.530
705.26	0.526
705.45	0.526
705.63	0.526
705.82	0.523
706.00	0.521
706.19	0.521
706.38	0.521
706.56	0.520
706.75	0.519
706.93	0.518
707.12	0.519
707.30	0.519
707.49	0.516
707.68	0.514
707.86	0.515
708.05	0.515
708.23	0.512
708.42	0.512
708.60	0.515
708.79	0.515
708.98	0.513
709.16	0.512
709.35	0.514
709.53	0.519
709.72	0.518
709.90	0.519
710.09	0.521
710.27	0.523
710.46	0.526
710.64	0.524
710.83	0.526
711.02	0.528
711.20	0.527
711.39	0.525
711.57	0.523
711.76	0.523
711.94	0.521
712.13	0.522
712.31	0.522
712.50	0.517
712.68	0.514
712.87	0.515
713.05	0.515
713.24	0.515
713.42	0.514
713.61	0.515
713.79	0.516
713.98	0.517
714.16	0.517
714.35	0.517
714.54	0.519
714.72	0.519
714.91	0.517
715.09	0.523
715.28	0.527
715.46	0.527
715.65	0.525
715.83	0.525
716.02	0.527
716.20	0.523
716.39	0.522
716.57	0.524
716.76	0.525
716.94	0.525
717.12	0.517
717.31	0.518
717.49	0.522
717.68	0.523
717.86	0.523
718.05	0.524
718.23	0.526
718.42	0.528
718.60	0.529
718.79	0.537
718.97	0.540
719.16	0.540
719.34	0.537
719.53	0.537
719.71	0.537
719.90	0.538
720.08	0.535
720.27	0.536
720.45	0.536
720.63	0.534
720.82	0.528
721.00	0.531
721.19	0.535
721.37	0.535
721.56	0.534
721.74	0.538
721.93	0.547
722.11	0.554
722.30	0.554
722.48	0.558
722.66	0.559
722.85	0.559
723.03	0.559
723.22	0.557
723.40	0.561
723.59	0.561
723.77	0.565
723.95	0.558
724.14	0.559
724.32	0.560
724.51	0.560
724.69	0.561
724.88	0.561
725.06	0.560
725.24	0.561
725.43	0.562
725.61	0.564
725.80	0.558
725.98	0.555
726.16	0.552
726.35	0.558
726.53	0.556
726.72	0.554
726.90	0.564
727.09	0.564
727.27	0.570
727.45	0.567
727.64	0.576
727.82	0.585
728.01	0.589
728.19	0.586
728.37	0.591
728.56	0.596
728.74	0.602
728.92	0.590
729.11	0.592
729.29	0.590
729.48	0.593
729.66	0.582
729.84	0.582
730.03	0.586
730.21	0.588
730.40	0.578
730.58	0.579
730.76	0.580
730.95	0.582
731.13	0.581
731.31	0.596
731.50	0.605
731.68	0.608
731.86	0.603
732.05	0.617
732.23	0.619
732.42	0.623
732.60	0.626
732.78	0.630
732.97	0.649
733.15	0.655
733.33	0.641
733.52	0.647
733.70	0.657
733.88	0.665
734.07	0.651
734.25	0.677
734.43	0.685
734.62	0.688
734.80	0.683
734.98	0.673
735.17	0.680
735.35	0.687
735.53	0.675
735.72	0.679
735.90	0.703
736.08	0.720
736.27	0.696
736.45	0.705
736.63	0.714
736.82	0.723
737.00	0.724
737.18	0.733
737.37	0.763
737.55	0.784
737.73	0.777
737.92	0.778
738.10	0.776
738.28	0.795
738.46	0.784
738.65	0.797
738.83	0.819
739.01	0.871
739.20	0.861
739.38	0.843
739.56	0.837
739.75	0.843
739.93	0.811
740.11	0.836
740.29	0.836
740.48	0.843
740.66	0.820
740.84	0.813
741.03	0.780
741.21	0.791
741.39	0.774
741.57	0.788
741.76	0.803
741.94	0.807
742.12	0.771
742.31	0.779
742.49	0.801
742.67	0.824
742.85	0.838
743.04	0.840
743.22	0.850
743.40	0.900
743.58	0.880
743.77	0.894
743.95	0.934
744.13	0.980
744.31	0.956
744.50	0.941
744.68	0.943
744.86	0.917
745.04	0.931
745.23	0.993
745.41	0.981
745.59	0.983
745.77	0.948
745.96	0.935
746.14	0.948
746.32	0.949
746.50	0.944
746.69	0.928
746.87	0.943
747.05	0.924
747.23	0.850
747.42	0.835
747.60	0.863
747.78	0.867
747.96	0.892
748.14	0.849
748.33	0.876
748.51	0.873
748.69	0.862
748.87	0.888
749.06	0.885
749.24	0.883
749.42	0.868
749.60	0.849
749.78	0.861
749.97	0.817
750.15	0.809
750.33	0.810
750.51	0.836
750.69	0.842
750.88	0.844
751.06	0.855
751.24	0.883
751.42	0.875
751.60	0.865
751.79	0.932
751.97	0.980
752.15	0.985
752.33	0.952
752.51	1.014
752.69	1.028
752.88	0.994
753.06	1.036
753.24	1.012
753.42	1.046
753.60	1.214
753.78	1.069
753.97	1.084
754.15	1.104
754.33	1.131
754.51	1.007
754.69	0.997
754.87	1.028
755.06	0.956
755.24	0.956
755.42	0.959
755.60	0.866
755.78	0.877
755.96	0.827
756.15	0.826
756.33	0.832
756.51	0.853
756.69	0.836
756.87	0.805
757.05	0.828
757.23	0.812
757.42	0.783
757.60	0.782
757.78	0.768
757.96	0.765
758.14	0.749
758.32	0.733
758.50	0.744
758.69	0.745
758.87	0.737
759.05	0.739
759.23	0.748
759.41	0.748
759.59	0.738
759.77	0.762
759.95	0.790
760.13	0.835
760.32	0.834
760.50	0.827
760.68	0.850
760.86	0.853
761.04	0.830
761.22	0.832
761.40	0.883
761.58	0.887
761.76	0.859
761.95	0.839
762.13	0.799
762.31	0.800
762.49	0.769
762.67	0.786
762.85	0.797
763.03	0.790
763.21	0.772
763.39	0.753
763.57	0.756
763.75	0.750
763.94	0.734
764.12	0.736
764.30	0.757
764.48	0.763
764.66	0.726
764.84	0.723
765.02	0.760
765.20	0.768
765.38	0.748
765.56	0.755
765.74	0.796
765.92	0.797
766.10	0.802
766.28	0.799
766.46	0.825
766.65	0.828
766.83	0.814
767.01	0.800
767.19	0.809
767.37	0.807
767.55	0.794
767.73	0.772
767.91	0.775
768.09	0.764
768.27	0.751
768.45	0.743
768.63	0.748
768.81	0.752
768.99	0.724
769.17	0.748
769.35	0.763
769.53	0.759
769.71	0.739
769.89	0.749
770.07	0.754
770.25	0.737
770.43	0.716
770.61	0.740
770.79	0.746
770.97	0.755
771.15	0.722
771.33	0.725
771.51	0.728
771.69	0.738
771.87	0.744
772.05	0.751
772.24	0.761
772.42	0.771
772.60	0.749
772.78	0.808
772.96	0.836
773.14	0.834
773.32	0.810
773.49	0.819
773.67	0.819
773.85	0.799
774.03	0.788
774.21	0.815
774.39	0.826
774.57	0.847
774.75	0.777
774.93	0.774
775.11	0.795
775.29	0.801
775.47	0.801
775.65	0.815
775.83	0.831
776.01	0.850
776.19	0.807
776.37	0.809
776.55	0.809
776.73	0.803
776.91	0.794
777.09	0.778
777.27	0.779
777.45	0.768
777.63	0.739
777.81	0.736
777.99	0.727
778.17	0.726
778.35	0.705
778.53	0.694
778.71	0.700
778.89	0.688
779.07	0.678
779.24	0.683
779.42	0.687
779.60	0.707
779.78	0.704
779.96	0.710
780.14	0.719
780.32	0.741
780.50	0.723
780.68	0.724
780.86	0.719
781.04	0.735
781.22	0.740
781.40	0.749
781.58	0.741
781.75	0.733
781.93	0.713
782.11	0.712
782.29	0.700
782.47	0.699
782.65	0.685
782.83	0.711
783.01	0.705
783.19	0.695
783.37	0.680
783.55	0.683
783.72	0.701
783.90	0.714
784.08	0.707
784.26	0.716
784.44	0.739
784.62	0.742
784.80	0.709
784.98	0.715
785.16	0.724
785.33	0.738
785.51	0.723
785.69	0.706
785.87	0.704
786.05	0.714
786.23	0.710
786.41	0.705
786.59	0.712
786.77	0.714
786.94	0.702
787.12	0.705
787.30	0.709
787.48	0.707
787.66	0.697
787.84	0.696
788.02	0.688
788.19	0.686
788.37	0.673
788.55	0.674
788.73	0.674
788.91	0.669
789.09	0.653
789.27	0.641
789.44	0.652
789.62	0.658
789.80	0.667
789.98	0.691
790.16	0.678
790.34	0.675
790.51	0.662
790.69	0.681
790.87	0.687
791.05	0.683
791.23	0.678
791.41	0.680
791.58	0.690
791.76	0.669
791.94	0.640
792.12	0.648
792.30	0.650
792.48	0.649
792.65	0.642
792.83	0.650
793.01	0.659
793.19	0.655
793.37	0.638
793.54	0.633
793.72	0.645
793.90	0.645
794.08	0.633
794.26	0.635
794.43	0.648
794.61	0.631
794.79	0.619
794.97	0.615
795.15	0.622
795.32	0.626
795.50	0.616
795.68	0.611
795.86	0.614
796.04	0.614
796.21	0.609
796.39	0.604
796.57	0.620
796.75	0.627
796.92	0.628
797.10	0.633
797.28	0.635
797.46	0.640
797.64	0.639
797.81	0.647
797.99	0.653
798.17	0.658
798.35	0.651
798.52	0.653
798.70	0.649
798.88	0.658
799.06	0.657
799.23	0.659
799.41	0.667
799.59	0.660
799.77	0.650
799.94	0.657
800.12	0.667
800.30	0.685
800.48	0.683
800.65	0.681
800.83	0.672
801.01	0.665
801.19	0.667
801.36	0.663
801.54	0.668
801.72	0.677
801.90	0.664
802.07	0.658
802.25	0.644
802.43	0.629
802.60	0.626
802.78	0.632
802.96	0.635
803.14	0.629
803.31	0.626
803.49	0.625
803.67	0.621
803.84	0.625
804.02	0.617
804.20	0.619
804.38	0.626
804.55	0.625
804.73	0.612
804.91	0.614
805.08	0.627
805.26	0.623
805.44	0.689
805.61	0.692
805.79	0.692
805.97	0.691
806.15	0.683
806.32	0.679
806.50	0.686
806.68	0.687
806.85	0.677
807.03	0.667
807.21	0.683
807.38	0.615
807.56	0.605
807.74	0.615
807.91	0.621
808.09	0.623
808.27	0.640
808.44	0.664
808.62	0.673
808.80	0.674
808.97	0.668
809.15	0.663
809.33	0.680
809.50	0.686
809.68	0.672
809.86	0.681
810.03	0.711
810.21	0.691
810.39	0.673
810.56	0.678
810.74	0.702
810.91	0.773
811.09	0.760
811.27	0.780
811.44	0.787
811.62	0.788
811.80	0.772
811.97	0.743
812.15	0.745
812.33	0.740
812.50	0.726
812.68	0.715
812.85	0.661
813.03	0.664
813.21	0.634
813.38	0.627
813.56	0.630
813.74	0.640
813.91	0.648
814.09	0.680
814.26	0.675
814.44	0.677
814.62	0.666
814.79	0.669
814.97	0.673
815.14	0.677
815.32	0.681
815.50	0.698
815.67	0.700
815.85	0.690
816.02	0.675
816.20	0.682
816.38	0.697
816.55	0.703
816.73	0.701
816.90	0.713
817.08	0.744
817.26	0.751
817.43	0.729
817.61	0.751
817.78	0.772
817.96	0.749
818.13	0.738
818.31	0.739
818.49	0.748
818.66	0.740
818.84	0.724
819.01	0.702
819.19	0.706
819.36	0.708
819.54	0.679
819.71	0.718
819.89	0.731
820.07	0.743
820.24	0.736
820.42	0.739
820.59	0.757
820.77	0.777
820.94	0.769
821.12	0.786
821.29	0.802
821.47	0.801
821.64	0.741
821.82	0.758
822.00	0.755
822.17	0.754
822.35	0.745
822.52	0.746
822.70	0.735
822.87	0.742
823.05	0.721
823.22	0.732
823.40	0.759
823.57	0.780
823.75	0.757
823.92	0.779
824.10	0.799
824.27	0.838
824.45	0.827
824.62	0.890
824.80	0.907
824.97	0.926
825.15	0.916
825.32	0.928
825.50	0.931
825.67	0.943
825.85	0.918
826.02	0.933
826.20	0.951
826.37	1.081
826.55	0.994
826.72	1.174
826.90	1.239
827.07	1.288
827.25	1.231
827.42	1.388
827.60	1.564
827.77	1.788
827.95	1.763
828.12	1.950
828.30	1.451
828.47	1.594
828.65	1.217
828.82	1.276
829.00	1.330
829.17	1.410
829.34	1.372
829.52	1.379
829.69	-0.000
829.87	-0.000
830.04	-0.000
830.22	-0.000
830.39	-0.000
830.57	-0.000
830.74	-0.000
830.92	-0.000
831.09	-0.000
831.26	-0.000
831.44	-0.000
831.61	-0.000
831.79	-0.000
831.96	-0.000
832.14	-0.000
832.31	-0.000
832.49	-0.000
832.66	-0.000
832.83	-0.000
833.01	-0.000
833.18	-0.000
833.36	-0.000
833.53	-0.000
833.70	-0.000
833.88	-0.000
834.05	-0.000
834.23	-0.000
834.40	-0.000
834.58	-0.000
834.75	-0.000
834.92	-0.000
835.10	-0.000
835.27	-0.000
835.45	-0.000
835.62	-0.000
835.79	-0.000
835.97	-0.000
836.14	-0.000
836.32	-0.000
836.49	-0.000
836.66	-0.000
836.84	-0.000
837.01	-0.000
837.18	-0.000
837.36	-0.000
837.53	-0.000
837.71	-0.000
837.88	-0.000
838.05	-0.000
838.23	-0.000
838.40	-0.000
838.58	-0.000
838.75	-0.000
838.92	-0.000
839.10	-0.000
839.27	-0.000
839.44	-0.000
839.62	-0.000
839.79	-0.000
839.96	-0.000
840.14	-0.000
840.31	-0.000
840.48	-0.000
840.66	-0.000
840.83	-0.000
841.01	-0.000
841.18	-0.000
841.35	-0.000
841.53	-0.000
841.70	-0.000
841.87	-0.000
842.05	-0.000
842.22	-0.000
842.39	-0.000
842.57	-0.000
842.74	-0.000
842.91	-0.000
843.09	-0.000
843.26	-0.000
843.43	-0.000
843.60	-0.000
843.78	-0.000
843.95	-0.000
844.12	-0.000
844.30	-0.000
844.47	-0.000
844.64	-0.000
844.82	-0.000
844.99	-0.000
845.16	-0.000
845.34	-0.000
845.51	-0.000
845.68	-0.000
845.85	-0.000
846.03	-0.000
846.20	-0.000
846.37	-0.000
846.55	-0.000
846.72	-0.000
846.89	-0.000
847.06	-0.000
847.24	-0.000
847.41	-0.000
847.58	-0.000
847.76	-0.000
847.93	-0.000
848.10	-0.000
848.27	-0.000
848.45	-0.000
848.62	-0.000
848.79	-0.000
848.97	-0.000
849.14	-0.000
849.31	-0.000
849.48	-0.000
849.66	-0.000
849.83	-0.000
850.00	-0.000
850.17	-0.000
850.35	-0.000
850.52	-0.000
850.69	-0.000
850.86	-0.000
851.04	-0.000
851.21	-0.000
851.38	-0.000
851.55	-0.000
851.72	-0.000
851.90	-0.000
852.07	-0.000
852.24	-0.000
852.41	-0.000
852.59	-0.000
852.76	-0.000
852.93	-0.000
853.10	-0.000
853.28	-0.000
853.45	-0.000
853.62	-0.000
853.79	-0.000
853.96	-0.000
854.14	-0.000
854.31	-0.000
854.48	-0.000
854.65	-0.000
854.82	-0.000
855.00	-0.000
855.17	-0.000
855.34	-0.000
855.51	-0.000
855.68	-0.000
855.86	-0.000
856.03	-0.000
856.20	-0.000
856.37	-0.000
856.54	-0.000
856.72	-0.000
856.89	-0.000
857.06	-0.000
857.23	-0.000
857.40	-0.000
857.57	-0.000
857.75	-0.000
857.92	-0.000
858.09	-0.000
858.26	-0.000
858.43	-0.000
858.60	-0.000
858.78	-0.000
858.95	-0.000
859.12	-0.000
859.29	-0.000
859.46	-0.000
859.63	-0.000
859.81	-0.000
859.98	-0.000
860.15	-0.000
860.32	-0.000
860.49	-0.000
860.66	-0.000
860.83	-0.000
861.01	-0.000
861.18	-0.000
861.35	-0.000
861.52	-0.000
861.69	-0.000
861.86	-0.000
862.03	-0.000
862.21	-0.000
862.38	-0.000
862.55	-0.000
862.72	-0.000
862.89	-0.000
863.06	-0.000
863.23	-0.000
863.40	-0.000
863.58	-0.000
863.75	-0.000
863.92	-0.000
864.09	-0.000
864.26	-0.000
864.43	-0.000
864.60	-0.000
864.77	-0.000
864.94	-0.000
865.11	-0.000
865.29	-0.000
865.46	-0.000
865.63	-0.000
865.80	-0.000
865.97	-0.000
866.14	-0.000
866.31	-0.000
866.48	-0.000
866.65	-0.000
866.82	-0.000
866.99	-0.000
867.16	-0.000
867.34	-0.000
867.51	-0.000
867.68	-0.000
867.85	-0.000
868.02	-0.000
868.19	-0.000
868.36	-0.000
868.53	-0.000
868.70	-0.000
868.87	-0.000
869.04	-0.000
869.21	-0.000
869.38	-0.000
869.55	-0.000
869.72	-0.000
869.89	-0.000
870.06	-0.000
870.24	-0.000
870.41	-0.000
870.58	-0.000
870.75	-0.000
870.92	-0.000
871.09	-0.000
871.26	-0.000
871.43	-0.000
871.60	-0.000
871.77	-0.000
871.94	-0.000
872.11	-0.000
872.28	-0.000
872.45	-0.000
872.62	-0.000
872.79	-0.000
872.96	-0.000
873.13	-0.000
873.30	-0.000
873.47	-0.000
873.64	-0.000
873.81	-0.000
873.98	-0.000
874.15	-0.000
874.32	-0.000
874.49	-0.000
874.66	-0.000
874.83	-0.000
875.00	-0.000
875.17	-0.000
875.34	-0.000
875.51	-0.000
875.68	-0.000
875.85	-0.000
876.02	-0.000
876.19	-0.000
876.36	-0.000
876.53	-0.000
876.70	-0.000
876.87	-0.000
877.04	-0.000
877.21	-0.000
877.38	-0.000
877.55	-0.000
877.72	-0.000
877.89	-0.000
878.06	-0.000
878.23	-0.000
878.39	-0.000
878.56	-0.000
878.73	-0.000
878.90	-0.000
879.07	-0.000
879.24	-0.000
879.41	-0.000
879.58	-0.000
879.75	-0.000
879.92	-0.000
880.09	-0.000
880.26	-0.000
880.43	-0.000
880.60	-0.000
880.77	-0.000
880.94	-0.000
881.11	-0.000
881.27	-0.000
881.44	-0.000
881.61	-0.000
881.78	-0.000
881.95	-0.000
882.12	-0.000
882.29	-0.000
882.46	-0.000
882.63	-0.000
882.80	-0.000
882.97	-0.000
883.14	-0.000
883.30	-0.000
883.47	-0.000
883.64	-0.000
883.81	-0.000
883.98	-0.000
884.15	-0.000
884.32	-0.000
884.49	-0.000
884.66	-0.000
884.82	-0.000
884.99	-0.000
885.16	-0.000
885.33	-0.000
885.50	-0.000
885.67	-0.000
885.84	-0.000
886.01	-0.000
886.17	-0.000
886.34	-0.000
886.51	-0.000
886.68	-0.000
886.85	-0.000
887.02	-0.000
887.19	-0.000
887.36	-0.000
887.52	-0.000
887.69	-0.000
887.86	-0.000
888.03	-0.000
888.20	-0.000
888.37	-0.000
888.54	-0.000
888.70	-0.000
888.87	-0.000
889.04	-0.000
889.21	-0.000
889.38	-0.000
889.55	-0.000
889.71	-0.000
889.88	-0.000
890.05	-0.000
890.22	-0.000
890.39	-0.000
>>>>>End Processed Spectral Data<<<<<
