SpectraSuite Data File
++++++++++++++++++++++++++++++++++++
Date: Fri Jun 19 15:47:28 CEST 2015
User: introlabs
Dark Spectrum Present: Yes
Reference Spectrum Present: Yes
Number of Sampled Component Spectra: 1
Spectrometers: USB4H08886
Integration Time (usec): 745692 (USB4H08886)
Spectra Averaged: 5 (USB4H08886)
Boxcar Smoothing: 5 (USB4H08886)
Correct for Electrical Dark: Yes (USB4H08886)
Strobe/Lamp Enabled: No (USB4H08886)
Correct for Detector Non-linearity: Yes (USB4H08886)
Correct for Stray Light: Yes (USB4H08886)
Number of Pixels in Processed Spectrum: 3648
>>>>>Begin Processed Spectral Data<<<<<
178.14	-0.000
178.36	-0.000
178.57	-0.000
178.79	-0.000
179.01	-0.000
179.22	-0.000
179.44	-0.000
179.65	-0.000
179.87	-0.000
180.08	-0.000
180.30	-0.000
180.52	-0.000
180.73	-0.000
180.95	-0.000
181.16	-0.000
181.38	-0.000
181.59	-0.000
181.81	-0.000
182.03	-0.000
182.24	-0.000
182.46	-0.000
182.67	-0.000
182.89	-0.000
183.10	-0.000
183.32	-0.000
183.54	-0.000
183.75	-0.000
183.97	-0.000
184.18	-0.000
184.40	-0.000
184.61	-0.000
184.83	-0.000
185.04	-0.000
185.26	-0.000
185.48	-0.000
185.69	-0.000
185.91	-0.000
186.12	-0.000
186.34	-0.000
186.55	-0.000
186.77	-0.000
186.98	-0.000
187.20	-0.000
187.42	-0.000
187.63	-0.000
187.85	-0.000
188.06	-0.000
188.28	-0.000
188.49	-0.000
188.71	-0.000
188.92	-0.000
189.14	-0.000
189.36	-0.000
189.57	-0.000
189.79	-0.000
190.00	-0.000
190.22	-0.000
190.43	-0.000
190.65	-0.000
190.86	-0.000
191.08	-0.000
191.29	-0.000
191.51	-0.000
191.72	-0.000
191.94	-0.000
192.16	-0.000
192.37	-0.000
192.59	-0.000
192.80	-0.000
193.02	-0.000
193.23	-0.000
193.45	-0.000
193.66	-0.000
193.88	-0.000
194.09	-0.000
194.31	-0.000
194.52	-0.000
194.74	-0.000
194.95	-0.000
195.17	-0.000
195.38	-0.000
195.60	-0.000
195.81	-0.000
196.03	-0.000
196.25	-0.000
196.46	-0.000
196.68	-0.000
196.89	-0.000
197.11	-0.000
197.32	-0.000
197.54	-0.000
197.75	-0.000
197.97	-0.000
198.18	-0.000
198.40	-0.000
198.61	-0.000
198.83	-0.000
199.04	-0.000
199.26	-0.000
199.47	-0.000
199.69	-0.000
199.90	-0.000
200.12	-0.000
200.33	-0.000
200.55	-0.000
200.76	-0.000
200.98	-0.000
201.19	-0.000
201.41	-0.000
201.62	-0.000
201.84	-0.000
202.05	-0.000
202.27	-0.000
202.48	-0.000
202.70	-0.000
202.91	-0.000
203.13	-0.000
203.34	-0.000
203.56	-0.000
203.77	-0.000
203.99	-0.000
204.20	-0.000
204.42	-0.000
204.63	-0.000
204.85	-0.000
205.06	-0.000
205.28	-0.000
205.49	-0.000
205.71	-0.000
205.92	-0.000
206.14	-0.000
206.35	-0.000
206.56	-0.000
206.78	-0.000
206.99	-0.000
207.21	-0.000
207.42	-0.000
207.64	-0.000
207.85	-0.000
208.07	-0.000
208.28	-0.000
208.50	-0.000
208.71	-0.000
208.93	-0.000
209.14	-0.000
209.36	-0.000
209.57	-0.000
209.79	-0.000
210.00	-0.000
210.22	-0.000
210.43	-0.000
210.64	-0.000
210.86	-0.000
211.07	-0.000
211.29	-0.000
211.50	-0.000
211.72	-0.000
211.93	-0.000
212.15	-0.000
212.36	-0.000
212.58	-0.000
212.79	-0.000
213.01	-0.000
213.22	-0.000
213.43	-0.000
213.65	-0.000
213.86	-0.000
214.08	-0.000
214.29	-0.000
214.51	-0.000
214.72	-0.000
214.94	-0.000
215.15	-0.000
215.36	-0.000
215.58	-0.000
215.79	-0.000
216.01	-0.000
216.22	-0.000
216.44	-0.000
216.65	-0.000
216.87	-0.000
217.08	-0.000
217.29	-0.000
217.51	-0.000
217.72	-0.000
217.94	-0.000
218.15	-0.000
218.37	-0.000
218.58	-0.000
218.80	-0.000
219.01	-0.000
219.22	-0.000
219.44	-0.000
219.65	-0.000
219.87	-0.000
220.08	-0.000
220.30	-0.000
220.51	-0.000
220.72	-0.000
220.94	-0.000
221.15	-0.000
221.37	-0.000
221.58	-0.000
221.79	-0.000
222.01	-0.000
222.22	-0.000
222.44	-0.000
222.65	-0.000
222.87	-0.000
223.08	-0.000
223.29	-0.000
223.51	-0.000
223.72	-0.000
223.94	-0.000
224.15	-0.000
224.36	-0.000
224.58	-0.000
224.79	-0.000
225.01	-0.000
225.22	-0.000
225.44	-0.000
225.65	-0.000
225.86	-0.000
226.08	-0.000
226.29	-0.000
226.51	-0.000
226.72	-0.000
226.93	-0.000
227.15	-0.000
227.36	-0.000
227.58	-0.000
227.79	-0.000
228.00	-0.000
228.22	-0.000
228.43	-0.000
228.65	-0.000
228.86	-0.000
229.07	-0.000
229.29	-0.000
229.50	-0.000
229.72	-0.000
229.93	-0.000
230.14	-0.000
230.36	-0.000
230.57	-0.000
230.78	-0.000
231.00	-0.000
231.21	-0.000
231.43	-0.000
231.64	-0.000
231.85	-0.000
232.07	-0.000
232.28	-0.000
232.50	-0.000
232.71	-0.000
232.92	-0.000
233.14	-0.000
233.35	-0.000
233.56	-0.000
233.78	-0.000
233.99	-0.000
234.21	-0.000
234.42	-0.000
234.63	-0.000
234.85	-0.000
235.06	-0.000
235.27	-0.000
235.49	-0.000
235.70	-0.000
235.91	-0.000
236.13	-0.000
236.34	-0.000
236.56	-0.000
236.77	-0.000
236.98	-0.000
237.20	-0.000
237.41	-0.000
237.62	-0.000
237.84	-0.000
238.05	-0.000
238.26	-0.000
238.48	-0.000
238.69	-0.000
238.91	-0.000
239.12	-0.000
239.33	-0.000
239.55	-0.000
239.76	-0.000
239.97	-0.000
240.19	-0.000
240.40	-0.000
240.61	-0.000
240.83	-0.000
241.04	-0.000
241.25	-0.000
241.47	-0.000
241.68	-0.000
241.89	-0.000
242.11	-0.000
242.32	-0.000
242.53	-0.000
242.75	-0.000
242.96	-0.000
243.17	-0.000
243.39	-0.000
243.60	-0.000
243.81	-0.000
244.03	-0.000
244.24	-0.000
244.45	-0.000
244.67	-0.000
244.88	-0.000
245.09	-0.000
245.31	-0.000
245.52	-0.000
245.73	-0.000
245.95	-0.000
246.16	-0.000
246.37	-0.000
246.59	-0.000
246.80	-0.000
247.01	-0.000
247.23	-0.000
247.44	-0.000
247.65	-0.000
247.87	-0.000
248.08	-0.000
248.29	-0.000
248.51	-0.000
248.72	-0.000
248.93	-0.000
249.15	-0.000
249.36	-0.000
249.57	-0.000
249.78	-0.000
250.00	-0.000
250.21	-0.000
250.42	-0.000
250.64	-0.000
250.85	-0.000
251.06	-0.000
251.28	-0.000
251.49	-0.000
251.70	-0.000
251.92	-0.000
252.13	-0.000
252.34	-0.000
252.55	-0.000
252.77	-0.000
252.98	-0.000
253.19	-0.000
253.41	-0.000
253.62	-0.000
253.83	-0.000
254.05	-0.000
254.26	-0.000
254.47	-0.000
254.68	-0.000
254.90	-0.000
255.11	-0.000
255.32	-0.000
255.54	-0.000
255.75	-0.000
255.96	-0.000
256.17	-0.000
256.39	-0.000
256.60	-0.000
256.81	-0.000
257.03	-0.000
257.24	-0.000
257.45	-0.000
257.66	-0.000
257.88	-0.000
258.09	-0.000
258.30	-0.000
258.51	-0.000
258.73	-0.000
258.94	-0.000
259.15	-0.000
259.37	-0.000
259.58	-0.000
259.79	-0.000
260.00	-0.000
260.22	-0.000
260.43	-0.000
260.64	-0.000
260.85	-0.000
261.07	-0.000
261.28	-0.000
261.49	-0.000
261.71	-0.000
261.92	-0.000
262.13	-0.000
262.34	-0.000
262.56	-0.000
262.77	-0.000
262.98	-0.000
263.19	-0.000
263.41	-0.000
263.62	-0.000
263.83	-0.000
264.04	-0.000
264.26	-0.000
264.47	-0.000
264.68	-0.000
264.89	-0.000
265.11	-0.000
265.32	-0.000
265.53	-0.000
265.74	-0.000
265.96	-0.000
266.17	-0.000
266.38	-0.000
266.59	-0.000
266.81	-0.000
267.02	-0.000
267.23	-0.000
267.44	-0.000
267.65	-0.000
267.87	-0.000
268.08	-0.000
268.29	-0.000
268.50	-0.000
268.72	-0.000
268.93	-0.000
269.14	-0.000
269.35	-0.000
269.57	-0.000
269.78	-0.000
269.99	-0.000
270.20	-0.000
270.41	-0.000
270.63	-0.000
270.84	-0.000
271.05	-0.000
271.26	-0.000
271.48	-0.000
271.69	-0.000
271.90	-0.000
272.11	-0.000
272.32	-0.000
272.54	-0.000
272.75	-0.000
272.96	-0.000
273.17	-0.000
273.39	-0.000
273.60	-0.000
273.81	-0.000
274.02	-0.000
274.23	-0.000
274.45	-0.000
274.66	-0.000
274.87	-0.000
275.08	-0.000
275.29	-0.000
275.51	-0.000
275.72	-0.000
275.93	-0.000
276.14	-0.000
276.35	-0.000
276.57	-0.000
276.78	-0.000
276.99	-0.000
277.20	-0.000
277.41	-0.000
277.63	-0.000
277.84	-0.000
278.05	-0.000
278.26	-0.000
278.47	-0.000
278.69	-0.000
278.90	-0.000
279.11	-0.000
279.32	-0.000
279.53	-0.000
279.74	-0.000
279.96	-0.000
280.17	-0.000
280.38	-0.000
280.59	-0.000
280.80	-0.000
281.02	-0.000
281.23	-0.000
281.44	-0.000
281.65	-0.000
281.86	-0.000
282.07	-0.000
282.29	-0.000
282.50	-0.000
282.71	-0.000
282.92	-0.000
283.13	-0.000
283.35	-0.000
283.56	-0.000
283.77	-0.000
283.98	-0.000
284.19	-0.000
284.40	-0.000
284.62	-0.000
284.83	-0.000
285.04	-0.000
285.25	-0.000
285.46	-0.000
285.67	-0.000
285.88	-0.000
286.10	-0.000
286.31	-0.000
286.52	-0.000
286.73	-0.000
286.94	-0.000
287.15	-0.000
287.37	-0.000
287.58	-0.000
287.79	-0.000
288.00	-0.000
288.21	-0.000
288.42	-0.000
288.63	-0.000
288.85	-0.000
289.06	-0.000
289.27	-0.000
289.48	-0.000
289.69	-0.000
289.90	-0.000
290.11	-0.000
290.33	-0.000
290.54	-0.000
290.75	-0.000
290.96	-0.000
291.17	-0.000
291.38	-0.000
291.59	-0.000
291.81	-0.000
292.02	-0.000
292.23	-0.000
292.44	-0.000
292.65	2.906
292.86	-0.000
293.07	-0.000
293.28	2.235
293.50	2.536
293.71	-0.000
293.92	2.686
294.13	-0.000
294.34	-0.000
294.55	-0.000
294.76	-0.000
294.97	2.540
295.19	-0.000
295.40	-0.000
295.61	-0.000
295.82	2.540
296.03	2.179
296.24	2.258
296.45	1.792
296.66	1.609
296.87	1.619
297.09	1.655
297.30	1.781
297.51	1.563
297.72	1.536
297.93	1.587
298.14	1.554
298.35	1.530
298.56	1.508
298.77	1.577
298.99	1.563
299.20	1.556
299.41	1.535
299.62	1.496
299.83	1.494
300.04	1.460
300.25	1.455
300.46	1.481
300.67	1.469
300.88	1.441
301.10	1.447
301.31	1.498
301.52	1.451
301.73	1.418
301.94	1.428
302.15	1.433
302.36	1.395
302.57	1.349
302.78	1.354
302.99	1.380
303.20	1.393
303.41	1.324
303.63	1.309
303.84	1.309
304.05	1.303
304.26	1.253
304.47	1.259
304.68	1.255
304.89	1.245
305.10	1.217
305.31	1.206
305.52	1.242
305.73	1.236
305.94	1.204
306.15	1.201
306.37	1.220
306.58	1.227
306.79	1.205
307.00	1.227
307.21	1.260
307.42	1.253
307.63	1.226
307.84	1.195
308.05	1.224
308.26	1.225
308.47	1.206
308.68	1.203
308.89	1.199
309.10	1.199
309.31	1.166
309.52	1.158
309.73	1.171
309.95	1.169
310.16	1.146
310.37	1.137
310.58	1.150
310.79	1.149
311.00	1.146
311.21	1.149
311.42	1.147
311.63	1.142
311.84	1.129
312.05	1.128
312.26	1.143
312.47	1.153
312.68	1.136
312.89	1.119
313.10	1.125
313.31	1.102
313.52	1.106
313.73	1.108
313.94	1.108
314.15	1.092
314.36	1.073
314.57	1.068
314.78	1.055
314.99	1.048
315.21	1.039
315.42	1.042
315.63	1.053
315.84	1.031
316.05	1.022
316.26	1.029
316.47	1.045
316.68	1.042
316.89	1.026
317.10	1.044
317.31	1.049
317.52	1.052
317.73	1.036
317.94	1.032
318.15	1.070
318.36	1.067
318.57	1.052
318.78	1.043
318.99	1.071
319.20	1.068
319.41	1.039
319.62	1.041
319.83	1.052
320.04	1.048
320.25	1.039
320.46	1.009
320.67	1.011
320.88	1.008
321.09	0.995
321.30	0.984
321.51	0.997
321.72	0.995
321.93	0.981
322.14	0.973
322.35	0.996
322.56	0.999
322.77	0.989
322.98	0.997
323.19	1.004
323.40	1.010
323.61	0.992
323.82	0.987
324.03	0.991
324.24	0.988
324.45	0.979
324.66	0.961
324.87	0.956
325.08	0.956
325.29	0.941
325.50	0.933
325.71	0.936
325.92	0.944
326.13	0.932
326.34	0.933
326.55	0.938
326.76	0.936
326.97	0.929
327.18	0.924
327.39	0.947
327.60	0.948
327.80	0.950
328.01	0.947
328.22	0.945
328.43	0.950
328.64	0.938
328.85	0.944
329.06	0.945
329.27	0.945
329.48	0.943
329.69	0.924
329.90	0.933
330.11	0.928
330.32	0.924
330.53	0.919
330.74	0.917
330.95	0.915
331.16	0.904
331.37	0.911
331.58	0.909
331.79	0.908
332.00	0.901
332.21	0.896
332.42	0.898
332.63	0.891
332.83	0.887
333.04	0.890
333.25	0.901
333.46	0.898
333.67	0.886
333.88	0.888
334.09	0.896
334.30	0.894
334.51	0.886
334.72	0.882
334.93	0.884
335.14	0.883
335.35	0.877
335.56	0.872
335.77	0.879
335.98	0.877
336.18	0.872
336.39	0.865
336.60	0.867
336.81	0.866
337.02	0.866
337.23	0.869
337.44	0.870
337.65	0.872
337.86	0.864
338.07	0.859
338.28	0.863
338.49	0.862
338.70	0.856
338.91	0.862
339.11	0.867
339.32	0.864
339.53	0.854
339.74	0.850
339.95	0.846
340.16	0.844
340.37	0.839
340.58	0.837
340.79	0.838
341.00	0.838
341.21	0.829
341.41	0.829
341.62	0.829
341.83	0.830
342.04	0.827
342.25	0.837
342.46	0.841
342.67	0.840
342.88	0.834
343.09	0.833
343.30	0.840
343.50	0.842
343.71	0.833
343.92	0.833
344.13	0.837
344.34	0.836
344.55	0.823
344.76	0.821
344.97	0.824
345.18	0.824
345.38	0.822
345.59	0.817
345.80	0.816
346.01	0.814
346.22	0.810
346.43	0.805
346.64	0.811
346.85	0.810
347.06	0.805
347.26	0.806
347.47	0.807
347.68	0.803
347.89	0.800
348.10	0.796
348.31	0.802
348.52	0.801
348.73	0.799
348.93	0.796
349.14	0.797
349.35	0.796
349.56	0.791
349.77	0.788
349.98	0.794
350.19	0.791
350.39	0.788
350.60	0.783
350.81	0.798
351.02	0.797
351.23	0.793
351.44	0.796
351.65	0.798
351.86	0.794
352.06	0.794
352.27	0.793
352.48	0.793
352.69	0.792
352.90	0.788
353.11	0.775
353.31	0.782
353.52	0.778
353.73	0.772
353.94	0.773
354.15	0.779
354.36	0.779
354.57	0.771
354.77	0.773
354.98	0.771
355.19	0.770
355.40	0.771
355.61	0.776
355.82	0.780
356.02	0.779
356.23	0.773
356.44	0.773
356.65	0.776
356.86	0.776
357.07	0.771
357.27	0.775
357.48	0.777
357.69	0.772
357.90	0.758
358.11	0.755
358.32	0.757
358.52	0.760
358.73	0.752
358.94	0.754
359.15	0.760
359.36	0.760
359.56	0.755
359.77	0.753
359.98	0.760
360.19	0.759
360.40	0.757
360.61	0.758
360.81	0.756
361.02	0.756
361.23	0.749
361.44	0.746
361.65	0.746
361.85	0.746
362.06	0.743
362.27	0.745
362.48	0.746
362.69	0.748
362.89	0.742
363.10	0.743
363.31	0.747
363.52	0.750
363.73	0.746
363.93	0.746
364.14	0.747
364.35	0.749
364.56	0.739
364.77	0.741
364.97	0.741
365.18	0.743
365.39	0.740
365.60	0.737
365.81	0.738
366.01	0.737
366.22	0.735
366.43	0.735
366.64	0.736
366.84	0.742
367.05	0.740
367.26	0.739
367.47	0.740
367.68	0.740
367.88	0.738
368.09	0.735
368.30	0.737
368.51	0.736
368.71	0.736
368.92	0.741
369.13	0.738
369.34	0.737
369.55	0.737
369.75	0.737
369.96	0.743
370.17	0.743
370.38	0.740
370.58	0.740
370.79	0.745
371.00	0.743
371.21	0.734
371.41	0.740
371.62	0.743
371.83	0.738
372.04	0.737
372.24	0.731
372.45	0.731
372.66	0.732
372.87	0.729
373.07	0.726
373.28	0.726
373.49	0.729
373.70	0.721
373.90	0.720
374.11	0.728
374.32	0.728
374.53	0.727
374.73	0.728
374.94	0.729
375.15	0.730
375.36	0.728
375.56	0.736
375.77	0.736
375.98	0.736
376.19	0.735
376.39	0.729
376.60	0.731
376.81	0.732
377.02	0.730
377.22	0.730
377.43	0.730
377.64	0.730
377.84	0.722
378.05	0.726
378.26	0.733
378.47	0.732
378.67	0.729
378.88	0.727
379.09	0.727
379.30	0.728
379.50	0.726
379.71	0.727
379.92	0.729
380.12	0.729
380.33	0.721
380.54	0.717
380.75	0.724
380.95	0.724
381.16	0.723
381.37	0.724
381.57	0.724
381.78	0.725
381.99	0.726
382.20	0.725
382.40	0.727
382.61	0.727
382.82	0.724
383.02	0.718
383.23	0.721
383.44	0.721
383.64	0.719
383.85	0.722
384.06	0.724
384.27	0.721
384.47	0.720
384.68	0.722
384.89	0.727
385.09	0.727
385.30	0.726
385.51	0.725
385.71	0.728
385.92	0.728
386.13	0.727
386.33	0.730
386.54	0.730
386.75	0.729
386.95	0.726
387.16	0.721
387.37	0.723
387.58	0.723
387.78	0.722
387.99	0.720
388.20	0.722
388.40	0.719
388.61	0.716
388.82	0.719
389.02	0.721
389.23	0.720
389.44	0.719
389.64	0.720
389.85	0.731
390.06	0.731
390.26	0.732
390.47	0.731
390.68	0.734
390.88	0.732
391.09	0.728
391.30	0.728
391.50	0.728
391.71	0.728
391.92	0.726
392.12	0.717
392.33	0.717
392.53	0.716
392.74	0.717
392.95	0.716
393.15	0.719
393.36	0.721
393.57	0.719
393.77	0.722
393.98	0.723
394.19	0.723
394.39	0.723
394.60	0.725
394.81	0.727
395.01	0.725
395.22	0.724
395.43	0.725
395.63	0.729
395.84	0.730
396.04	0.727
396.25	0.729
396.46	0.730
396.66	0.729
396.87	0.726
397.08	0.724
397.28	0.727
397.49	0.728
397.69	0.725
397.90	0.720
398.11	0.721
398.31	0.722
398.52	0.719
398.73	0.721
398.93	0.720
399.14	0.719
399.34	0.719
399.55	0.719
399.76	0.718
399.96	0.720
400.17	0.719
400.37	0.717
400.58	0.724
400.79	0.726
400.99	0.723
401.20	0.729
401.41	0.731
401.61	0.732
401.82	0.738
402.02	0.737
402.23	0.738
402.44	0.737
402.64	0.738
402.85	0.732
403.05	0.731
403.26	0.730
403.47	0.725
403.67	0.724
403.88	0.724
404.08	0.718
404.29	0.717
404.50	0.716
404.70	0.717
404.91	0.716
405.11	0.714
405.32	0.714
405.52	0.714
405.73	0.713
405.94	0.713
406.14	0.715
406.35	0.717
406.55	0.717
406.76	0.715
406.97	0.716
407.17	0.718
407.38	0.718
407.58	0.717
407.79	0.719
407.99	0.722
408.20	0.722
408.41	0.718
408.61	0.716
408.82	0.717
409.02	0.717
409.23	0.715
409.43	0.713
409.64	0.714
409.84	0.714
410.05	0.712
410.26	0.710
410.46	0.709
410.67	0.710
410.87	0.711
411.08	0.713
411.28	0.714
411.49	0.716
411.69	0.714
411.90	0.716
412.11	0.717
412.31	0.717
412.52	0.716
412.72	0.718
412.93	0.717
413.13	0.717
413.34	0.713
413.54	0.715
413.75	0.716
413.95	0.715
414.16	0.712
414.37	0.715
414.57	0.715
414.78	0.718
414.98	0.716
415.19	0.717
415.39	0.714
415.60	0.717
415.80	0.715
416.01	0.714
416.21	0.716
416.42	0.716
416.62	0.710
416.83	0.711
417.03	0.709
417.24	0.710
417.44	0.707
417.65	0.707
417.86	0.706
418.06	0.705
418.27	0.704
418.47	0.705
418.68	0.706
418.88	0.707
419.09	0.706
419.29	0.707
419.50	0.707
419.70	0.707
419.91	0.706
420.11	0.704
420.32	0.706
420.52	0.705
420.73	0.704
420.93	0.705
421.14	0.706
421.34	0.704
421.55	0.702
421.75	0.702
421.96	0.703
422.16	0.703
422.37	0.702
422.57	0.699
422.78	0.700
422.98	0.697
423.19	0.695
423.39	0.692
423.60	0.696
423.80	0.696
424.01	0.695
424.21	0.697
424.42	0.698
424.62	0.698
424.83	0.698
425.03	0.698
425.23	0.699
425.44	0.699
425.64	0.701
425.85	0.699
426.05	0.700
426.26	0.701
426.46	0.697
426.67	0.696
426.87	0.701
427.08	0.701
427.28	0.699
427.49	0.700
427.69	0.702
427.90	0.700
428.10	0.698
428.31	0.698
428.51	0.700
428.71	0.699
428.92	0.699
429.12	0.696
429.33	0.697
429.53	0.701
429.74	0.705
429.94	0.705
430.15	0.703
430.35	0.703
430.56	0.700
430.76	0.699
430.96	0.700
431.17	0.697
431.37	0.695
431.58	0.693
431.78	0.689
431.99	0.682
432.19	0.684
432.40	0.686
432.60	0.686
432.80	0.688
433.01	0.686
433.21	0.687
433.42	0.688
433.62	0.688
433.83	0.689
434.03	0.692
434.23	0.695
434.44	0.693
434.64	0.691
434.85	0.697
435.05	0.698
435.26	0.698
435.46	0.696
435.66	0.696
435.87	0.696
436.07	0.696
436.28	0.691
436.48	0.688
436.69	0.688
436.89	0.688
437.09	0.682
437.30	0.680
437.50	0.681
437.71	0.692
437.91	0.691
438.11	0.692
438.32	0.696
438.52	0.696
438.73	0.695
438.93	0.693
439.13	0.693
439.34	0.696
439.54	0.695
439.75	0.695
439.95	0.685
440.15	0.690
440.36	0.689
440.56	0.686
440.77	0.687
440.97	0.687
441.17	0.687
441.38	0.688
441.58	0.685
441.79	0.684
441.99	0.683
442.19	0.681
442.40	0.678
442.60	0.678
442.81	0.675
443.01	0.676
443.21	0.675
443.42	0.675
443.62	0.673
443.82	0.672
444.03	0.673
444.23	0.673
444.44	0.674
444.64	0.672
444.84	0.674
445.05	0.673
445.25	0.672
445.45	0.672
445.66	0.674
445.86	0.673
446.06	0.675
446.27	0.674
446.47	0.676
446.68	0.674
446.88	0.673
447.08	0.672
447.29	0.673
447.49	0.673
447.69	0.673
447.90	0.672
448.10	0.675
448.30	0.672
448.51	0.673
448.71	0.671
448.91	0.673
449.12	0.672
449.32	0.673
449.52	0.673
449.73	0.676
449.93	0.675
450.14	0.676
450.34	0.675
450.54	0.677
450.75	0.674
450.95	0.674
451.15	0.673
451.36	0.675
451.56	0.672
451.76	0.670
451.97	0.667
452.17	0.667
452.37	0.666
452.58	0.663
452.78	0.663
452.98	0.665
453.19	0.664
453.39	0.665
453.59	0.664
453.79	0.665
454.00	0.666
454.20	0.665
454.40	0.665
454.61	0.667
454.81	0.668
455.01	0.667
455.22	0.668
455.42	0.669
455.62	0.667
455.83	0.667
456.03	0.670
456.23	0.671
456.44	0.672
456.64	0.671
456.84	0.671
457.04	0.671
457.25	0.670
457.45	0.667
457.65	0.666
457.86	0.667
458.06	0.665
458.26	0.661
458.47	0.660
458.67	0.661
458.87	0.661
459.07	0.659
459.28	0.661
459.48	0.664
459.68	0.663
459.89	0.662
460.09	0.661
460.29	0.662
460.49	0.663
460.70	0.662
460.90	0.662
461.10	0.662
461.31	0.662
461.51	0.659
461.71	0.661
461.91	0.662
462.12	0.662
462.32	0.661
462.52	0.662
462.72	0.664
462.93	0.665
463.13	0.663
463.33	0.664
463.53	0.666
463.74	0.665
463.94	0.661
464.14	0.662
464.35	0.664
464.55	0.663
464.75	0.662
464.95	0.659
465.16	0.661
465.36	0.659
465.56	0.658
465.76	0.657
465.97	0.658
466.17	0.659
466.37	0.657
466.57	0.657
466.78	0.658
466.98	0.657
467.18	0.655
467.38	0.654
467.59	0.656
467.79	0.657
467.99	0.656
468.19	0.657
468.39	0.659
468.60	0.659
468.80	0.659
469.00	0.660
469.20	0.661
469.41	0.661
469.61	0.661
469.81	0.661
470.01	0.660
470.22	0.661
470.42	0.659
470.62	0.656
470.82	0.657
471.02	0.656
471.23	0.654
471.43	0.655
471.63	0.657
471.83	0.657
472.04	0.656
472.24	0.655
472.44	0.661
472.64	0.661
472.84	0.659
473.05	0.659
473.25	0.662
473.45	0.661
473.65	0.659
473.85	0.660
474.06	0.661
474.26	0.660
474.46	0.661
474.66	0.657
474.86	0.658
475.07	0.658
475.27	0.657
475.47	0.654
475.67	0.654
475.87	0.656
476.08	0.653
476.28	0.654
476.48	0.655
476.68	0.654
476.88	0.652
477.09	0.652
477.29	0.654
477.49	0.654
477.69	0.653
477.89	0.653
478.09	0.652
478.30	0.654
478.50	0.652
478.70	0.652
478.90	0.652
479.10	0.655
479.31	0.656
479.51	0.654
479.71	0.655
479.91	0.655
480.11	0.654
480.31	0.654
480.52	0.653
480.72	0.653
480.92	0.652
481.12	0.651
481.32	0.648
481.52	0.646
481.72	0.646
481.93	0.649
482.13	0.650
482.33	0.649
482.53	0.648
482.73	0.649
482.93	0.649
483.14	0.649
483.34	0.649
483.54	0.650
483.74	0.649
483.94	0.648
484.14	0.644
484.34	0.644
484.55	0.645
484.75	0.645
484.95	0.643
485.15	0.642
485.35	0.641
485.55	0.641
485.75	0.639
485.96	0.639
486.16	0.641
486.36	0.640
486.56	0.639
486.76	0.639
486.96	0.639
487.16	0.638
487.36	0.637
487.57	0.637
487.77	0.638
487.97	0.638
488.17	0.636
488.37	0.635
488.57	0.635
488.77	0.636
488.97	0.635
489.18	0.634
489.38	0.637
489.58	0.637
489.78	0.637
489.98	0.636
490.18	0.636
490.38	0.637
490.58	0.636
490.78	0.637
490.98	0.639
491.19	0.639
491.39	0.638
491.59	0.637
491.79	0.640
491.99	0.640
492.19	0.640
492.39	0.642
492.59	0.641
492.79	0.643
492.99	0.643
493.20	0.643
493.40	0.643
493.60	0.645
493.80	0.643
494.00	0.641
494.20	0.641
494.40	0.641
494.60	0.639
494.80	0.643
495.00	0.642
495.20	0.641
495.40	0.640
495.61	0.641
495.81	0.641
496.01	0.644
496.21	0.645
496.41	0.645
496.61	0.645
496.81	0.644
497.01	0.639
497.21	0.638
497.41	0.638
497.61	0.637
497.81	0.635
498.01	0.635
498.21	0.633
498.41	0.631
498.61	0.632
498.82	0.633
499.02	0.635
499.22	0.636
499.42	0.636
499.62	0.637
499.82	0.639
500.02	0.640
500.22	0.639
500.42	0.641
500.62	0.641
500.82	0.641
501.02	0.639
501.22	0.639
501.42	0.638
501.62	0.641
501.82	0.640
502.02	0.640
502.22	0.639
502.42	0.641
502.62	0.638
502.82	0.638
503.02	0.639
503.22	0.638
503.42	0.637
503.63	0.637
503.83	0.635
504.03	0.633
504.23	0.632
504.43	0.633
504.63	0.633
504.83	0.633
505.03	0.632
505.23	0.634
505.43	0.636
505.63	0.636
505.83	0.636
506.03	0.637
506.23	0.639
506.43	0.639
506.63	0.638
506.83	0.637
507.03	0.639
507.23	0.639
507.43	0.637
507.63	0.637
507.83	0.637
508.03	0.638
508.23	0.637
508.43	0.636
508.63	0.637
508.83	0.638
509.03	0.639
509.23	0.638
509.43	0.639
509.63	0.639
509.83	0.638
510.03	0.641
510.23	0.641
510.43	0.642
510.63	0.643
510.83	0.643
511.03	0.644
511.23	0.642
511.43	0.642
511.63	0.643
511.83	0.645
512.03	0.644
512.22	0.642
512.42	0.642
512.62	0.642
512.82	0.642
513.02	0.641
513.22	0.641
513.42	0.643
513.62	0.646
513.82	0.644
514.02	0.644
514.22	0.645
514.42	0.645
514.62	0.645
514.82	0.645
515.02	0.647
515.22	0.650
515.42	0.649
515.62	0.652
515.82	0.650
516.02	0.651
516.22	0.652
516.42	0.653
516.62	0.655
516.82	0.656
517.01	0.654
517.21	0.653
517.41	0.656
517.61	0.656
517.81	0.653
518.01	0.652
518.21	0.652
518.41	0.651
518.61	0.650
518.81	0.651
519.01	0.651
519.21	0.652
519.41	0.651
519.61	0.646
519.81	0.648
520.00	0.648
520.20	0.649
520.40	0.652
520.60	0.652
520.80	0.650
521.00	0.651
521.20	0.651
521.40	0.655
521.60	0.656
521.80	0.655
522.00	0.655
522.20	0.657
522.39	0.656
522.59	0.654
522.79	0.656
522.99	0.657
523.19	0.656
523.39	0.654
523.59	0.652
523.79	0.655
523.99	0.657
524.19	0.656
524.38	0.655
524.58	0.657
524.78	0.657
524.98	0.656
525.18	0.657
525.38	0.658
525.58	0.659
525.78	0.658
525.98	0.656
526.18	0.655
526.37	0.655
526.57	0.657
526.77	0.657
526.97	0.657
527.17	0.657
527.37	0.654
527.57	0.657
527.77	0.657
527.96	0.657
528.16	0.657
528.36	0.657
528.56	0.659
528.76	0.658
528.96	0.657
529.16	0.658
529.36	0.660
529.55	0.660
529.75	0.657
529.95	0.658
530.15	0.659
530.35	0.661
530.55	0.658
530.75	0.659
530.94	0.660
531.14	0.660
531.34	0.659
531.54	0.656
531.74	0.659
531.94	0.662
532.13	0.661
532.33	0.663
532.53	0.661
532.73	0.661
532.93	0.659
533.13	0.661
533.33	0.660
533.52	0.660
533.72	0.664
533.92	0.662
534.12	0.660
534.32	0.661
534.52	0.659
534.71	0.662
534.91	0.664
535.11	0.666
535.31	0.665
535.51	0.667
535.71	0.668
535.90	0.665
536.10	0.667
536.30	0.668
536.50	0.668
536.70	0.668
536.89	0.666
537.09	0.666
537.29	0.667
537.49	0.667
537.69	0.665
537.89	0.666
538.08	0.666
538.28	0.664
538.48	0.665
538.68	0.666
538.88	0.668
539.07	0.668
539.27	0.667
539.47	0.666
539.67	0.666
539.87	0.667
540.06	0.664
540.26	0.665
540.46	0.667
540.66	0.664
540.86	0.662
541.05	0.662
541.25	0.664
541.45	0.664
541.65	0.663
541.84	0.665
542.04	0.665
542.24	0.666
542.44	0.665
542.64	0.666
542.83	0.669
543.03	0.669
543.23	0.667
543.43	0.668
543.62	0.668
543.82	0.669
544.02	0.668
544.22	0.668
544.42	0.671
544.61	0.671
544.81	0.669
545.01	0.668
545.21	0.669
545.40	0.670
545.60	0.668
545.80	0.672
546.00	0.672
546.19	0.671
546.39	0.670
546.59	0.668
546.79	0.669
546.98	0.669
547.18	0.669
547.38	0.669
547.58	0.671
547.77	0.671
547.97	0.667
548.17	0.669
548.37	0.669
548.56	0.669
548.76	0.669
548.96	0.670
549.16	0.672
549.35	0.672
549.55	0.671
549.75	0.671
549.95	0.674
550.14	0.674
550.34	0.672
550.54	0.678
550.73	0.681
550.93	0.683
551.13	0.680
551.33	0.679
551.52	0.680
551.72	0.680
551.92	0.678
552.12	0.679
552.31	0.680
552.51	0.680
552.71	0.675
552.90	0.675
553.10	0.675
553.30	0.675
553.50	0.674
553.69	0.675
553.89	0.675
554.09	0.675
554.28	0.672
554.48	0.673
554.68	0.676
554.87	0.675
555.07	0.672
555.27	0.672
555.47	0.673
555.66	0.674
555.86	0.672
556.06	0.675
556.25	0.676
556.45	0.683
556.65	0.682
556.84	0.685
557.04	0.688
557.24	0.688
557.43	0.689
557.63	0.692
557.83	0.694
558.02	0.695
558.22	0.699
558.42	0.700
558.61	0.693
558.81	0.693
559.01	0.690
559.21	0.690
559.40	0.691
559.60	0.691
559.80	0.688
559.99	0.689
560.19	0.691
560.39	0.684
560.58	0.683
560.78	0.683
560.97	0.686
561.17	0.684
561.37	0.682
561.56	0.682
561.76	0.683
561.96	0.683
562.15	0.680
562.35	0.682
562.55	0.683
562.74	0.683
562.94	0.682
563.14	0.680
563.33	0.681
563.53	0.681
563.73	0.679
563.92	0.680
564.12	0.682
564.31	0.684
564.51	0.682
564.71	0.684
564.90	0.687
565.10	0.688
565.30	0.691
565.49	0.692
565.69	0.695
565.89	0.694
566.08	0.692
566.28	0.694
566.47	0.695
566.67	0.694
566.87	0.692
567.06	0.694
567.26	0.700
567.46	0.696
567.65	0.695
567.85	0.697
568.04	0.700
568.24	0.700
568.44	0.697
568.63	0.696
568.83	0.697
569.02	0.695
569.22	0.691
569.42	0.687
569.61	0.689
569.81	0.688
570.00	0.686
570.20	0.687
570.40	0.687
570.59	0.687
570.79	0.685
570.98	0.684
571.18	0.684
571.38	0.684
571.57	0.681
571.77	0.680
571.96	0.683
572.16	0.680
572.35	0.675
572.55	0.676
572.75	0.674
572.94	0.673
573.14	0.672
573.33	0.672
573.53	0.672
573.73	0.672
573.92	0.670
574.12	0.668
574.31	0.670
574.51	0.671
574.70	0.669
574.90	0.671
575.09	0.673
575.29	0.673
575.49	0.671
575.68	0.672
575.88	0.673
576.07	0.674
576.27	0.672
576.46	0.671
576.66	0.670
576.86	0.669
577.05	0.667
577.25	0.665
577.44	0.666
577.64	0.666
577.83	0.664
578.03	0.666
578.22	0.665
578.42	0.664
578.61	0.663
578.81	0.663
579.00	0.663
579.20	0.663
579.40	0.662
579.59	0.661
579.79	0.662
579.98	0.661
580.18	0.660
580.37	0.660
580.57	0.662
580.76	0.666
580.96	0.664
581.15	0.665
581.35	0.667
581.54	0.667
581.74	0.666
581.93	0.668
582.13	0.669
582.32	0.666
582.52	0.664
582.71	0.663
582.91	0.659
583.10	0.658
583.30	0.657
583.49	0.656
583.69	0.660
583.88	0.661
584.08	0.660
584.27	0.663
584.47	0.666
584.66	0.667
584.86	0.666
585.05	0.669
585.25	0.672
585.44	0.672
585.64	0.671
585.83	0.667
586.03	0.666
586.22	0.665
586.42	0.661
586.61	0.662
586.81	0.663
587.00	0.663
587.20	0.661
587.39	0.661
587.59	0.662
587.78	0.663
587.98	0.664
588.17	0.665
588.37	0.667
588.56	0.670
588.76	0.666
588.95	0.666
589.15	0.670
589.34	0.673
589.54	0.671
589.73	0.673
589.92	0.676
590.12	0.677
590.31	0.675
590.51	0.680
590.70	0.681
590.90	0.682
591.09	0.681
591.29	0.679
591.48	0.679
591.68	0.680
591.87	0.678
592.06	0.677
592.26	0.679
592.45	0.678
592.65	0.672
592.84	0.672
593.04	0.674
593.23	0.676
593.43	0.674
593.62	0.673
593.81	0.673
594.01	0.672
594.20	0.670
594.40	0.669
594.59	0.670
594.79	0.671
594.98	0.670
595.17	0.669
595.37	0.669
595.56	0.672
595.76	0.672
595.95	0.674
596.14	0.677
596.34	0.678
596.53	0.678
596.73	0.680
596.92	0.681
597.12	0.684
597.31	0.685
597.50	0.684
597.70	0.686
597.89	0.685
598.09	0.682
598.28	0.683
598.47	0.685
598.67	0.683
598.86	0.680
599.06	0.681
599.25	0.681
599.44	0.678
599.64	0.675
599.83	0.672
600.03	0.675
600.22	0.675
600.41	0.675
600.61	0.673
600.80	0.674
601.00	0.675
601.19	0.670
601.38	0.669
601.58	0.672
601.77	0.673
601.96	0.676
602.16	0.676
602.35	0.684
602.55	0.682
602.74	0.682
602.93	0.684
603.13	0.689
603.32	0.691
603.51	0.692
603.71	0.695
603.90	0.696
604.09	0.697
604.29	0.695
604.48	0.690
604.68	0.691
604.87	0.690
605.06	0.687
605.26	0.683
605.45	0.683
605.64	0.682
605.84	0.676
606.03	0.675
606.22	0.674
606.42	0.673
606.61	0.670
606.80	0.669
607.00	0.670
607.19	0.670
607.38	0.669
607.58	0.671
607.77	0.673
607.96	0.673
608.16	0.672
608.35	0.676
608.54	0.678
608.74	0.681
608.93	0.687
609.12	0.689
609.32	0.692
609.51	0.696
609.70	0.695
609.90	0.697
610.09	0.701
610.28	0.706
610.48	0.701
610.67	0.703
610.86	0.704
611.06	0.699
611.25	0.696
611.44	0.697
611.64	0.696
611.83	0.699
612.02	0.697
612.21	0.695
612.41	0.694
612.60	0.693
612.79	0.689
612.99	0.689
613.18	0.691
613.37	0.689
613.57	0.687
613.76	0.688
613.95	0.685
614.14	0.684
614.34	0.682
614.53	0.682
614.72	0.683
614.92	0.683
615.11	0.681
615.30	0.677
615.49	0.678
615.69	0.680
615.88	0.676
616.07	0.677
616.26	0.678
616.46	0.679
616.65	0.676
616.84	0.675
617.04	0.676
617.23	0.679
617.42	0.681
617.61	0.684
617.81	0.685
618.00	0.687
618.19	0.686
618.38	0.691
618.58	0.694
618.77	0.696
618.96	0.696
619.15	0.697
619.35	0.699
619.54	0.700
619.73	0.696
619.92	0.698
620.12	0.702
620.31	0.703
620.50	0.698
620.69	0.699
620.89	0.701
621.08	0.701
621.27	0.702
621.46	0.700
621.66	0.703
621.85	0.703
622.04	0.700
622.23	0.701
622.43	0.702
622.62	0.702
622.81	0.701
623.00	0.701
623.19	0.704
623.39	0.703
623.58	0.701
623.77	0.700
623.96	0.703
624.16	0.703
624.35	0.697
624.54	0.699
624.73	0.702
624.92	0.700
625.12	0.698
625.31	0.698
625.50	0.700
625.69	0.700
625.88	0.697
626.08	0.696
626.27	0.696
626.46	0.697
626.65	0.694
626.84	0.694
627.04	0.698
627.23	0.698
627.42	0.695
627.61	0.696
627.80	0.698
628.00	0.698
628.19	0.697
628.38	0.701
628.57	0.704
628.76	0.701
628.96	0.697
629.15	0.698
629.34	0.700
629.53	0.701
629.72	0.696
629.91	0.698
630.11	0.701
630.30	0.702
630.49	0.705
630.68	0.704
630.87	0.710
631.06	0.713
631.26	0.709
631.45	0.710
631.64	0.717
631.83	0.719
632.02	0.717
632.21	0.717
632.41	0.722
632.60	0.717
632.79	0.717
632.98	0.717
633.17	0.717
633.36	0.719
633.55	0.717
633.75	0.712
633.94	0.713
634.13	0.713
634.32	0.710
634.51	0.705
634.70	0.706
634.89	0.706
635.09	0.703
635.28	0.704
635.47	0.703
635.66	0.705
635.85	0.702
636.04	0.703
636.23	0.706
636.43	0.708
636.62	0.707
636.81	0.706
637.00	0.707
637.19	0.710
637.38	0.707
637.57	0.707
637.76	0.708
637.95	0.709
638.15	0.707
638.34	0.705
638.53	0.707
638.72	0.708
638.91	0.706
639.10	0.704
639.29	0.704
639.48	0.706
639.67	0.706
639.87	0.706
640.06	0.711
640.25	0.710
640.44	0.711
640.63	0.711
640.82	0.714
641.01	0.714
641.20	0.714
641.39	0.717
641.58	0.717
641.78	0.715
641.97	0.712
642.16	0.725
642.35	0.726
642.54	0.724
642.73	0.719
642.92	0.718
643.11	0.721
643.30	0.721
643.49	0.716
643.68	0.719
643.87	0.720
644.06	0.721
644.25	0.701
644.45	0.704
644.64	0.704
644.83	0.705
645.02	0.703
645.21	0.702
645.40	0.702
645.59	0.702
645.78	0.696
645.97	0.699
646.16	0.700
646.35	0.700
646.54	0.698
646.73	0.699
646.92	0.701
647.11	0.700
647.30	0.696
647.49	0.697
647.68	0.697
647.88	0.696
648.07	0.689
648.26	0.692
648.45	0.693
648.64	0.690
648.83	0.687
649.02	0.689
649.21	0.698
649.40	0.698
649.59	0.693
649.78	0.694
649.97	0.707
650.16	0.707
650.35	0.702
650.54	0.704
650.73	0.712
650.92	0.709
651.11	0.703
651.30	0.701
651.49	0.705
651.68	0.706
651.87	0.704
652.06	0.695
652.25	0.698
652.44	0.702
652.63	0.703
652.82	0.706
653.01	0.707
653.20	0.707
653.39	0.695
653.58	0.693
653.77	0.691
653.96	0.687
654.15	0.679
654.34	0.678
654.53	0.672
654.72	0.664
654.91	0.654
655.10	0.648
655.29	0.646
655.48	0.644
655.67	0.638
655.86	0.636
656.05	0.634
656.24	0.633
656.43	0.627
656.62	0.626
656.81	0.625
657.00	0.621
657.19	0.617
657.38	0.615
657.57	0.613
657.76	0.615
657.95	0.612
658.14	0.614
658.33	0.616
658.51	0.620
658.70	0.620
658.89	0.622
659.08	0.632
659.27	0.640
659.46	0.643
659.65	0.650
659.84	0.654
660.03	0.658
660.22	0.659
660.41	0.663
660.60	0.663
660.79	0.664
660.98	0.670
661.17	0.669
661.36	0.668
661.55	0.669
661.74	0.667
661.92	0.670
662.11	0.672
662.30	0.670
662.49	0.664
662.68	0.664
662.87	0.666
663.06	0.660
663.25	0.662
663.44	0.662
663.63	0.663
663.82	0.662
664.01	0.657
664.20	0.656
664.38	0.658
664.57	0.658
664.76	0.658
664.95	0.659
665.14	0.662
665.33	0.658
665.52	0.666
665.71	0.670
665.90	0.669
666.09	0.670
666.28	0.668
666.46	0.666
666.65	0.667
666.84	0.665
667.03	0.659
667.22	0.658
667.41	0.660
667.60	0.650
667.79	0.643
667.98	0.645
668.16	0.646
668.35	0.645
668.54	0.642
668.73	0.643
668.92	0.643
669.11	0.643
669.30	0.639
669.49	0.635
669.67	0.637
669.86	0.639
670.05	0.636
670.24	0.634
670.43	0.632
670.62	0.631
670.81	0.627
671.00	0.627
671.18	0.626
671.37	0.625
671.56	0.623
671.75	0.622
671.94	0.618
672.13	0.616
672.32	0.612
672.50	0.611
672.69	0.610
672.88	0.611
673.07	0.607
673.26	0.609
673.45	0.610
673.63	0.610
673.82	0.607
674.01	0.609
674.20	0.609
674.39	0.608
674.58	0.608
674.76	0.609
674.95	0.608
675.14	0.607
675.33	0.603
675.52	0.602
675.71	0.602
675.89	0.601
676.08	0.598
676.27	0.598
676.46	0.598
676.65	0.598
676.84	0.597
677.02	0.599
677.21	0.601
677.40	0.600
677.59	0.598
677.78	0.599
677.96	0.601
678.15	0.600
678.34	0.599
678.53	0.599
678.72	0.599
678.90	0.595
679.09	0.591
679.28	0.588
679.47	0.587
679.66	0.586
679.84	0.584
680.03	0.581
680.22	0.579
680.41	0.581
680.60	0.577
680.78	0.576
680.97	0.578
681.16	0.578
681.35	0.576
681.53	0.576
681.72	0.577
681.91	0.579
682.10	0.578
682.29	0.580
682.47	0.578
682.66	0.576
682.85	0.575
683.04	0.574
683.22	0.574
683.41	0.575
683.60	0.574
683.79	0.575
683.97	0.573
684.16	0.572
684.35	0.568
684.54	0.570
684.72	0.571
684.91	0.571
685.10	0.569
685.29	0.571
685.47	0.568
685.66	0.567
685.85	0.565
686.04	0.563
686.22	0.566
686.41	0.568
686.60	0.566
686.79	0.568
686.97	0.569
687.16	0.570
687.35	0.568
687.54	0.571
687.72	0.574
687.91	0.574
688.10	0.576
688.29	0.575
688.47	0.572
688.66	0.572
688.85	0.568
689.03	0.566
689.22	0.571
689.41	0.571
689.60	0.567
689.78	0.565
689.97	0.566
690.16	0.564
690.34	0.560
690.53	0.561
690.72	0.561
690.91	0.560
691.09	0.558
691.28	0.552
691.47	0.549
691.65	0.548
691.84	0.545
692.03	0.544
692.21	0.542
692.40	0.541
692.59	0.539
692.77	0.537
692.96	0.537
693.15	0.538
693.34	0.535
693.52	0.536
693.71	0.536
693.90	0.538
694.08	0.538
694.27	0.540
694.46	0.548
694.64	0.549
694.83	0.549
695.02	0.549
695.20	0.549
695.39	0.549
695.58	0.549
695.76	0.549
695.95	0.548
696.14	0.547
696.32	0.545
696.51	0.535
696.70	0.535
696.88	0.536
697.07	0.535
697.26	0.536
697.44	0.537
697.63	0.537
697.81	0.534
698.00	0.534
698.19	0.533
698.37	0.533
698.56	0.533
698.75	0.533
698.93	0.532
699.12	0.532
699.31	0.531
699.49	0.530
699.68	0.531
699.87	0.533
700.05	0.534
700.24	0.533
700.42	0.534
700.61	0.534
700.80	0.533
700.98	0.533
701.17	0.534
701.36	0.533
701.54	0.533
701.73	0.534
701.91	0.531
702.10	0.530
702.29	0.529
702.47	0.528
702.66	0.529
702.84	0.530
703.03	0.528
703.22	0.529
703.40	0.529
703.59	0.531
703.77	0.531
703.96	0.530
704.15	0.531
704.33	0.531
704.52	0.531
704.70	0.530
704.89	0.530
705.08	0.529
705.26	0.525
705.45	0.525
705.63	0.524
705.82	0.521
706.00	0.521
706.19	0.521
706.38	0.520
706.56	0.520
706.75	0.517
706.93	0.516
707.12	0.517
707.30	0.517
707.49	0.515
707.68	0.513
707.86	0.512
708.05	0.512
708.23	0.509
708.42	0.510
708.60	0.512
708.79	0.512
708.98	0.511
709.16	0.510
709.35	0.511
709.53	0.515
709.72	0.514
709.90	0.516
710.09	0.517
710.27	0.519
710.46	0.522
710.64	0.521
710.83	0.523
711.02	0.524
711.20	0.524
711.39	0.523
711.57	0.520
711.76	0.521
711.94	0.519
712.13	0.520
712.31	0.520
712.50	0.515
712.68	0.513
712.87	0.514
713.05	0.514
713.24	0.514
713.42	0.514
713.61	0.514
713.79	0.515
713.98	0.515
714.16	0.516
714.35	0.516
714.54	0.517
714.72	0.517
714.91	0.516
715.09	0.521
715.28	0.524
715.46	0.524
715.65	0.522
715.83	0.521
716.02	0.523
716.20	0.520
716.39	0.519
716.57	0.520
716.76	0.522
716.94	0.523
717.12	0.516
717.31	0.518
717.49	0.520
717.68	0.523
717.86	0.524
718.05	0.525
718.23	0.528
718.42	0.529
718.60	0.530
718.79	0.537
718.97	0.539
719.16	0.538
719.34	0.535
719.53	0.534
719.71	0.533
719.90	0.534
720.08	0.531
720.27	0.532
720.45	0.532
720.63	0.531
720.82	0.525
721.00	0.528
721.19	0.531
721.37	0.531
721.56	0.532
721.74	0.534
721.93	0.543
722.11	0.549
722.30	0.548
722.48	0.553
722.66	0.554
722.85	0.554
723.03	0.554
723.22	0.552
723.40	0.555
723.59	0.555
723.77	0.560
723.95	0.554
724.14	0.555
724.32	0.558
724.51	0.557
724.69	0.558
724.88	0.557
725.06	0.557
725.24	0.559
725.43	0.561
725.61	0.563
725.80	0.556
725.98	0.555
726.16	0.552
726.35	0.557
726.53	0.556
726.72	0.555
726.90	0.565
727.09	0.565
727.27	0.569
727.45	0.567
727.64	0.576
727.82	0.583
728.01	0.588
728.19	0.586
728.37	0.591
728.56	0.595
728.74	0.600
728.92	0.590
729.11	0.593
729.29	0.590
729.48	0.592
729.66	0.583
729.84	0.583
730.03	0.584
730.21	0.587
730.40	0.578
730.58	0.579
730.76	0.579
730.95	0.580
731.13	0.581
731.31	0.594
731.50	0.601
731.68	0.604
731.86	0.601
732.05	0.614
732.23	0.615
732.42	0.618
732.60	0.620
732.78	0.625
732.97	0.642
733.15	0.648
733.33	0.640
733.52	0.648
733.70	0.656
733.88	0.667
734.07	0.656
734.25	0.680
734.43	0.687
734.62	0.691
734.80	0.687
734.98	0.680
735.17	0.683
735.35	0.690
735.53	0.679
735.72	0.682
735.90	0.699
736.08	0.714
736.27	0.694
736.45	0.702
736.63	0.711
736.82	0.720
737.00	0.718
737.18	0.729
737.37	0.753
737.55	0.774
737.73	0.770
737.92	0.775
738.10	0.769
738.28	0.787
738.46	0.779
738.65	0.792
738.83	0.811
739.01	0.862
739.20	0.854
739.38	0.839
739.56	0.828
739.75	0.831
739.93	0.802
740.11	0.825
740.29	0.820
740.48	0.826
740.66	0.809
740.84	0.803
741.03	0.767
741.21	0.774
741.39	0.758
741.57	0.769
741.76	0.778
741.94	0.784
742.12	0.755
742.31	0.762
742.49	0.775
742.67	0.796
742.85	0.810
743.04	0.814
743.22	0.822
743.40	0.872
743.58	0.860
743.77	0.876
743.95	0.900
744.13	0.947
744.31	0.933
744.50	0.931
744.68	0.925
744.86	0.902
745.04	0.915
745.23	0.973
745.41	0.951
745.59	0.954
745.77	0.928
745.96	0.919
746.14	0.921
746.32	0.918
746.50	0.910
746.69	0.900
746.87	0.907
747.05	0.895
747.23	0.830
747.42	0.817
747.60	0.837
747.78	0.842
747.96	0.874
748.14	0.837
748.33	0.863
748.51	0.859
748.69	0.854
748.87	0.876
749.06	0.869
749.24	0.871
749.42	0.859
749.60	0.845
749.78	0.850
749.97	0.807
750.15	0.801
750.33	0.801
750.51	0.824
750.69	0.830
750.88	0.836
751.06	0.841
751.24	0.859
751.42	0.852
751.60	0.845
751.79	0.911
751.97	0.949
752.15	0.949
752.33	0.923
752.51	0.974
752.69	0.981
752.88	0.955
753.06	1.004
753.24	0.986
753.42	1.016
753.60	1.165
753.78	1.038
753.97	1.056
754.15	1.069
754.33	1.097
754.51	0.994
754.69	0.976
754.87	0.998
755.06	0.937
755.24	0.937
755.42	0.944
755.60	0.851
755.78	0.861
755.96	0.816
756.15	0.817
756.33	0.815
756.51	0.833
756.69	0.826
756.87	0.794
757.05	0.805
757.23	0.793
757.42	0.763
757.60	0.762
757.78	0.748
757.96	0.744
758.14	0.730
758.32	0.718
758.50	0.727
758.69	0.722
758.87	0.719
759.05	0.721
759.23	0.727
759.41	0.729
759.59	0.726
759.77	0.745
759.95	0.769
760.13	0.813
760.32	0.815
760.50	0.811
760.68	0.833
760.86	0.835
761.04	0.814
761.22	0.818
761.40	0.858
761.58	0.857
761.76	0.836
761.95	0.818
762.13	0.778
762.31	0.778
762.49	0.753
762.67	0.771
762.85	0.779
763.03	0.773
763.21	0.756
763.39	0.740
763.57	0.743
763.75	0.740
763.94	0.730
764.12	0.729
764.30	0.747
764.48	0.751
764.66	0.718
764.84	0.717
765.02	0.751
765.20	0.759
765.38	0.744
765.56	0.746
765.74	0.777
765.92	0.777
766.10	0.784
766.28	0.779
766.46	0.798
766.65	0.799
766.83	0.788
767.01	0.775
767.19	0.778
767.37	0.774
767.55	0.765
767.73	0.747
767.91	0.749
768.09	0.740
768.27	0.730
768.45	0.722
768.63	0.727
768.81	0.732
768.99	0.708
769.17	0.727
769.35	0.741
769.53	0.743
769.71	0.728
769.89	0.735
770.07	0.737
770.25	0.722
770.43	0.707
770.61	0.726
770.79	0.729
770.97	0.740
771.15	0.718
771.33	0.719
771.51	0.717
771.69	0.728
771.87	0.735
772.05	0.737
772.24	0.742
772.42	0.750
772.60	0.732
772.78	0.783
772.96	0.802
773.14	0.798
773.32	0.780
773.49	0.788
773.67	0.784
773.85	0.767
774.03	0.763
774.21	0.792
774.39	0.796
774.57	0.813
774.75	0.751
774.93	0.749
775.11	0.768
775.29	0.777
775.47	0.777
775.65	0.784
775.83	0.795
776.01	0.813
776.19	0.773
776.37	0.774
776.55	0.774
776.73	0.773
776.91	0.771
777.09	0.752
777.27	0.744
777.45	0.734
777.63	0.717
777.81	0.718
777.99	0.706
778.17	0.707
778.35	0.689
778.53	0.677
778.71	0.682
778.89	0.670
779.07	0.665
779.24	0.669
779.42	0.670
779.60	0.687
779.78	0.683
779.96	0.686
780.14	0.690
780.32	0.709
780.50	0.698
780.68	0.697
780.86	0.689
781.04	0.703
781.22	0.710
781.40	0.719
781.58	0.708
781.75	0.701
781.93	0.689
782.11	0.687
782.29	0.672
782.47	0.671
782.65	0.662
782.83	0.685
783.01	0.675
783.19	0.668
783.37	0.656
783.55	0.658
783.72	0.673
783.90	0.682
784.08	0.679
784.26	0.689
784.44	0.706
784.62	0.710
784.80	0.684
784.98	0.693
785.16	0.698
785.33	0.713
785.51	0.703
785.69	0.690
785.87	0.688
786.05	0.701
786.23	0.701
786.41	0.696
786.59	0.702
786.77	0.703
786.94	0.691
787.12	0.692
787.30	0.691
787.48	0.689
787.66	0.680
787.84	0.682
788.02	0.669
788.19	0.666
788.37	0.657
788.55	0.657
788.73	0.655
788.91	0.652
789.09	0.639
789.27	0.628
789.44	0.636
789.62	0.641
789.80	0.647
789.98	0.670
790.16	0.658
790.34	0.653
790.51	0.642
790.69	0.659
790.87	0.663
791.05	0.660
791.23	0.660
791.41	0.661
791.58	0.667
791.76	0.647
791.94	0.623
792.12	0.630
792.30	0.631
792.48	0.628
792.65	0.623
792.83	0.628
793.01	0.633
793.19	0.628
793.37	0.616
793.54	0.612
793.72	0.624
793.90	0.622
794.08	0.612
794.26	0.613
794.43	0.620
794.61	0.606
794.79	0.596
794.97	0.596
795.15	0.599
795.32	0.605
795.50	0.595
795.68	0.588
795.86	0.589
796.04	0.591
796.21	0.588
796.39	0.587
796.57	0.597
796.75	0.605
796.92	0.607
797.10	0.609
797.28	0.607
797.46	0.612
797.64	0.615
797.81	0.623
797.99	0.627
798.17	0.630
798.35	0.625
798.52	0.629
798.70	0.622
798.88	0.628
799.06	0.632
799.23	0.636
799.41	0.641
799.59	0.635
799.77	0.627
799.94	0.631
800.12	0.639
800.30	0.656
800.48	0.656
800.65	0.657
800.83	0.647
801.01	0.638
801.19	0.640
801.36	0.637
801.54	0.639
801.72	0.647
801.90	0.638
802.07	0.632
802.25	0.618
802.43	0.603
802.60	0.600
802.78	0.607
802.96	0.612
803.14	0.606
803.31	0.605
803.49	0.604
803.67	0.600
803.84	0.605
804.02	0.596
804.20	0.599
804.38	0.603
804.55	0.605
804.73	0.595
804.91	0.595
805.08	0.605
805.26	0.602
805.44	0.663
805.61	0.666
805.79	0.663
805.97	0.664
806.15	0.657
806.32	0.653
806.50	0.656
806.68	0.655
806.85	0.648
807.03	0.639
807.21	0.653
807.38	0.591
807.56	0.583
807.74	0.592
807.91	0.598
808.09	0.600
808.27	0.619
808.44	0.644
808.62	0.650
808.80	0.651
808.97	0.648
809.15	0.644
809.33	0.658
809.50	0.665
809.68	0.655
809.86	0.661
810.03	0.687
810.21	0.669
810.39	0.653
810.56	0.660
810.74	0.681
810.91	0.746
811.09	0.737
811.27	0.756
811.44	0.757
811.62	0.757
811.80	0.744
811.97	0.718
812.15	0.718
812.33	0.711
812.50	0.699
812.68	0.687
812.85	0.635
813.03	0.637
813.21	0.609
813.38	0.606
813.56	0.608
813.74	0.618
813.91	0.625
814.09	0.649
814.26	0.643
814.44	0.646
814.62	0.639
814.79	0.642
814.97	0.644
815.14	0.646
815.32	0.648
815.50	0.661
815.67	0.659
815.85	0.652
816.02	0.643
816.20	0.651
816.38	0.665
816.55	0.671
816.73	0.672
816.90	0.682
817.08	0.707
817.26	0.716
817.43	0.699
817.61	0.729
817.78	0.743
817.96	0.726
818.13	0.717
818.31	0.715
818.49	0.724
818.66	0.718
818.84	0.707
819.01	0.689
819.19	0.691
819.36	0.694
819.54	0.664
819.71	0.703
819.89	0.712
820.07	0.723
820.24	0.720
820.42	0.718
820.59	0.732
820.77	0.752
820.94	0.746
821.12	0.762
821.29	0.773
821.47	0.776
821.64	0.722
821.82	0.732
822.00	0.729
822.17	0.726
822.35	0.721
822.52	0.720
822.70	0.709
822.87	0.719
823.05	0.704
823.22	0.718
823.40	0.739
823.57	0.757
823.75	0.745
823.92	0.767
824.10	0.781
824.27	0.817
824.45	0.812
824.62	0.863
824.80	0.876
824.97	0.883
825.15	0.869
825.32	0.879
825.50	0.881
825.67	0.895
825.85	0.878
826.02	0.894
826.20	0.909
826.37	1.011
826.55	0.949
826.72	1.092
826.90	1.141
827.07	1.184
827.25	1.144
827.42	1.254
827.60	1.327
827.77	1.415
827.95	1.406
828.12	1.453
828.30	1.248
828.47	1.323
828.65	1.098
828.82	1.139
829.00	1.162
829.17	1.229
829.34	1.229
829.52	1.242
829.69	-0.000
829.87	-0.000
830.04	-0.000
830.22	-0.000
830.39	-0.000
830.57	-0.000
830.74	-0.000
830.92	-0.000
831.09	-0.000
831.26	-0.000
831.44	-0.000
831.61	-0.000
831.79	-0.000
831.96	-0.000
832.14	-0.000
832.31	-0.000
832.49	-0.000
832.66	-0.000
832.83	-0.000
833.01	-0.000
833.18	-0.000
833.36	-0.000
833.53	-0.000
833.70	-0.000
833.88	-0.000
834.05	-0.000
834.23	-0.000
834.40	-0.000
834.58	-0.000
834.75	-0.000
834.92	-0.000
835.10	-0.000
835.27	-0.000
835.45	-0.000
835.62	-0.000
835.79	-0.000
835.97	-0.000
836.14	-0.000
836.32	-0.000
836.49	-0.000
836.66	-0.000
836.84	-0.000
837.01	-0.000
837.18	-0.000
837.36	-0.000
837.53	-0.000
837.71	-0.000
837.88	-0.000
838.05	-0.000
838.23	-0.000
838.40	-0.000
838.58	-0.000
838.75	-0.000
838.92	-0.000
839.10	-0.000
839.27	-0.000
839.44	-0.000
839.62	-0.000
839.79	-0.000
839.96	-0.000
840.14	-0.000
840.31	-0.000
840.48	-0.000
840.66	-0.000
840.83	-0.000
841.01	-0.000
841.18	-0.000
841.35	-0.000
841.53	-0.000
841.70	-0.000
841.87	-0.000
842.05	-0.000
842.22	-0.000
842.39	-0.000
842.57	-0.000
842.74	-0.000
842.91	-0.000
843.09	-0.000
843.26	-0.000
843.43	-0.000
843.60	-0.000
843.78	-0.000
843.95	-0.000
844.12	-0.000
844.30	-0.000
844.47	-0.000
844.64	-0.000
844.82	-0.000
844.99	-0.000
845.16	-0.000
845.34	-0.000
845.51	-0.000
845.68	-0.000
845.85	-0.000
846.03	-0.000
846.20	-0.000
846.37	-0.000
846.55	-0.000
846.72	-0.000
846.89	-0.000
847.06	-0.000
847.24	-0.000
847.41	-0.000
847.58	-0.000
847.76	-0.000
847.93	-0.000
848.10	-0.000
848.27	-0.000
848.45	-0.000
848.62	-0.000
848.79	-0.000
848.97	-0.000
849.14	-0.000
849.31	-0.000
849.48	-0.000
849.66	-0.000
849.83	-0.000
850.00	-0.000
850.17	-0.000
850.35	-0.000
850.52	-0.000
850.69	-0.000
850.86	-0.000
851.04	-0.000
851.21	-0.000
851.38	-0.000
851.55	-0.000
851.72	-0.000
851.90	-0.000
852.07	-0.000
852.24	-0.000
852.41	-0.000
852.59	-0.000
852.76	-0.000
852.93	-0.000
853.10	-0.000
853.28	-0.000
853.45	-0.000
853.62	-0.000
853.79	-0.000
853.96	-0.000
854.14	-0.000
854.31	-0.000
854.48	-0.000
854.65	-0.000
854.82	-0.000
855.00	-0.000
855.17	-0.000
855.34	-0.000
855.51	-0.000
855.68	-0.000
855.86	-0.000
856.03	-0.000
856.20	-0.000
856.37	-0.000
856.54	-0.000
856.72	-0.000
856.89	-0.000
857.06	-0.000
857.23	-0.000
857.40	-0.000
857.57	-0.000
857.75	-0.000
857.92	-0.000
858.09	-0.000
858.26	-0.000
858.43	-0.000
858.60	-0.000
858.78	-0.000
858.95	-0.000
859.12	-0.000
859.29	-0.000
859.46	-0.000
859.63	-0.000
859.81	-0.000
859.98	-0.000
860.15	-0.000
860.32	-0.000
860.49	-0.000
860.66	-0.000
860.83	-0.000
861.01	-0.000
861.18	-0.000
861.35	-0.000
861.52	-0.000
861.69	-0.000
861.86	-0.000
862.03	-0.000
862.21	-0.000
862.38	-0.000
862.55	-0.000
862.72	-0.000
862.89	-0.000
863.06	-0.000
863.23	-0.000
863.40	-0.000
863.58	-0.000
863.75	-0.000
863.92	-0.000
864.09	-0.000
864.26	-0.000
864.43	-0.000
864.60	-0.000
864.77	-0.000
864.94	-0.000
865.11	-0.000
865.29	-0.000
865.46	-0.000
865.63	-0.000
865.80	-0.000
865.97	-0.000
866.14	-0.000
866.31	-0.000
866.48	-0.000
866.65	-0.000
866.82	-0.000
866.99	-0.000
867.16	-0.000
867.34	-0.000
867.51	-0.000
867.68	-0.000
867.85	-0.000
868.02	-0.000
868.19	-0.000
868.36	-0.000
868.53	-0.000
868.70	-0.000
868.87	-0.000
869.04	-0.000
869.21	-0.000
869.38	-0.000
869.55	-0.000
869.72	-0.000
869.89	-0.000
870.06	-0.000
870.24	-0.000
870.41	-0.000
870.58	-0.000
870.75	-0.000
870.92	-0.000
871.09	-0.000
871.26	-0.000
871.43	-0.000
871.60	-0.000
871.77	-0.000
871.94	-0.000
872.11	-0.000
872.28	-0.000
872.45	-0.000
872.62	-0.000
872.79	-0.000
872.96	-0.000
873.13	-0.000
873.30	-0.000
873.47	-0.000
873.64	-0.000
873.81	-0.000
873.98	-0.000
874.15	-0.000
874.32	-0.000
874.49	-0.000
874.66	-0.000
874.83	-0.000
875.00	-0.000
875.17	-0.000
875.34	-0.000
875.51	-0.000
875.68	-0.000
875.85	-0.000
876.02	-0.000
876.19	-0.000
876.36	-0.000
876.53	-0.000
876.70	-0.000
876.87	-0.000
877.04	-0.000
877.21	-0.000
877.38	-0.000
877.55	-0.000
877.72	-0.000
877.89	-0.000
878.06	-0.000
878.23	-0.000
878.39	-0.000
878.56	-0.000
878.73	-0.000
878.90	-0.000
879.07	-0.000
879.24	-0.000
879.41	-0.000
879.58	-0.000
879.75	-0.000
879.92	-0.000
880.09	-0.000
880.26	-0.000
880.43	-0.000
880.60	-0.000
880.77	-0.000
880.94	-0.000
881.11	-0.000
881.27	-0.000
881.44	-0.000
881.61	-0.000
881.78	-0.000
881.95	-0.000
882.12	-0.000
882.29	-0.000
882.46	-0.000
882.63	-0.000
882.80	-0.000
882.97	-0.000
883.14	-0.000
883.30	-0.000
883.47	-0.000
883.64	-0.000
883.81	-0.000
883.98	-0.000
884.15	-0.000
884.32	-0.000
884.49	-0.000
884.66	-0.000
884.82	-0.000
884.99	-0.000
885.16	-0.000
885.33	-0.000
885.50	-0.000
885.67	-0.000
885.84	-0.000
886.01	-0.000
886.17	-0.000
886.34	-0.000
886.51	-0.000
886.68	-0.000
886.85	-0.000
887.02	-0.000
887.19	-0.000
887.36	-0.000
887.52	-0.000
887.69	-0.000
887.86	-0.000
888.03	-0.000
888.20	-0.000
888.37	-0.000
888.54	-0.000
888.70	-0.000
888.87	-0.000
889.04	-0.000
889.21	-0.000
889.38	-0.000
889.55	-0.000
889.71	-0.000
889.88	-0.000
890.05	-0.000
890.22	-0.000
890.39	-0.000
>>>>>End Processed Spectral Data<<<<<
