SpectraSuite Data File
++++++++++++++++++++++++++++++++++++
Date: Fri Jun 19 12:22:25 CEST 2015
User: introlabs
Dark Spectrum Present: Yes
Reference Spectrum Present: Yes
Number of Sampled Component Spectra: 1
Spectrometers: USB4H08886
Integration Time (usec): 745692 (USB4H08886)
Spectra Averaged: 5 (USB4H08886)
Boxcar Smoothing: 5 (USB4H08886)
Correct for Electrical Dark: Yes (USB4H08886)
Strobe/Lamp Enabled: No (USB4H08886)
Correct for Detector Non-linearity: Yes (USB4H08886)
Correct for Stray Light: Yes (USB4H08886)
Number of Pixels in Processed Spectrum: 3648
>>>>>Begin Processed Spectral Data<<<<<
178.14	-0.000
178.36	-0.000
178.57	-0.000
178.79	-0.000
179.01	-0.000
179.22	-0.000
179.44	-0.000
179.65	-0.000
179.87	-0.000
180.08	-0.000
180.30	-0.000
180.52	-0.000
180.73	-0.000
180.95	-0.000
181.16	-0.000
181.38	-0.000
181.59	-0.000
181.81	-0.000
182.03	-0.000
182.24	-0.000
182.46	-0.000
182.67	-0.000
182.89	-0.000
183.10	-0.000
183.32	-0.000
183.54	-0.000
183.75	-0.000
183.97	-0.000
184.18	-0.000
184.40	-0.000
184.61	-0.000
184.83	-0.000
185.04	-0.000
185.26	-0.000
185.48	-0.000
185.69	-0.000
185.91	-0.000
186.12	-0.000
186.34	-0.000
186.55	-0.000
186.77	-0.000
186.98	-0.000
187.20	-0.000
187.42	-0.000
187.63	-0.000
187.85	-0.000
188.06	-0.000
188.28	-0.000
188.49	-0.000
188.71	-0.000
188.92	-0.000
189.14	-0.000
189.36	-0.000
189.57	-0.000
189.79	-0.000
190.00	-0.000
190.22	-0.000
190.43	-0.000
190.65	-0.000
190.86	-0.000
191.08	-0.000
191.29	-0.000
191.51	-0.000
191.72	-0.000
191.94	-0.000
192.16	-0.000
192.37	-0.000
192.59	-0.000
192.80	-0.000
193.02	-0.000
193.23	-0.000
193.45	-0.000
193.66	-0.000
193.88	-0.000
194.09	-0.000
194.31	-0.000
194.52	-0.000
194.74	-0.000
194.95	-0.000
195.17	-0.000
195.38	-0.000
195.60	-0.000
195.81	-0.000
196.03	-0.000
196.25	-0.000
196.46	-0.000
196.68	-0.000
196.89	-0.000
197.11	-0.000
197.32	-0.000
197.54	-0.000
197.75	-0.000
197.97	-0.000
198.18	-0.000
198.40	-0.000
198.61	-0.000
198.83	-0.000
199.04	-0.000
199.26	-0.000
199.47	-0.000
199.69	-0.000
199.90	-0.000
200.12	-0.000
200.33	-0.000
200.55	-0.000
200.76	-0.000
200.98	-0.000
201.19	-0.000
201.41	-0.000
201.62	-0.000
201.84	-0.000
202.05	-0.000
202.27	-0.000
202.48	-0.000
202.70	-0.000
202.91	-0.000
203.13	-0.000
203.34	-0.000
203.56	-0.000
203.77	-0.000
203.99	-0.000
204.20	-0.000
204.42	-0.000
204.63	-0.000
204.85	-0.000
205.06	-0.000
205.28	-0.000
205.49	-0.000
205.71	-0.000
205.92	-0.000
206.14	-0.000
206.35	-0.000
206.56	-0.000
206.78	-0.000
206.99	-0.000
207.21	-0.000
207.42	-0.000
207.64	-0.000
207.85	-0.000
208.07	-0.000
208.28	-0.000
208.50	-0.000
208.71	-0.000
208.93	-0.000
209.14	-0.000
209.36	-0.000
209.57	-0.000
209.79	-0.000
210.00	-0.000
210.22	-0.000
210.43	-0.000
210.64	-0.000
210.86	-0.000
211.07	-0.000
211.29	-0.000
211.50	-0.000
211.72	-0.000
211.93	-0.000
212.15	-0.000
212.36	-0.000
212.58	-0.000
212.79	-0.000
213.01	-0.000
213.22	-0.000
213.43	-0.000
213.65	-0.000
213.86	-0.000
214.08	-0.000
214.29	-0.000
214.51	-0.000
214.72	-0.000
214.94	-0.000
215.15	-0.000
215.36	-0.000
215.58	-0.000
215.79	-0.000
216.01	-0.000
216.22	-0.000
216.44	-0.000
216.65	-0.000
216.87	-0.000
217.08	-0.000
217.29	-0.000
217.51	-0.000
217.72	-0.000
217.94	-0.000
218.15	-0.000
218.37	-0.000
218.58	-0.000
218.80	-0.000
219.01	-0.000
219.22	-0.000
219.44	-0.000
219.65	-0.000
219.87	-0.000
220.08	-0.000
220.30	-0.000
220.51	-0.000
220.72	-0.000
220.94	-0.000
221.15	-0.000
221.37	-0.000
221.58	-0.000
221.79	-0.000
222.01	-0.000
222.22	-0.000
222.44	-0.000
222.65	-0.000
222.87	-0.000
223.08	-0.000
223.29	-0.000
223.51	-0.000
223.72	-0.000
223.94	-0.000
224.15	-0.000
224.36	-0.000
224.58	-0.000
224.79	-0.000
225.01	-0.000
225.22	-0.000
225.44	-0.000
225.65	-0.000
225.86	-0.000
226.08	-0.000
226.29	-0.000
226.51	-0.000
226.72	-0.000
226.93	-0.000
227.15	-0.000
227.36	-0.000
227.58	-0.000
227.79	-0.000
228.00	-0.000
228.22	-0.000
228.43	-0.000
228.65	-0.000
228.86	-0.000
229.07	-0.000
229.29	-0.000
229.50	-0.000
229.72	-0.000
229.93	-0.000
230.14	-0.000
230.36	-0.000
230.57	-0.000
230.78	-0.000
231.00	-0.000
231.21	-0.000
231.43	-0.000
231.64	-0.000
231.85	-0.000
232.07	-0.000
232.28	-0.000
232.50	-0.000
232.71	-0.000
232.92	-0.000
233.14	-0.000
233.35	-0.000
233.56	-0.000
233.78	-0.000
233.99	-0.000
234.21	-0.000
234.42	-0.000
234.63	-0.000
234.85	-0.000
235.06	-0.000
235.27	-0.000
235.49	-0.000
235.70	-0.000
235.91	-0.000
236.13	-0.000
236.34	-0.000
236.56	-0.000
236.77	-0.000
236.98	-0.000
237.20	-0.000
237.41	-0.000
237.62	-0.000
237.84	-0.000
238.05	-0.000
238.26	-0.000
238.48	-0.000
238.69	-0.000
238.91	-0.000
239.12	-0.000
239.33	-0.000
239.55	-0.000
239.76	-0.000
239.97	-0.000
240.19	-0.000
240.40	-0.000
240.61	-0.000
240.83	-0.000
241.04	-0.000
241.25	-0.000
241.47	-0.000
241.68	-0.000
241.89	-0.000
242.11	-0.000
242.32	-0.000
242.53	-0.000
242.75	-0.000
242.96	-0.000
243.17	-0.000
243.39	-0.000
243.60	-0.000
243.81	-0.000
244.03	-0.000
244.24	-0.000
244.45	-0.000
244.67	-0.000
244.88	-0.000
245.09	-0.000
245.31	-0.000
245.52	-0.000
245.73	-0.000
245.95	-0.000
246.16	-0.000
246.37	-0.000
246.59	-0.000
246.80	-0.000
247.01	-0.000
247.23	-0.000
247.44	-0.000
247.65	-0.000
247.87	-0.000
248.08	-0.000
248.29	-0.000
248.51	-0.000
248.72	-0.000
248.93	-0.000
249.15	-0.000
249.36	-0.000
249.57	-0.000
249.78	-0.000
250.00	-0.000
250.21	-0.000
250.42	-0.000
250.64	-0.000
250.85	-0.000
251.06	-0.000
251.28	-0.000
251.49	-0.000
251.70	-0.000
251.92	-0.000
252.13	-0.000
252.34	-0.000
252.55	-0.000
252.77	-0.000
252.98	-0.000
253.19	-0.000
253.41	-0.000
253.62	-0.000
253.83	-0.000
254.05	-0.000
254.26	-0.000
254.47	-0.000
254.68	-0.000
254.90	-0.000
255.11	-0.000
255.32	-0.000
255.54	-0.000
255.75	-0.000
255.96	-0.000
256.17	-0.000
256.39	-0.000
256.60	-0.000
256.81	-0.000
257.03	-0.000
257.24	-0.000
257.45	-0.000
257.66	-0.000
257.88	-0.000
258.09	-0.000
258.30	-0.000
258.51	-0.000
258.73	-0.000
258.94	-0.000
259.15	-0.000
259.37	-0.000
259.58	-0.000
259.79	-0.000
260.00	-0.000
260.22	-0.000
260.43	-0.000
260.64	-0.000
260.85	-0.000
261.07	-0.000
261.28	-0.000
261.49	-0.000
261.71	-0.000
261.92	-0.000
262.13	-0.000
262.34	-0.000
262.56	-0.000
262.77	-0.000
262.98	-0.000
263.19	-0.000
263.41	-0.000
263.62	-0.000
263.83	-0.000
264.04	-0.000
264.26	-0.000
264.47	-0.000
264.68	-0.000
264.89	-0.000
265.11	-0.000
265.32	-0.000
265.53	-0.000
265.74	-0.000
265.96	-0.000
266.17	-0.000
266.38	-0.000
266.59	-0.000
266.81	-0.000
267.02	-0.000
267.23	-0.000
267.44	-0.000
267.65	-0.000
267.87	-0.000
268.08	-0.000
268.29	-0.000
268.50	-0.000
268.72	-0.000
268.93	-0.000
269.14	-0.000
269.35	-0.000
269.57	-0.000
269.78	-0.000
269.99	-0.000
270.20	-0.000
270.41	-0.000
270.63	-0.000
270.84	-0.000
271.05	-0.000
271.26	-0.000
271.48	-0.000
271.69	-0.000
271.90	-0.000
272.11	-0.000
272.32	-0.000
272.54	-0.000
272.75	-0.000
272.96	-0.000
273.17	-0.000
273.39	-0.000
273.60	-0.000
273.81	-0.000
274.02	-0.000
274.23	-0.000
274.45	-0.000
274.66	-0.000
274.87	-0.000
275.08	-0.000
275.29	-0.000
275.51	-0.000
275.72	-0.000
275.93	-0.000
276.14	-0.000
276.35	-0.000
276.57	-0.000
276.78	-0.000
276.99	-0.000
277.20	-0.000
277.41	-0.000
277.63	-0.000
277.84	-0.000
278.05	-0.000
278.26	-0.000
278.47	-0.000
278.69	-0.000
278.90	-0.000
279.11	-0.000
279.32	-0.000
279.53	-0.000
279.74	-0.000
279.96	-0.000
280.17	-0.000
280.38	-0.000
280.59	-0.000
280.80	-0.000
281.02	-0.000
281.23	-0.000
281.44	-0.000
281.65	-0.000
281.86	-0.000
282.07	-0.000
282.29	-0.000
282.50	-0.000
282.71	-0.000
282.92	-0.000
283.13	-0.000
283.35	-0.000
283.56	-0.000
283.77	-0.000
283.98	-0.000
284.19	-0.000
284.40	-0.000
284.62	-0.000
284.83	-0.000
285.04	-0.000
285.25	-0.000
285.46	-0.000
285.67	-0.000
285.88	-0.000
286.10	-0.000
286.31	-0.000
286.52	-0.000
286.73	-0.000
286.94	-0.000
287.15	-0.000
287.37	-0.000
287.58	-0.000
287.79	-0.000
288.00	-0.000
288.21	-0.000
288.42	-0.000
288.63	-0.000
288.85	-0.000
289.06	-0.000
289.27	-0.000
289.48	-0.000
289.69	-0.000
289.90	-0.000
290.11	-0.000
290.33	-0.000
290.54	-0.000
290.75	-0.000
290.96	-0.000
291.17	-0.000
291.38	-0.000
291.59	-0.000
291.81	2.246
292.02	2.183
292.23	2.098
292.44	1.745
292.65	1.627
292.86	1.759
293.07	1.725
293.28	1.544
293.50	1.601
293.71	1.700
293.92	1.646
294.13	1.708
294.34	1.704
294.55	1.789
294.76	1.756
294.97	1.607
295.19	1.670
295.40	1.864
295.61	1.815
295.82	1.567
296.03	1.499
296.24	1.540
296.45	1.390
296.66	1.286
296.87	1.290
297.09	1.326
297.30	1.380
297.51	1.264
297.72	1.247
297.93	1.285
298.14	1.269
298.35	1.247
298.56	1.233
298.77	1.284
298.99	1.272
299.20	1.250
299.41	1.242
299.62	1.231
299.83	1.227
300.04	1.193
300.25	1.190
300.46	1.215
300.67	1.205
300.88	1.175
301.10	1.178
301.31	1.221
301.52	1.194
301.73	1.161
301.94	1.163
302.15	1.175
302.36	1.153
302.57	1.116
302.78	1.124
302.99	1.145
303.20	1.155
303.41	1.103
303.63	1.089
303.84	1.097
304.05	1.096
304.26	1.057
304.47	1.062
304.68	1.070
304.89	1.064
305.10	1.033
305.31	1.026
305.52	1.052
305.73	1.046
305.94	1.021
306.15	1.018
306.37	1.034
306.58	1.040
306.79	1.016
307.00	1.027
307.21	1.053
307.42	1.050
307.63	1.027
307.84	1.007
308.05	1.034
308.26	1.035
308.47	1.016
308.68	1.014
308.89	1.017
309.10	1.015
309.31	0.988
309.52	0.982
309.73	0.994
309.95	0.989
310.16	0.972
310.37	0.964
310.58	0.976
310.79	0.975
311.00	0.970
311.21	0.970
311.42	0.972
311.63	0.969
311.84	0.954
312.05	0.952
312.26	0.970
312.47	0.975
312.68	0.958
312.89	0.949
313.10	0.955
313.31	0.938
313.52	0.935
313.73	0.938
313.94	0.944
314.15	0.931
314.36	0.914
314.57	0.909
314.78	0.903
314.99	0.899
315.21	0.889
315.42	0.891
315.63	0.901
315.84	0.886
316.05	0.874
316.26	0.879
316.47	0.893
316.68	0.891
316.89	0.875
317.10	0.888
317.31	0.896
317.52	0.895
317.73	0.879
317.94	0.880
318.15	0.913
318.36	0.913
318.57	0.897
318.78	0.890
318.99	0.916
319.20	0.914
319.41	0.891
319.62	0.890
319.83	0.900
320.04	0.898
320.25	0.885
320.46	0.861
320.67	0.865
320.88	0.863
321.09	0.852
321.30	0.841
321.51	0.854
321.72	0.852
321.93	0.838
322.14	0.834
322.35	0.855
322.56	0.856
322.77	0.845
322.98	0.853
323.19	0.861
323.40	0.864
323.61	0.848
323.82	0.843
324.03	0.850
324.24	0.848
324.45	0.837
324.66	0.823
324.87	0.823
325.08	0.823
325.29	0.806
325.50	0.805
325.71	0.811
325.92	0.817
326.13	0.805
326.34	0.804
326.55	0.811
326.76	0.810
326.97	0.800
327.18	0.796
327.39	0.815
327.60	0.817
327.80	0.811
328.01	0.809
328.22	0.810
328.43	0.812
328.64	0.802
328.85	0.806
329.06	0.809
329.27	0.810
329.48	0.805
329.69	0.791
329.90	0.800
330.11	0.794
330.32	0.789
330.53	0.785
330.74	0.787
330.95	0.786
331.16	0.775
331.37	0.780
331.58	0.782
331.79	0.782
332.00	0.774
332.21	0.769
332.42	0.775
332.63	0.768
332.83	0.763
333.04	0.763
333.25	0.774
333.46	0.773
333.67	0.763
333.88	0.764
334.09	0.773
334.30	0.771
334.51	0.763
334.72	0.759
334.93	0.763
335.14	0.763
335.35	0.757
335.56	0.753
335.77	0.760
335.98	0.758
336.18	0.752
336.39	0.746
336.60	0.750
336.81	0.749
337.02	0.748
337.23	0.751
337.44	0.755
337.65	0.755
337.86	0.747
338.07	0.743
338.28	0.748
338.49	0.746
338.70	0.739
338.91	0.744
339.11	0.750
339.32	0.747
339.53	0.737
339.74	0.735
339.95	0.736
340.16	0.734
340.37	0.727
340.58	0.726
340.79	0.730
341.00	0.729
341.21	0.721
341.41	0.722
341.62	0.724
341.83	0.725
342.04	0.719
342.25	0.726
342.46	0.731
342.67	0.730
342.88	0.723
343.09	0.723
343.30	0.730
343.50	0.731
343.71	0.722
343.92	0.721
344.13	0.727
344.34	0.728
344.55	0.714
344.76	0.712
344.97	0.719
345.18	0.718
345.38	0.715
345.59	0.711
345.80	0.712
346.01	0.710
346.22	0.705
346.43	0.699
346.64	0.706
346.85	0.706
347.06	0.700
347.26	0.699
347.47	0.704
347.68	0.700
347.89	0.697
348.10	0.693
348.31	0.700
348.52	0.701
348.73	0.698
348.93	0.695
349.14	0.698
349.35	0.698
349.56	0.692
349.77	0.689
349.98	0.695
350.19	0.692
350.39	0.687
350.60	0.683
350.81	0.697
351.02	0.697
351.23	0.694
351.44	0.697
351.65	0.701
351.86	0.698
352.06	0.696
352.27	0.697
352.48	0.699
352.69	0.699
352.90	0.695
353.11	0.684
353.31	0.690
353.52	0.686
353.73	0.679
353.94	0.679
354.15	0.686
354.36	0.685
354.57	0.677
354.77	0.679
354.98	0.680
355.19	0.679
355.40	0.679
355.61	0.683
355.82	0.689
356.02	0.688
356.23	0.682
356.44	0.684
356.65	0.687
356.86	0.688
357.07	0.682
357.27	0.686
357.48	0.689
357.69	0.685
357.90	0.672
358.11	0.669
358.32	0.674
358.52	0.676
358.73	0.667
358.94	0.670
359.15	0.675
359.36	0.676
359.56	0.670
359.77	0.668
359.98	0.674
360.19	0.674
360.40	0.670
360.61	0.670
360.81	0.670
361.02	0.671
361.23	0.663
361.44	0.661
361.65	0.662
361.85	0.662
362.06	0.660
362.27	0.662
362.48	0.663
362.69	0.665
362.89	0.659
363.10	0.660
363.31	0.665
363.52	0.668
363.73	0.663
363.93	0.665
364.14	0.667
364.35	0.669
364.56	0.659
364.77	0.662
364.97	0.665
365.18	0.666
365.39	0.660
365.60	0.658
365.81	0.659
366.01	0.659
366.22	0.655
366.43	0.655
366.64	0.658
366.84	0.664
367.05	0.660
367.26	0.660
367.47	0.662
367.68	0.663
367.88	0.659
368.09	0.659
368.30	0.662
368.51	0.662
368.71	0.660
368.92	0.665
369.13	0.663
369.34	0.664
369.55	0.662
369.75	0.663
369.96	0.669
370.17	0.669
370.38	0.665
370.58	0.665
370.79	0.670
371.00	0.669
371.21	0.660
371.41	0.664
371.62	0.668
371.83	0.664
372.04	0.662
372.24	0.655
372.45	0.657
372.66	0.658
372.87	0.653
373.07	0.651
373.28	0.653
373.49	0.656
373.70	0.648
373.90	0.647
374.11	0.655
374.32	0.654
374.53	0.654
374.73	0.654
374.94	0.657
375.15	0.657
375.36	0.654
375.56	0.662
375.77	0.662
375.98	0.663
376.19	0.659
376.39	0.653
376.60	0.657
376.81	0.656
377.02	0.653
377.22	0.652
377.43	0.652
377.64	0.651
377.84	0.643
378.05	0.647
378.26	0.653
378.47	0.653
378.67	0.650
378.88	0.648
379.09	0.650
379.30	0.650
379.50	0.648
379.71	0.650
379.92	0.654
380.12	0.652
380.33	0.644
380.54	0.641
380.75	0.648
380.95	0.648
381.16	0.645
381.37	0.646
381.57	0.648
381.78	0.649
381.99	0.648
382.20	0.647
382.40	0.651
382.61	0.652
382.82	0.648
383.02	0.641
383.23	0.644
383.44	0.645
383.64	0.642
383.85	0.644
384.06	0.646
384.27	0.645
384.47	0.641
384.68	0.641
384.89	0.647
385.09	0.646
385.30	0.646
385.51	0.645
385.71	0.649
385.92	0.649
386.13	0.647
386.33	0.649
386.54	0.650
386.75	0.650
386.95	0.646
387.16	0.642
387.37	0.645
387.58	0.644
387.78	0.641
387.99	0.638
388.20	0.641
388.40	0.639
388.61	0.634
388.82	0.636
389.02	0.638
389.23	0.638
389.44	0.635
389.64	0.636
389.85	0.646
390.06	0.646
390.26	0.645
390.47	0.644
390.68	0.646
390.88	0.645
391.09	0.641
391.30	0.640
391.50	0.640
391.71	0.641
391.92	0.638
392.12	0.631
392.33	0.633
392.53	0.632
392.74	0.632
392.95	0.631
393.15	0.634
393.36	0.636
393.57	0.634
393.77	0.636
393.98	0.638
394.19	0.638
394.39	0.636
394.60	0.637
394.81	0.639
395.01	0.638
395.22	0.635
395.43	0.636
395.63	0.640
395.84	0.641
396.04	0.636
396.25	0.637
396.46	0.639
396.66	0.637
396.87	0.634
397.08	0.631
397.28	0.633
397.49	0.634
397.69	0.630
397.90	0.626
398.11	0.628
398.31	0.629
398.52	0.625
398.73	0.626
398.93	0.625
399.14	0.624
399.34	0.623
399.55	0.624
399.76	0.624
399.96	0.625
400.17	0.622
400.37	0.621
400.58	0.626
400.79	0.628
400.99	0.625
401.20	0.630
401.41	0.633
401.61	0.634
401.82	0.638
402.02	0.637
402.23	0.639
402.44	0.638
402.64	0.637
402.85	0.633
403.05	0.632
403.26	0.631
403.47	0.625
403.67	0.623
403.88	0.624
404.08	0.619
404.29	0.617
404.50	0.617
404.70	0.618
404.91	0.617
405.11	0.614
405.32	0.615
405.52	0.615
405.73	0.615
405.94	0.613
406.14	0.615
406.35	0.616
406.55	0.616
406.76	0.614
406.97	0.614
407.17	0.616
407.38	0.616
407.58	0.613
407.79	0.616
407.99	0.618
408.20	0.619
408.41	0.615
408.61	0.613
408.82	0.615
409.02	0.615
409.23	0.612
409.43	0.611
409.64	0.613
409.84	0.613
410.05	0.609
410.26	0.608
410.46	0.608
410.67	0.607
410.87	0.608
411.08	0.609
411.28	0.610
411.49	0.612
411.69	0.609
411.90	0.611
412.11	0.613
412.31	0.614
412.52	0.612
412.72	0.613
412.93	0.615
413.13	0.613
413.34	0.609
413.54	0.611
413.75	0.612
413.95	0.612
414.16	0.609
414.37	0.611
414.57	0.612
414.78	0.614
414.98	0.611
415.19	0.613
415.39	0.611
415.60	0.614
415.80	0.613
416.01	0.612
416.21	0.614
416.42	0.615
416.62	0.609
416.83	0.610
417.03	0.610
417.24	0.610
417.44	0.608
417.65	0.607
417.86	0.607
418.06	0.605
418.27	0.603
418.47	0.605
418.68	0.605
418.88	0.606
419.09	0.603
419.29	0.604
419.50	0.605
419.70	0.605
419.91	0.603
420.11	0.602
420.32	0.604
420.52	0.604
420.73	0.602
420.93	0.603
421.14	0.605
421.34	0.604
421.55	0.601
421.75	0.601
421.96	0.603
422.16	0.604
422.37	0.603
422.57	0.601
422.78	0.603
422.98	0.601
423.19	0.598
423.39	0.597
423.60	0.601
423.80	0.602
424.01	0.600
424.21	0.602
424.42	0.603
424.62	0.603
424.83	0.602
425.03	0.603
425.23	0.605
425.44	0.605
425.64	0.606
425.85	0.605
426.05	0.606
426.26	0.606
426.46	0.603
426.67	0.603
426.87	0.607
427.08	0.608
427.28	0.605
427.49	0.606
427.69	0.607
427.90	0.606
428.10	0.603
428.31	0.603
428.51	0.604
428.71	0.604
428.92	0.604
429.12	0.601
429.33	0.603
429.53	0.606
429.74	0.609
429.94	0.610
430.15	0.610
430.35	0.610
430.56	0.608
430.76	0.607
430.96	0.609
431.17	0.607
431.37	0.605
431.58	0.603
431.78	0.601
431.99	0.595
432.19	0.597
432.40	0.599
432.60	0.600
432.80	0.602
433.01	0.600
433.21	0.600
433.42	0.602
433.62	0.602
433.83	0.601
434.03	0.603
434.23	0.607
434.44	0.606
434.64	0.603
434.85	0.608
435.05	0.609
435.26	0.609
435.46	0.607
435.66	0.607
435.87	0.607
436.07	0.607
436.28	0.603
436.48	0.600
436.69	0.600
436.89	0.600
437.09	0.594
437.30	0.593
437.50	0.594
437.71	0.605
437.91	0.604
438.11	0.606
438.32	0.611
438.52	0.611
438.73	0.610
438.93	0.609
439.13	0.609
439.34	0.612
439.54	0.611
439.75	0.611
439.95	0.602
440.15	0.606
440.36	0.604
440.56	0.602
440.77	0.603
440.97	0.603
441.17	0.602
441.38	0.603
441.58	0.602
441.79	0.601
441.99	0.599
442.19	0.599
442.40	0.597
442.60	0.597
442.81	0.595
443.01	0.595
443.21	0.597
443.42	0.596
443.62	0.595
443.82	0.595
444.03	0.597
444.23	0.598
444.44	0.597
444.64	0.597
444.84	0.598
445.05	0.598
445.25	0.596
445.45	0.596
445.66	0.599
445.86	0.598
446.06	0.599
446.27	0.599
446.47	0.602
446.68	0.601
446.88	0.599
447.08	0.599
447.29	0.602
447.49	0.602
447.69	0.601
447.90	0.599
448.10	0.603
448.30	0.601
448.51	0.601
448.71	0.600
448.91	0.602
449.12	0.601
449.32	0.602
449.52	0.601
449.73	0.605
449.93	0.604
450.14	0.604
450.34	0.604
450.54	0.607
450.75	0.604
450.95	0.603
451.15	0.603
451.36	0.605
451.56	0.603
451.76	0.602
451.97	0.599
452.17	0.601
452.37	0.599
452.58	0.595
452.78	0.595
452.98	0.598
453.19	0.598
453.39	0.598
453.59	0.597
453.79	0.598
454.00	0.598
454.20	0.597
454.40	0.596
454.61	0.599
454.81	0.600
455.01	0.598
455.22	0.598
455.42	0.600
455.62	0.598
455.83	0.598
456.03	0.601
456.23	0.602
456.44	0.603
456.64	0.602
456.84	0.602
457.04	0.603
457.25	0.603
457.45	0.600
457.65	0.598
457.86	0.600
458.06	0.599
458.26	0.594
458.47	0.594
458.67	0.596
458.87	0.597
459.07	0.595
459.28	0.597
459.48	0.599
459.68	0.600
459.89	0.599
460.09	0.598
460.29	0.600
460.49	0.601
460.70	0.599
460.90	0.599
461.10	0.599
461.31	0.599
461.51	0.595
461.71	0.597
461.91	0.598
462.12	0.598
462.32	0.596
462.52	0.597
462.72	0.600
462.93	0.601
463.13	0.599
463.33	0.600
463.53	0.602
463.74	0.602
463.94	0.598
464.14	0.598
464.35	0.600
464.55	0.600
464.75	0.598
464.95	0.595
465.16	0.598
465.36	0.597
465.56	0.596
465.76	0.595
465.97	0.597
466.17	0.598
466.37	0.596
466.57	0.597
466.78	0.598
466.98	0.598
467.18	0.596
467.38	0.594
467.59	0.596
467.79	0.598
467.99	0.596
468.19	0.597
468.39	0.600
468.60	0.600
468.80	0.598
469.00	0.599
469.20	0.601
469.41	0.601
469.61	0.600
469.81	0.601
470.01	0.600
470.22	0.601
470.42	0.599
470.62	0.597
470.82	0.598
471.02	0.598
471.23	0.595
471.43	0.595
471.63	0.598
471.83	0.597
472.04	0.595
472.24	0.595
472.44	0.599
472.64	0.600
472.84	0.597
473.05	0.597
473.25	0.601
473.45	0.601
473.65	0.599
473.85	0.600
474.06	0.602
474.26	0.602
474.46	0.602
474.66	0.599
474.86	0.600
475.07	0.600
475.27	0.598
475.47	0.595
475.67	0.596
475.87	0.598
476.08	0.594
476.28	0.595
476.48	0.596
476.68	0.595
476.88	0.593
477.09	0.594
477.29	0.596
477.49	0.597
477.69	0.596
477.89	0.597
478.09	0.596
478.30	0.598
478.50	0.595
478.70	0.595
478.90	0.595
479.10	0.598
479.31	0.599
479.51	0.597
479.71	0.598
479.91	0.598
480.11	0.596
480.31	0.597
480.52	0.597
480.72	0.596
480.92	0.595
481.12	0.594
481.32	0.592
481.52	0.590
481.72	0.590
481.93	0.592
482.13	0.593
482.33	0.593
482.53	0.590
482.73	0.591
482.93	0.593
483.14	0.592
483.34	0.591
483.54	0.591
483.74	0.591
483.94	0.591
484.14	0.587
484.34	0.587
484.55	0.588
484.75	0.588
484.95	0.586
485.15	0.586
485.35	0.587
485.55	0.587
485.75	0.585
485.96	0.586
486.16	0.588
486.36	0.588
486.56	0.586
486.76	0.587
486.96	0.588
487.16	0.587
487.36	0.585
487.57	0.585
487.77	0.586
487.97	0.587
488.17	0.585
488.37	0.584
488.57	0.585
488.77	0.585
488.97	0.583
489.18	0.582
489.38	0.585
489.58	0.585
489.78	0.584
489.98	0.584
490.18	0.584
490.38	0.585
490.58	0.583
490.78	0.584
490.98	0.585
491.19	0.586
491.39	0.585
491.59	0.584
491.79	0.587
491.99	0.587
492.19	0.586
492.39	0.589
492.59	0.589
492.79	0.591
492.99	0.591
493.20	0.591
493.40	0.592
493.60	0.593
493.80	0.591
494.00	0.589
494.20	0.590
494.40	0.590
494.60	0.587
494.80	0.591
495.00	0.591
495.20	0.589
495.40	0.587
495.61	0.589
495.81	0.589
496.01	0.593
496.21	0.593
496.41	0.592
496.61	0.593
496.81	0.592
497.01	0.587
497.21	0.587
497.41	0.588
497.61	0.588
497.81	0.585
498.01	0.586
498.21	0.584
498.41	0.583
498.61	0.582
498.82	0.584
499.02	0.587
499.22	0.588
499.42	0.587
499.62	0.588
499.82	0.589
500.02	0.590
500.22	0.589
500.42	0.591
500.62	0.591
500.82	0.592
501.02	0.590
501.22	0.589
501.42	0.589
501.62	0.591
501.82	0.591
502.02	0.591
502.22	0.591
502.42	0.593
502.62	0.590
502.82	0.590
503.02	0.591
503.22	0.591
503.42	0.589
503.63	0.589
503.83	0.588
504.03	0.586
504.23	0.585
504.43	0.586
504.63	0.587
504.83	0.587
505.03	0.586
505.23	0.587
505.43	0.589
505.63	0.589
505.83	0.589
506.03	0.590
506.23	0.593
506.43	0.593
506.63	0.591
506.83	0.590
507.03	0.592
507.23	0.593
507.43	0.590
507.63	0.591
507.83	0.592
508.03	0.592
508.23	0.591
508.43	0.590
508.63	0.592
508.83	0.592
509.03	0.593
509.23	0.592
509.43	0.593
509.63	0.593
509.83	0.592
510.03	0.594
510.23	0.596
510.43	0.597
510.63	0.597
510.83	0.597
511.03	0.598
511.23	0.596
511.43	0.595
511.63	0.597
511.83	0.600
512.03	0.599
512.22	0.596
512.42	0.595
512.62	0.597
512.82	0.596
513.02	0.595
513.22	0.595
513.42	0.597
513.62	0.600
513.82	0.597
514.02	0.596
514.22	0.598
514.42	0.598
514.62	0.598
514.82	0.598
515.02	0.601
515.22	0.604
515.42	0.602
515.62	0.605
515.82	0.604
516.02	0.605
516.22	0.605
516.42	0.606
516.62	0.608
516.82	0.609
517.01	0.607
517.21	0.606
517.41	0.609
517.61	0.609
517.81	0.605
518.01	0.605
518.21	0.605
518.41	0.604
518.61	0.602
518.81	0.603
519.01	0.604
519.21	0.604
519.41	0.603
519.61	0.598
519.81	0.602
520.00	0.602
520.20	0.602
520.40	0.605
520.60	0.607
520.80	0.606
521.00	0.605
521.20	0.606
521.40	0.612
521.60	0.613
521.80	0.611
522.00	0.612
522.20	0.615
522.39	0.614
522.59	0.611
522.79	0.613
522.99	0.615
523.19	0.614
523.39	0.611
523.59	0.609
523.79	0.612
523.99	0.615
524.19	0.613
524.38	0.612
524.58	0.614
524.78	0.614
524.98	0.611
525.18	0.613
525.38	0.616
525.58	0.616
525.78	0.613
525.98	0.612
526.18	0.613
526.37	0.612
526.57	0.613
526.77	0.613
526.97	0.614
527.17	0.615
527.37	0.611
527.57	0.613
527.77	0.615
527.96	0.615
528.16	0.614
528.36	0.614
528.56	0.617
528.76	0.615
528.96	0.613
529.16	0.614
529.36	0.618
529.55	0.618
529.75	0.614
529.95	0.614
530.15	0.616
530.35	0.618
530.55	0.616
530.75	0.616
530.94	0.618
531.14	0.618
531.34	0.616
531.54	0.614
531.74	0.617
531.94	0.620
532.13	0.618
532.33	0.619
532.53	0.618
532.73	0.618
532.93	0.616
533.13	0.617
533.33	0.618
533.52	0.619
533.72	0.622
533.92	0.620
534.12	0.619
534.32	0.620
534.52	0.618
534.71	0.619
534.91	0.623
535.11	0.624
535.31	0.622
535.51	0.624
535.71	0.626
535.90	0.623
536.10	0.623
536.30	0.626
536.50	0.627
536.70	0.627
536.89	0.624
537.09	0.623
537.29	0.626
537.49	0.626
537.69	0.623
537.89	0.624
538.08	0.624
538.28	0.623
538.48	0.622
538.68	0.624
538.88	0.626
539.07	0.626
539.27	0.624
539.47	0.624
539.67	0.624
539.87	0.626
540.06	0.624
540.26	0.625
540.46	0.628
540.66	0.626
540.86	0.624
541.05	0.624
541.25	0.625
541.45	0.626
541.65	0.623
541.84	0.625
542.04	0.626
542.24	0.626
542.44	0.625
542.64	0.625
542.83	0.628
543.03	0.629
543.23	0.626
543.43	0.627
543.62	0.628
543.82	0.629
544.02	0.627
544.22	0.627
544.42	0.631
544.61	0.631
544.81	0.628
545.01	0.627
545.21	0.629
545.40	0.629
545.60	0.627
545.80	0.630
546.00	0.631
546.19	0.631
546.39	0.629
546.59	0.627
546.79	0.629
546.98	0.629
547.18	0.628
547.38	0.629
547.58	0.631
547.77	0.632
547.97	0.628
548.17	0.630
548.37	0.630
548.56	0.630
548.76	0.629
548.96	0.632
549.16	0.635
549.35	0.636
549.55	0.633
549.75	0.634
549.95	0.638
550.14	0.638
550.34	0.635
550.54	0.640
550.73	0.644
550.93	0.644
551.13	0.640
551.33	0.638
551.52	0.639
551.72	0.639
551.92	0.637
552.12	0.637
552.31	0.639
552.51	0.639
552.71	0.634
552.90	0.634
553.10	0.636
553.30	0.636
553.50	0.635
553.69	0.637
553.89	0.639
554.09	0.638
554.28	0.635
554.48	0.636
554.68	0.638
554.87	0.639
555.07	0.636
555.27	0.636
555.47	0.638
555.66	0.638
555.86	0.636
556.06	0.638
556.25	0.640
556.45	0.647
556.65	0.645
556.84	0.648
557.04	0.652
557.24	0.654
557.43	0.653
557.63	0.654
557.83	0.657
558.02	0.657
558.22	0.660
558.42	0.660
558.61	0.655
558.81	0.655
559.01	0.651
559.21	0.651
559.40	0.652
559.60	0.653
559.80	0.649
559.99	0.651
560.19	0.653
560.39	0.647
560.58	0.645
560.78	0.645
560.97	0.649
561.17	0.647
561.37	0.644
561.56	0.645
561.76	0.646
561.96	0.646
562.15	0.643
562.35	0.645
562.55	0.647
562.74	0.647
562.94	0.644
563.14	0.643
563.33	0.644
563.53	0.644
563.73	0.642
563.92	0.644
564.12	0.646
564.31	0.649
564.51	0.647
564.71	0.649
564.90	0.653
565.10	0.653
565.30	0.655
565.49	0.655
565.69	0.658
565.89	0.659
566.08	0.655
566.28	0.656
566.47	0.658
566.67	0.656
566.87	0.653
567.06	0.654
567.26	0.661
567.46	0.656
567.65	0.655
567.85	0.657
568.04	0.660
568.24	0.659
568.44	0.655
568.63	0.653
568.83	0.656
569.02	0.654
569.22	0.649
569.42	0.645
569.61	0.648
569.81	0.646
570.00	0.644
570.20	0.645
570.40	0.647
570.59	0.647
570.79	0.645
570.98	0.643
571.18	0.645
571.38	0.645
571.57	0.642
571.77	0.640
571.96	0.644
572.16	0.641
572.35	0.636
572.55	0.637
572.75	0.636
572.94	0.636
573.14	0.634
573.33	0.634
573.53	0.635
573.73	0.635
573.92	0.633
574.12	0.631
574.31	0.634
574.51	0.634
574.70	0.631
574.90	0.633
575.09	0.635
575.29	0.636
575.49	0.633
575.68	0.634
575.88	0.636
576.07	0.637
576.27	0.635
576.46	0.634
576.66	0.634
576.86	0.633
577.05	0.630
577.25	0.629
577.44	0.631
577.64	0.631
577.83	0.628
578.03	0.628
578.22	0.628
578.42	0.627
578.61	0.625
578.81	0.626
579.00	0.627
579.20	0.627
579.40	0.626
579.59	0.625
579.79	0.626
579.98	0.626
580.18	0.625
580.37	0.626
580.57	0.628
580.76	0.632
580.96	0.630
581.15	0.631
581.35	0.633
581.54	0.633
581.74	0.632
581.93	0.633
582.13	0.635
582.32	0.632
582.52	0.631
582.71	0.631
582.91	0.628
583.10	0.628
583.30	0.627
583.49	0.627
583.69	0.631
583.88	0.632
584.08	0.632
584.27	0.633
584.47	0.636
584.66	0.636
584.86	0.635
585.05	0.636
585.25	0.639
585.44	0.638
585.64	0.636
585.83	0.632
586.03	0.634
586.22	0.632
586.42	0.629
586.61	0.630
586.81	0.633
587.00	0.633
587.20	0.631
587.39	0.632
587.59	0.635
587.78	0.636
587.98	0.636
588.17	0.637
588.37	0.640
588.56	0.642
588.76	0.638
588.95	0.638
589.15	0.642
589.34	0.643
589.54	0.641
589.73	0.641
589.92	0.645
590.12	0.644
590.31	0.640
590.51	0.645
590.70	0.647
590.90	0.647
591.09	0.644
591.29	0.643
591.48	0.644
591.68	0.645
591.87	0.643
592.06	0.642
592.26	0.645
592.45	0.645
592.65	0.639
592.84	0.638
593.04	0.641
593.23	0.643
593.43	0.640
593.62	0.640
593.81	0.641
594.01	0.641
594.20	0.639
594.40	0.639
594.59	0.642
594.79	0.643
594.98	0.641
595.17	0.640
595.37	0.642
595.56	0.644
595.76	0.642
595.95	0.643
596.14	0.646
596.34	0.646
596.53	0.644
596.73	0.644
596.92	0.644
597.12	0.647
597.31	0.646
597.50	0.645
597.70	0.647
597.89	0.646
598.09	0.643
598.28	0.644
598.47	0.647
598.67	0.646
598.86	0.642
599.06	0.644
599.25	0.645
599.44	0.643
599.64	0.640
599.83	0.638
600.03	0.642
600.22	0.643
600.41	0.643
600.61	0.642
600.80	0.645
601.00	0.647
601.19	0.642
601.38	0.642
601.58	0.645
601.77	0.646
601.96	0.648
602.16	0.647
602.35	0.656
602.55	0.653
602.74	0.652
602.93	0.652
603.13	0.657
603.32	0.658
603.51	0.656
603.71	0.658
603.90	0.660
604.09	0.660
604.29	0.657
604.48	0.651
604.68	0.654
604.87	0.652
605.06	0.649
605.26	0.646
605.45	0.647
605.64	0.646
605.84	0.641
606.03	0.641
606.22	0.641
606.42	0.640
606.61	0.637
606.80	0.637
607.00	0.639
607.19	0.640
607.38	0.638
607.58	0.638
607.77	0.642
607.96	0.642
608.16	0.640
608.35	0.645
608.54	0.649
608.74	0.652
608.93	0.657
609.12	0.660
609.32	0.663
609.51	0.667
609.70	0.666
609.90	0.668
610.09	0.673
610.28	0.678
610.48	0.672
610.67	0.673
610.86	0.673
611.06	0.667
611.25	0.665
611.44	0.665
611.64	0.665
611.83	0.667
612.02	0.663
612.21	0.661
612.41	0.661
612.60	0.660
612.79	0.656
612.99	0.656
613.18	0.659
613.37	0.656
613.57	0.653
613.76	0.656
613.95	0.654
614.14	0.654
614.34	0.651
614.53	0.652
614.72	0.655
614.92	0.655
615.11	0.652
615.30	0.650
615.49	0.652
615.69	0.655
615.88	0.651
616.07	0.653
616.26	0.657
616.46	0.658
616.65	0.655
616.84	0.655
617.04	0.657
617.23	0.661
617.42	0.661
617.61	0.665
617.81	0.667
618.00	0.668
618.19	0.665
618.38	0.668
618.58	0.671
618.77	0.671
618.96	0.669
619.15	0.672
619.35	0.673
619.54	0.674
619.73	0.669
619.92	0.671
620.12	0.675
620.31	0.675
620.50	0.670
620.69	0.670
620.89	0.674
621.08	0.674
621.27	0.673
621.46	0.672
621.66	0.677
621.85	0.676
622.04	0.672
622.23	0.673
622.43	0.675
622.62	0.674
622.81	0.673
623.00	0.673
623.19	0.678
623.39	0.677
623.58	0.673
623.77	0.672
623.96	0.675
624.16	0.676
624.35	0.670
624.54	0.673
624.73	0.679
624.92	0.675
625.12	0.673
625.31	0.674
625.50	0.677
625.69	0.678
625.88	0.674
626.08	0.675
626.27	0.677
626.46	0.678
626.65	0.674
626.84	0.674
627.04	0.680
627.23	0.680
627.42	0.673
627.61	0.674
627.80	0.679
628.00	0.680
628.19	0.676
628.38	0.680
628.57	0.683
628.76	0.683
628.96	0.680
629.15	0.680
629.34	0.684
629.53	0.686
629.72	0.681
629.91	0.680
630.11	0.686
630.30	0.686
630.49	0.687
630.68	0.688
630.87	0.692
631.06	0.694
631.26	0.689
631.45	0.691
631.64	0.700
631.83	0.703
632.02	0.699
632.21	0.699
632.41	0.708
632.60	0.702
632.79	0.700
632.98	0.701
633.17	0.704
633.36	0.706
633.55	0.701
633.75	0.697
633.94	0.700
634.13	0.700
634.32	0.695
634.51	0.690
634.70	0.693
634.89	0.693
635.09	0.688
635.28	0.689
635.47	0.692
635.66	0.695
635.85	0.690
636.04	0.691
636.23	0.697
636.43	0.698
636.62	0.697
636.81	0.695
637.00	0.700
637.19	0.703
637.38	0.699
637.57	0.698
637.76	0.700
637.95	0.701
638.15	0.696
638.34	0.692
638.53	0.697
638.72	0.698
638.91	0.695
639.10	0.691
639.29	0.693
639.48	0.693
639.67	0.691
639.87	0.690
640.06	0.696
640.25	0.697
640.44	0.698
640.63	0.698
640.82	0.701
641.01	0.702
641.20	0.701
641.39	0.702
641.58	0.705
641.78	0.705
641.97	0.700
642.16	0.715
642.35	0.716
642.54	0.715
642.73	0.708
642.92	0.707
643.11	0.711
643.30	0.712
643.49	0.707
643.68	0.710
643.87	0.713
644.06	0.714
644.25	0.691
644.45	0.693
644.64	0.695
644.83	0.696
645.02	0.691
645.21	0.688
645.40	0.691
645.59	0.691
645.78	0.684
645.97	0.685
646.16	0.687
646.35	0.687
646.54	0.684
646.73	0.686
646.92	0.688
647.11	0.688
647.30	0.683
647.49	0.684
647.68	0.685
647.88	0.682
648.07	0.674
648.26	0.677
648.45	0.680
648.64	0.676
648.83	0.673
649.02	0.675
649.21	0.687
649.40	0.687
649.59	0.681
649.78	0.681
649.97	0.697
650.16	0.697
650.35	0.691
650.54	0.693
650.73	0.702
650.92	0.698
651.11	0.690
651.30	0.688
651.49	0.694
651.68	0.694
651.87	0.690
652.06	0.681
652.25	0.684
652.44	0.684
652.63	0.677
652.82	0.674
653.01	0.673
653.20	0.671
653.39	0.657
653.58	0.655
653.77	0.654
653.96	0.650
654.15	0.641
654.34	0.639
654.53	0.636
654.72	0.633
654.91	0.624
655.10	0.621
655.29	0.620
655.48	0.618
655.67	0.613
655.86	0.610
656.05	0.610
656.24	0.610
656.43	0.605
656.62	0.605
656.81	0.607
657.00	0.608
657.19	0.606
657.38	0.607
657.57	0.609
657.76	0.612
657.95	0.611
658.14	0.615
658.33	0.619
658.51	0.624
658.70	0.625
658.89	0.625
659.08	0.632
659.27	0.638
659.46	0.637
659.65	0.643
659.84	0.646
660.03	0.648
660.22	0.649
660.41	0.654
660.60	0.654
660.79	0.655
660.98	0.661
661.17	0.660
661.36	0.659
661.55	0.659
661.74	0.655
661.92	0.657
662.11	0.661
662.30	0.660
662.49	0.652
662.68	0.652
662.87	0.656
663.06	0.650
663.25	0.649
663.44	0.651
663.63	0.653
663.82	0.652
664.01	0.647
664.20	0.645
664.38	0.647
664.57	0.648
664.76	0.647
664.95	0.647
665.14	0.653
665.33	0.649
665.52	0.655
665.71	0.658
665.90	0.659
666.09	0.661
666.28	0.658
666.46	0.658
666.65	0.660
666.84	0.657
667.03	0.650
667.22	0.648
667.41	0.651
667.60	0.640
667.79	0.633
667.98	0.634
668.16	0.635
668.35	0.634
668.54	0.629
668.73	0.629
668.92	0.631
669.11	0.630
669.30	0.624
669.49	0.621
669.67	0.623
669.86	0.624
670.05	0.621
670.24	0.619
670.43	0.617
670.62	0.616
670.81	0.611
671.00	0.612
671.18	0.612
671.37	0.611
671.56	0.608
671.75	0.606
671.94	0.604
672.13	0.603
672.32	0.597
672.50	0.597
672.69	0.598
672.88	0.599
673.07	0.594
673.26	0.596
673.45	0.598
673.63	0.599
673.82	0.595
674.01	0.597
674.20	0.597
674.39	0.596
674.58	0.595
674.76	0.594
674.95	0.593
675.14	0.593
675.33	0.588
675.52	0.586
675.71	0.586
675.89	0.585
676.08	0.580
676.27	0.580
676.46	0.581
676.65	0.581
676.84	0.579
677.02	0.581
677.21	0.584
677.40	0.583
677.59	0.580
677.78	0.581
677.96	0.585
678.15	0.584
678.34	0.582
678.53	0.583
678.72	0.584
678.90	0.581
679.09	0.576
679.28	0.573
679.47	0.574
679.66	0.574
679.84	0.570
680.03	0.568
680.22	0.568
680.41	0.570
680.60	0.566
680.78	0.565
680.97	0.569
681.16	0.569
681.35	0.568
681.53	0.567
681.72	0.568
681.91	0.569
682.10	0.567
682.29	0.569
682.47	0.567
682.66	0.567
682.85	0.564
683.04	0.562
683.22	0.562
683.41	0.563
683.60	0.561
683.79	0.562
683.97	0.562
684.16	0.560
684.35	0.556
684.54	0.557
684.72	0.558
684.91	0.559
685.10	0.556
685.29	0.557
685.47	0.555
685.66	0.554
685.85	0.550
686.04	0.549
686.22	0.553
686.41	0.556
686.60	0.553
686.79	0.555
686.97	0.557
687.16	0.559
687.35	0.556
687.54	0.560
687.72	0.564
687.91	0.564
688.10	0.566
688.29	0.564
688.47	0.563
688.66	0.562
688.85	0.558
689.03	0.556
689.22	0.560
689.41	0.560
689.60	0.555
689.78	0.552
689.97	0.553
690.16	0.551
690.34	0.546
690.53	0.547
690.72	0.548
690.91	0.546
691.09	0.544
691.28	0.538
691.47	0.537
691.65	0.536
691.84	0.533
692.03	0.532
692.21	0.531
692.40	0.531
692.59	0.528
692.77	0.527
692.96	0.529
693.15	0.530
693.34	0.528
693.52	0.528
693.71	0.529
693.90	0.530
694.08	0.530
694.27	0.531
694.46	0.541
694.64	0.542
694.83	0.540
695.02	0.539
695.20	0.539
695.39	0.538
695.58	0.537
695.76	0.537
695.95	0.537
696.14	0.536
696.32	0.534
696.51	0.524
696.70	0.525
696.88	0.525
697.07	0.524
697.26	0.525
697.44	0.527
697.63	0.526
697.81	0.524
698.00	0.523
698.19	0.524
698.37	0.524
698.56	0.524
698.75	0.524
698.93	0.524
699.12	0.524
699.31	0.522
699.49	0.522
699.68	0.524
699.87	0.527
700.05	0.526
700.24	0.525
700.42	0.526
700.61	0.525
700.80	0.522
700.98	0.523
701.17	0.525
701.36	0.524
701.54	0.522
701.73	0.523
701.91	0.521
702.10	0.521
702.29	0.519
702.47	0.518
702.66	0.520
702.84	0.521
703.03	0.519
703.22	0.521
703.40	0.521
703.59	0.523
703.77	0.522
703.96	0.521
704.15	0.523
704.33	0.523
704.52	0.522
704.70	0.521
704.89	0.522
705.08	0.520
705.26	0.515
705.45	0.515
705.63	0.515
705.82	0.512
706.00	0.510
706.19	0.509
706.38	0.509
706.56	0.508
706.75	0.505
706.93	0.503
707.12	0.506
707.30	0.506
707.49	0.503
707.68	0.502
707.86	0.502
708.05	0.502
708.23	0.499
708.42	0.500
708.60	0.504
708.79	0.504
708.98	0.502
709.16	0.502
709.35	0.504
709.53	0.508
709.72	0.507
709.90	0.508
710.09	0.511
710.27	0.513
710.46	0.516
710.64	0.514
710.83	0.516
711.02	0.518
711.20	0.516
711.39	0.514
711.57	0.512
711.76	0.513
711.94	0.510
712.13	0.510
712.31	0.510
712.50	0.505
712.68	0.502
712.87	0.503
713.05	0.503
713.24	0.504
713.42	0.502
713.61	0.503
713.79	0.503
713.98	0.504
714.16	0.505
714.35	0.505
714.54	0.506
714.72	0.506
714.91	0.503
715.09	0.510
715.28	0.513
715.46	0.513
715.65	0.510
715.83	0.511
716.02	0.514
716.20	0.510
716.39	0.509
716.57	0.510
716.76	0.514
716.94	0.514
717.12	0.505
717.31	0.507
717.49	0.510
717.68	0.513
717.86	0.510
718.05	0.512
718.23	0.515
718.42	0.518
718.60	0.519
718.79	0.526
718.97	0.530
719.16	0.531
719.34	0.527
719.53	0.528
719.71	0.528
719.90	0.531
720.08	0.527
720.27	0.526
720.45	0.526
720.63	0.525
720.82	0.517
721.00	0.520
721.19	0.524
721.37	0.524
721.56	0.524
721.74	0.526
721.93	0.535
722.11	0.541
722.30	0.540
722.48	0.544
722.66	0.546
722.85	0.545
723.03	0.544
723.22	0.542
723.40	0.545
723.59	0.544
723.77	0.548
723.95	0.541
724.14	0.545
724.32	0.547
724.51	0.545
724.69	0.546
724.88	0.548
725.06	0.545
725.24	0.545
725.43	0.547
725.61	0.550
725.80	0.543
725.98	0.539
726.16	0.536
726.35	0.543
726.53	0.542
726.72	0.542
726.90	0.552
727.09	0.554
727.27	0.561
727.45	0.556
727.64	0.566
727.82	0.576
728.01	0.581
728.19	0.577
728.37	0.583
728.56	0.587
728.74	0.592
728.92	0.579
729.11	0.582
729.29	0.582
729.48	0.585
729.66	0.573
729.84	0.573
730.03	0.578
730.21	0.579
730.40	0.568
730.58	0.570
730.76	0.571
730.95	0.574
731.13	0.571
731.31	0.583
731.50	0.593
731.68	0.595
731.86	0.589
732.05	0.603
732.23	0.607
732.42	0.610
732.60	0.611
732.78	0.616
732.97	0.637
733.15	0.646
733.33	0.632
733.52	0.640
733.70	0.653
733.88	0.663
734.07	0.646
734.25	0.673
734.43	0.684
734.62	0.686
734.80	0.677
734.98	0.666
735.17	0.674
735.35	0.680
735.53	0.667
735.72	0.671
735.90	0.697
736.08	0.716
736.27	0.692
736.45	0.699
736.63	0.716
736.82	0.727
737.00	0.723
737.18	0.735
737.37	0.773
737.55	0.797
737.73	0.789
737.92	0.791
738.10	0.791
738.28	0.812
738.46	0.799
738.65	0.813
738.83	0.839
739.01	0.899
739.20	0.884
739.38	0.863
739.56	0.857
739.75	0.862
739.93	0.819
740.11	0.842
740.29	0.847
740.48	0.851
740.66	0.824
740.84	0.821
741.03	0.792
741.21	0.802
741.39	0.778
741.57	0.791
741.76	0.813
741.94	0.825
742.12	0.784
742.31	0.790
742.49	0.819
742.67	0.843
742.85	0.851
743.04	0.853
743.22	0.872
743.40	0.929
743.58	0.905
743.77	0.917
743.95	0.957
744.13	1.011
744.31	0.986
744.50	0.980
744.68	0.989
744.86	0.960
745.04	0.965
745.23	1.032
745.41	1.025
745.59	1.033
745.77	0.990
745.96	0.976
746.14	0.995
746.32	0.995
746.50	0.978
746.69	0.961
746.87	0.981
747.05	0.971
747.23	0.884
747.42	0.867
747.60	0.904
747.78	0.910
747.96	0.940
748.14	0.892
748.33	0.923
748.51	0.916
748.69	0.900
748.87	0.935
749.06	0.936
749.24	0.941
749.42	0.918
749.60	0.899
749.78	0.918
749.97	0.863
750.15	0.854
750.33	0.858
750.51	0.897
750.69	0.901
750.88	0.895
751.06	0.912
751.24	0.947
751.42	0.937
751.60	0.922
751.79	0.999
751.97	1.062
752.15	1.060
752.33	1.015
752.51	1.087
752.69	1.120
752.88	1.076
753.06	1.106
753.24	1.066
753.42	1.121
753.60	1.323
753.78	1.137
753.97	1.159
754.15	1.187
754.33	1.216
754.51	1.063
754.69	1.041
754.87	1.082
755.06	1.006
755.24	1.000
755.42	1.003
755.60	0.905
755.78	0.914
755.96	0.853
756.15	0.857
756.33	0.867
756.51	0.883
756.69	0.865
756.87	0.830
757.05	0.858
757.23	0.843
757.42	0.805
757.60	0.801
757.78	0.794
757.96	0.790
758.14	0.769
758.32	0.754
758.50	0.772
758.69	0.774
758.87	0.765
759.05	0.770
759.23	0.784
759.41	0.784
759.59	0.776
759.77	0.802
759.95	0.836
760.13	0.889
760.32	0.886
760.50	0.878
760.68	0.907
760.86	0.904
761.04	0.865
761.22	0.870
761.40	0.927
761.58	0.923
761.76	0.886
761.95	0.868
762.13	0.825
762.31	0.823
762.49	0.785
762.67	0.802
762.85	0.821
763.03	0.818
763.21	0.793
763.39	0.774
763.57	0.783
763.75	0.778
763.94	0.761
764.12	0.760
764.30	0.791
764.48	0.796
764.66	0.754
764.84	0.751
765.02	0.794
765.20	0.803
765.38	0.779
765.56	0.784
765.74	0.832
765.92	0.834
766.10	0.839
766.28	0.829
766.46	0.865
766.65	0.869
766.83	0.850
767.01	0.833
767.19	0.847
767.37	0.847
767.55	0.827
767.73	0.805
767.91	0.813
768.09	0.801
768.27	0.787
768.45	0.776
768.63	0.781
768.81	0.784
768.99	0.752
769.17	0.776
769.35	0.796
769.53	0.794
769.71	0.770
769.89	0.778
770.07	0.788
770.25	0.771
770.43	0.746
770.61	0.775
770.79	0.789
770.97	0.801
771.15	0.763
771.33	0.766
771.51	0.775
771.69	0.790
771.87	0.793
772.05	0.798
772.24	0.812
772.42	0.821
772.60	0.792
772.78	0.856
772.96	0.891
773.14	0.884
773.32	0.857
773.49	0.859
773.67	0.857
773.85	0.835
774.03	0.820
774.21	0.855
774.39	0.873
774.57	0.898
774.75	0.814
774.93	0.811
775.11	0.840
775.29	0.846
775.47	0.845
775.65	0.857
775.83	0.883
776.01	0.904
776.19	0.844
776.37	0.845
776.55	0.847
776.73	0.844
776.91	0.833
777.09	0.817
777.27	0.821
777.45	0.813
777.63	0.787
777.81	0.781
777.99	0.774
778.17	0.774
778.35	0.747
778.53	0.737
778.71	0.744
778.89	0.729
779.07	0.713
779.24	0.721
779.42	0.721
779.60	0.738
779.78	0.731
779.96	0.735
780.14	0.747
780.32	0.770
780.50	0.749
780.68	0.752
780.86	0.745
781.04	0.767
781.22	0.765
781.40	0.778
781.58	0.775
781.75	0.767
781.93	0.745
782.11	0.744
782.29	0.733
782.47	0.734
782.65	0.716
782.83	0.747
783.01	0.745
783.19	0.737
783.37	0.716
783.55	0.718
783.72	0.741
783.90	0.752
784.08	0.743
784.26	0.753
784.44	0.777
784.62	0.778
784.80	0.739
784.98	0.743
785.16	0.755
785.33	0.773
785.51	0.754
785.69	0.738
785.87	0.741
786.05	0.751
786.23	0.741
786.41	0.736
786.59	0.747
786.77	0.748
786.94	0.730
787.12	0.732
787.30	0.734
787.48	0.729
787.66	0.712
787.84	0.712
788.02	0.705
788.19	0.703
788.37	0.687
788.55	0.687
788.73	0.690
788.91	0.683
789.09	0.665
789.27	0.654
789.44	0.668
789.62	0.675
789.80	0.684
789.98	0.710
790.16	0.699
790.34	0.695
790.51	0.681
790.69	0.702
790.87	0.712
791.05	0.710
791.23	0.701
791.41	0.703
791.58	0.714
791.76	0.691
791.94	0.657
792.12	0.665
792.30	0.670
792.48	0.667
792.65	0.657
792.83	0.663
793.01	0.671
793.19	0.670
793.37	0.653
793.54	0.648
793.72	0.662
793.90	0.660
794.08	0.648
794.26	0.651
794.43	0.662
794.61	0.646
794.79	0.631
794.97	0.631
795.15	0.640
795.32	0.645
795.50	0.633
795.68	0.628
795.86	0.636
796.04	0.637
796.21	0.630
796.39	0.627
796.57	0.645
796.75	0.657
796.92	0.657
797.10	0.662
797.28	0.665
797.46	0.667
797.64	0.665
797.81	0.673
797.99	0.681
798.17	0.686
798.35	0.678
798.52	0.681
798.70	0.678
798.88	0.683
799.06	0.679
799.23	0.684
799.41	0.696
799.59	0.688
799.77	0.675
799.94	0.685
800.12	0.695
800.30	0.713
800.48	0.708
800.65	0.705
800.83	0.699
801.01	0.689
801.19	0.687
801.36	0.685
801.54	0.690
801.72	0.700
801.90	0.681
802.07	0.677
802.25	0.665
802.43	0.647
802.60	0.643
802.78	0.651
802.96	0.660
803.14	0.651
803.31	0.645
803.49	0.646
803.67	0.644
803.84	0.650
804.02	0.637
804.20	0.639
804.38	0.648
804.55	0.647
804.73	0.631
804.91	0.631
805.08	0.646
805.26	0.643
805.44	0.699
805.61	0.703
805.79	0.704
805.97	0.704
806.15	0.695
806.32	0.689
806.50	0.699
806.68	0.698
806.85	0.690
807.03	0.681
807.21	0.702
807.38	0.639
807.56	0.627
807.74	0.638
807.91	0.649
808.09	0.649
808.27	0.668
808.44	0.694
808.62	0.708
808.80	0.707
808.97	0.699
809.15	0.692
809.33	0.714
809.50	0.722
809.68	0.705
809.86	0.711
810.03	0.752
810.21	0.730
810.39	0.708
810.56	0.713
810.74	0.741
810.91	0.818
811.09	0.803
811.27	0.824
811.44	0.833
811.62	0.835
811.80	0.812
811.97	0.776
812.15	0.777
812.33	0.771
812.50	0.750
812.68	0.738
812.85	0.684
813.03	0.686
813.21	0.650
813.38	0.643
813.56	0.648
813.74	0.659
813.91	0.666
814.09	0.698
814.26	0.695
814.44	0.699
814.62	0.685
814.79	0.688
814.97	0.695
815.14	0.699
815.32	0.702
815.50	0.720
815.67	0.725
815.85	0.714
816.02	0.699
816.20	0.708
816.38	0.728
816.55	0.736
816.73	0.735
816.90	0.749
817.08	0.788
817.26	0.795
817.43	0.770
817.61	0.798
817.78	0.827
817.96	0.804
818.13	0.788
818.31	0.786
818.49	0.803
818.66	0.790
818.84	0.767
819.01	0.742
819.19	0.753
819.36	0.756
819.54	0.719
819.71	0.761
819.89	0.780
820.07	0.790
820.24	0.779
820.42	0.782
820.59	0.808
820.77	0.835
820.94	0.822
821.12	0.837
821.29	0.857
821.47	0.857
821.64	0.782
821.82	0.799
822.00	0.802
822.17	0.796
822.35	0.782
822.52	0.783
822.70	0.774
822.87	0.779
823.05	0.756
823.22	0.770
823.40	0.806
823.57	0.834
823.75	0.804
823.92	0.837
824.10	0.869
824.27	0.917
824.45	0.897
824.62	0.967
824.80	1.002
824.97	1.012
825.15	0.996
825.32	1.012
825.50	1.021
825.67	1.038
825.85	1.000
826.02	1.027
826.20	1.068
826.37	1.234
826.55	1.120
826.72	1.403
826.90	1.603
827.07	1.754
827.25	1.584
827.42	2.291
827.60	-0.000
827.77	-0.000
827.95	-0.000
828.12	-0.000
828.30	-0.000
828.47	-0.000
828.65	1.867
828.82	2.251
829.00	-0.000
829.17	-0.000
829.34	-0.000
829.52	-0.000
829.69	-0.000
829.87	-0.000
830.04	-0.000
830.22	-0.000
830.39	-0.000
830.57	-0.000
830.74	-0.000
830.92	-0.000
831.09	-0.000
831.26	-0.000
831.44	-0.000
831.61	-0.000
831.79	-0.000
831.96	-0.000
832.14	-0.000
832.31	-0.000
832.49	-0.000
832.66	-0.000
832.83	-0.000
833.01	-0.000
833.18	-0.000
833.36	-0.000
833.53	-0.000
833.70	-0.000
833.88	-0.000
834.05	-0.000
834.23	-0.000
834.40	-0.000
834.58	-0.000
834.75	-0.000
834.92	-0.000
835.10	-0.000
835.27	-0.000
835.45	-0.000
835.62	-0.000
835.79	-0.000
835.97	-0.000
836.14	-0.000
836.32	-0.000
836.49	-0.000
836.66	-0.000
836.84	-0.000
837.01	-0.000
837.18	-0.000
837.36	-0.000
837.53	-0.000
837.71	-0.000
837.88	-0.000
838.05	-0.000
838.23	-0.000
838.40	-0.000
838.58	-0.000
838.75	-0.000
838.92	-0.000
839.10	-0.000
839.27	-0.000
839.44	-0.000
839.62	-0.000
839.79	-0.000
839.96	-0.000
840.14	-0.000
840.31	-0.000
840.48	-0.000
840.66	-0.000
840.83	-0.000
841.01	-0.000
841.18	-0.000
841.35	-0.000
841.53	-0.000
841.70	-0.000
841.87	-0.000
842.05	-0.000
842.22	-0.000
842.39	-0.000
842.57	-0.000
842.74	-0.000
842.91	-0.000
843.09	-0.000
843.26	-0.000
843.43	-0.000
843.60	-0.000
843.78	-0.000
843.95	-0.000
844.12	-0.000
844.30	-0.000
844.47	-0.000
844.64	-0.000
844.82	-0.000
844.99	-0.000
845.16	-0.000
845.34	-0.000
845.51	-0.000
845.68	-0.000
845.85	-0.000
846.03	-0.000
846.20	-0.000
846.37	-0.000
846.55	-0.000
846.72	-0.000
846.89	-0.000
847.06	-0.000
847.24	-0.000
847.41	-0.000
847.58	-0.000
847.76	-0.000
847.93	-0.000
848.10	-0.000
848.27	-0.000
848.45	-0.000
848.62	-0.000
848.79	-0.000
848.97	-0.000
849.14	-0.000
849.31	-0.000
849.48	-0.000
849.66	-0.000
849.83	-0.000
850.00	-0.000
850.17	-0.000
850.35	-0.000
850.52	-0.000
850.69	-0.000
850.86	-0.000
851.04	-0.000
851.21	-0.000
851.38	-0.000
851.55	-0.000
851.72	-0.000
851.90	-0.000
852.07	-0.000
852.24	-0.000
852.41	-0.000
852.59	-0.000
852.76	-0.000
852.93	-0.000
853.10	-0.000
853.28	-0.000
853.45	-0.000
853.62	-0.000
853.79	-0.000
853.96	-0.000
854.14	-0.000
854.31	-0.000
854.48	-0.000
854.65	-0.000
854.82	-0.000
855.00	-0.000
855.17	-0.000
855.34	-0.000
855.51	-0.000
855.68	-0.000
855.86	-0.000
856.03	-0.000
856.20	-0.000
856.37	-0.000
856.54	-0.000
856.72	-0.000
856.89	-0.000
857.06	-0.000
857.23	-0.000
857.40	-0.000
857.57	-0.000
857.75	-0.000
857.92	-0.000
858.09	-0.000
858.26	-0.000
858.43	-0.000
858.60	-0.000
858.78	-0.000
858.95	-0.000
859.12	-0.000
859.29	-0.000
859.46	-0.000
859.63	-0.000
859.81	-0.000
859.98	-0.000
860.15	-0.000
860.32	-0.000
860.49	-0.000
860.66	-0.000
860.83	-0.000
861.01	-0.000
861.18	-0.000
861.35	-0.000
861.52	-0.000
861.69	-0.000
861.86	-0.000
862.03	-0.000
862.21	-0.000
862.38	-0.000
862.55	-0.000
862.72	-0.000
862.89	-0.000
863.06	-0.000
863.23	-0.000
863.40	-0.000
863.58	-0.000
863.75	-0.000
863.92	-0.000
864.09	-0.000
864.26	-0.000
864.43	-0.000
864.60	-0.000
864.77	-0.000
864.94	-0.000
865.11	-0.000
865.29	-0.000
865.46	-0.000
865.63	-0.000
865.80	-0.000
865.97	-0.000
866.14	-0.000
866.31	-0.000
866.48	-0.000
866.65	-0.000
866.82	-0.000
866.99	-0.000
867.16	-0.000
867.34	-0.000
867.51	-0.000
867.68	-0.000
867.85	-0.000
868.02	-0.000
868.19	-0.000
868.36	-0.000
868.53	-0.000
868.70	-0.000
868.87	-0.000
869.04	-0.000
869.21	-0.000
869.38	-0.000
869.55	-0.000
869.72	-0.000
869.89	-0.000
870.06	-0.000
870.24	-0.000
870.41	-0.000
870.58	-0.000
870.75	-0.000
870.92	-0.000
871.09	-0.000
871.26	-0.000
871.43	-0.000
871.60	-0.000
871.77	-0.000
871.94	-0.000
872.11	-0.000
872.28	-0.000
872.45	-0.000
872.62	-0.000
872.79	-0.000
872.96	-0.000
873.13	-0.000
873.30	-0.000
873.47	-0.000
873.64	-0.000
873.81	-0.000
873.98	-0.000
874.15	-0.000
874.32	-0.000
874.49	-0.000
874.66	-0.000
874.83	-0.000
875.00	-0.000
875.17	-0.000
875.34	-0.000
875.51	-0.000
875.68	-0.000
875.85	-0.000
876.02	-0.000
876.19	-0.000
876.36	-0.000
876.53	-0.000
876.70	-0.000
876.87	-0.000
877.04	-0.000
877.21	-0.000
877.38	-0.000
877.55	-0.000
877.72	-0.000
877.89	-0.000
878.06	-0.000
878.23	-0.000
878.39	-0.000
878.56	-0.000
878.73	-0.000
878.90	-0.000
879.07	-0.000
879.24	-0.000
879.41	-0.000
879.58	-0.000
879.75	-0.000
879.92	-0.000
880.09	-0.000
880.26	-0.000
880.43	-0.000
880.60	-0.000
880.77	-0.000
880.94	-0.000
881.11	-0.000
881.27	-0.000
881.44	-0.000
881.61	-0.000
881.78	-0.000
881.95	-0.000
882.12	-0.000
882.29	-0.000
882.46	-0.000
882.63	-0.000
882.80	-0.000
882.97	-0.000
883.14	-0.000
883.30	-0.000
883.47	-0.000
883.64	-0.000
883.81	-0.000
883.98	-0.000
884.15	-0.000
884.32	-0.000
884.49	-0.000
884.66	-0.000
884.82	-0.000
884.99	-0.000
885.16	-0.000
885.33	-0.000
885.50	-0.000
885.67	-0.000
885.84	-0.000
886.01	-0.000
886.17	-0.000
886.34	-0.000
886.51	-0.000
886.68	-0.000
886.85	-0.000
887.02	-0.000
887.19	-0.000
887.36	-0.000
887.52	-0.000
887.69	-0.000
887.86	-0.000
888.03	-0.000
888.20	-0.000
888.37	-0.000
888.54	-0.000
888.70	-0.000
888.87	-0.000
889.04	-0.000
889.21	-0.000
889.38	-0.000
889.55	-0.000
889.71	-0.000
889.88	-0.000
890.05	-0.000
890.22	-0.000
890.39	-0.000
>>>>>End Processed Spectral Data<<<<<
