SpectraSuite Data File
++++++++++++++++++++++++++++++++++++
Date: Fri Jun 19 12:34:39 CEST 2015
User: introlabs
Dark Spectrum Present: Yes
Reference Spectrum Present: Yes
Number of Sampled Component Spectra: 1
Spectrometers: USB4H08886
Integration Time (usec): 745692 (USB4H08886)
Spectra Averaged: 5 (USB4H08886)
Boxcar Smoothing: 5 (USB4H08886)
Correct for Electrical Dark: Yes (USB4H08886)
Strobe/Lamp Enabled: No (USB4H08886)
Correct for Detector Non-linearity: Yes (USB4H08886)
Correct for Stray Light: Yes (USB4H08886)
Number of Pixels in Processed Spectrum: 3648
>>>>>Begin Processed Spectral Data<<<<<
178.14	-0.000
178.36	-0.000
178.57	-0.000
178.79	-0.000
179.01	-0.000
179.22	-0.000
179.44	-0.000
179.65	-0.000
179.87	-0.000
180.08	-0.000
180.30	-0.000
180.52	-0.000
180.73	-0.000
180.95	-0.000
181.16	-0.000
181.38	-0.000
181.59	-0.000
181.81	-0.000
182.03	-0.000
182.24	-0.000
182.46	-0.000
182.67	-0.000
182.89	-0.000
183.10	-0.000
183.32	-0.000
183.54	-0.000
183.75	-0.000
183.97	-0.000
184.18	-0.000
184.40	-0.000
184.61	-0.000
184.83	-0.000
185.04	-0.000
185.26	-0.000
185.48	-0.000
185.69	-0.000
185.91	-0.000
186.12	-0.000
186.34	-0.000
186.55	-0.000
186.77	-0.000
186.98	-0.000
187.20	-0.000
187.42	-0.000
187.63	-0.000
187.85	-0.000
188.06	-0.000
188.28	-0.000
188.49	-0.000
188.71	-0.000
188.92	-0.000
189.14	-0.000
189.36	-0.000
189.57	-0.000
189.79	-0.000
190.00	-0.000
190.22	-0.000
190.43	-0.000
190.65	-0.000
190.86	-0.000
191.08	-0.000
191.29	-0.000
191.51	-0.000
191.72	-0.000
191.94	-0.000
192.16	-0.000
192.37	-0.000
192.59	-0.000
192.80	-0.000
193.02	-0.000
193.23	-0.000
193.45	-0.000
193.66	-0.000
193.88	-0.000
194.09	-0.000
194.31	-0.000
194.52	-0.000
194.74	-0.000
194.95	-0.000
195.17	-0.000
195.38	-0.000
195.60	-0.000
195.81	-0.000
196.03	-0.000
196.25	-0.000
196.46	-0.000
196.68	-0.000
196.89	-0.000
197.11	-0.000
197.32	-0.000
197.54	-0.000
197.75	-0.000
197.97	-0.000
198.18	-0.000
198.40	-0.000
198.61	-0.000
198.83	-0.000
199.04	-0.000
199.26	-0.000
199.47	-0.000
199.69	-0.000
199.90	-0.000
200.12	-0.000
200.33	-0.000
200.55	-0.000
200.76	-0.000
200.98	-0.000
201.19	-0.000
201.41	-0.000
201.62	-0.000
201.84	-0.000
202.05	-0.000
202.27	-0.000
202.48	-0.000
202.70	-0.000
202.91	-0.000
203.13	-0.000
203.34	-0.000
203.56	-0.000
203.77	-0.000
203.99	-0.000
204.20	-0.000
204.42	-0.000
204.63	-0.000
204.85	-0.000
205.06	-0.000
205.28	-0.000
205.49	-0.000
205.71	-0.000
205.92	-0.000
206.14	-0.000
206.35	-0.000
206.56	-0.000
206.78	-0.000
206.99	-0.000
207.21	-0.000
207.42	-0.000
207.64	-0.000
207.85	-0.000
208.07	-0.000
208.28	-0.000
208.50	-0.000
208.71	-0.000
208.93	-0.000
209.14	-0.000
209.36	-0.000
209.57	-0.000
209.79	-0.000
210.00	-0.000
210.22	-0.000
210.43	-0.000
210.64	-0.000
210.86	-0.000
211.07	-0.000
211.29	-0.000
211.50	-0.000
211.72	-0.000
211.93	-0.000
212.15	-0.000
212.36	-0.000
212.58	-0.000
212.79	-0.000
213.01	-0.000
213.22	-0.000
213.43	-0.000
213.65	-0.000
213.86	-0.000
214.08	-0.000
214.29	-0.000
214.51	-0.000
214.72	-0.000
214.94	-0.000
215.15	-0.000
215.36	-0.000
215.58	-0.000
215.79	-0.000
216.01	-0.000
216.22	-0.000
216.44	-0.000
216.65	-0.000
216.87	-0.000
217.08	-0.000
217.29	-0.000
217.51	-0.000
217.72	-0.000
217.94	-0.000
218.15	-0.000
218.37	-0.000
218.58	-0.000
218.80	-0.000
219.01	-0.000
219.22	-0.000
219.44	-0.000
219.65	-0.000
219.87	-0.000
220.08	-0.000
220.30	-0.000
220.51	-0.000
220.72	-0.000
220.94	-0.000
221.15	-0.000
221.37	-0.000
221.58	-0.000
221.79	-0.000
222.01	-0.000
222.22	-0.000
222.44	-0.000
222.65	-0.000
222.87	-0.000
223.08	-0.000
223.29	-0.000
223.51	-0.000
223.72	-0.000
223.94	-0.000
224.15	-0.000
224.36	-0.000
224.58	-0.000
224.79	-0.000
225.01	-0.000
225.22	-0.000
225.44	-0.000
225.65	-0.000
225.86	-0.000
226.08	-0.000
226.29	-0.000
226.51	-0.000
226.72	-0.000
226.93	-0.000
227.15	-0.000
227.36	-0.000
227.58	-0.000
227.79	-0.000
228.00	-0.000
228.22	-0.000
228.43	-0.000
228.65	-0.000
228.86	-0.000
229.07	-0.000
229.29	-0.000
229.50	-0.000
229.72	-0.000
229.93	-0.000
230.14	-0.000
230.36	-0.000
230.57	-0.000
230.78	-0.000
231.00	-0.000
231.21	-0.000
231.43	-0.000
231.64	-0.000
231.85	-0.000
232.07	-0.000
232.28	-0.000
232.50	-0.000
232.71	-0.000
232.92	-0.000
233.14	-0.000
233.35	-0.000
233.56	-0.000
233.78	-0.000
233.99	-0.000
234.21	-0.000
234.42	-0.000
234.63	-0.000
234.85	-0.000
235.06	-0.000
235.27	-0.000
235.49	-0.000
235.70	-0.000
235.91	-0.000
236.13	-0.000
236.34	-0.000
236.56	-0.000
236.77	-0.000
236.98	-0.000
237.20	-0.000
237.41	-0.000
237.62	-0.000
237.84	-0.000
238.05	-0.000
238.26	-0.000
238.48	-0.000
238.69	-0.000
238.91	-0.000
239.12	-0.000
239.33	-0.000
239.55	-0.000
239.76	-0.000
239.97	-0.000
240.19	-0.000
240.40	-0.000
240.61	-0.000
240.83	-0.000
241.04	-0.000
241.25	-0.000
241.47	-0.000
241.68	-0.000
241.89	-0.000
242.11	-0.000
242.32	-0.000
242.53	-0.000
242.75	-0.000
242.96	-0.000
243.17	-0.000
243.39	-0.000
243.60	-0.000
243.81	-0.000
244.03	-0.000
244.24	-0.000
244.45	-0.000
244.67	-0.000
244.88	-0.000
245.09	-0.000
245.31	-0.000
245.52	-0.000
245.73	-0.000
245.95	-0.000
246.16	-0.000
246.37	-0.000
246.59	-0.000
246.80	-0.000
247.01	-0.000
247.23	-0.000
247.44	-0.000
247.65	-0.000
247.87	-0.000
248.08	-0.000
248.29	-0.000
248.51	-0.000
248.72	-0.000
248.93	-0.000
249.15	-0.000
249.36	-0.000
249.57	-0.000
249.78	-0.000
250.00	-0.000
250.21	-0.000
250.42	-0.000
250.64	-0.000
250.85	-0.000
251.06	-0.000
251.28	-0.000
251.49	-0.000
251.70	-0.000
251.92	-0.000
252.13	-0.000
252.34	-0.000
252.55	-0.000
252.77	-0.000
252.98	-0.000
253.19	-0.000
253.41	-0.000
253.62	-0.000
253.83	-0.000
254.05	-0.000
254.26	-0.000
254.47	-0.000
254.68	-0.000
254.90	-0.000
255.11	-0.000
255.32	-0.000
255.54	-0.000
255.75	-0.000
255.96	-0.000
256.17	-0.000
256.39	-0.000
256.60	-0.000
256.81	-0.000
257.03	-0.000
257.24	-0.000
257.45	-0.000
257.66	-0.000
257.88	-0.000
258.09	-0.000
258.30	-0.000
258.51	-0.000
258.73	-0.000
258.94	-0.000
259.15	-0.000
259.37	-0.000
259.58	-0.000
259.79	-0.000
260.00	-0.000
260.22	-0.000
260.43	-0.000
260.64	-0.000
260.85	-0.000
261.07	-0.000
261.28	-0.000
261.49	-0.000
261.71	-0.000
261.92	-0.000
262.13	-0.000
262.34	-0.000
262.56	-0.000
262.77	-0.000
262.98	-0.000
263.19	-0.000
263.41	-0.000
263.62	-0.000
263.83	-0.000
264.04	-0.000
264.26	-0.000
264.47	-0.000
264.68	-0.000
264.89	-0.000
265.11	-0.000
265.32	-0.000
265.53	-0.000
265.74	-0.000
265.96	-0.000
266.17	-0.000
266.38	-0.000
266.59	-0.000
266.81	-0.000
267.02	-0.000
267.23	-0.000
267.44	-0.000
267.65	-0.000
267.87	-0.000
268.08	-0.000
268.29	-0.000
268.50	-0.000
268.72	-0.000
268.93	-0.000
269.14	-0.000
269.35	-0.000
269.57	-0.000
269.78	-0.000
269.99	-0.000
270.20	-0.000
270.41	-0.000
270.63	-0.000
270.84	-0.000
271.05	-0.000
271.26	-0.000
271.48	-0.000
271.69	-0.000
271.90	-0.000
272.11	-0.000
272.32	-0.000
272.54	-0.000
272.75	-0.000
272.96	-0.000
273.17	-0.000
273.39	-0.000
273.60	-0.000
273.81	-0.000
274.02	-0.000
274.23	-0.000
274.45	-0.000
274.66	-0.000
274.87	-0.000
275.08	-0.000
275.29	-0.000
275.51	-0.000
275.72	-0.000
275.93	-0.000
276.14	-0.000
276.35	-0.000
276.57	-0.000
276.78	-0.000
276.99	-0.000
277.20	-0.000
277.41	-0.000
277.63	-0.000
277.84	-0.000
278.05	-0.000
278.26	-0.000
278.47	-0.000
278.69	-0.000
278.90	-0.000
279.11	-0.000
279.32	-0.000
279.53	-0.000
279.74	-0.000
279.96	-0.000
280.17	-0.000
280.38	-0.000
280.59	-0.000
280.80	-0.000
281.02	-0.000
281.23	-0.000
281.44	-0.000
281.65	-0.000
281.86	-0.000
282.07	-0.000
282.29	-0.000
282.50	-0.000
282.71	-0.000
282.92	-0.000
283.13	-0.000
283.35	-0.000
283.56	-0.000
283.77	-0.000
283.98	-0.000
284.19	-0.000
284.40	-0.000
284.62	-0.000
284.83	-0.000
285.04	-0.000
285.25	-0.000
285.46	-0.000
285.67	-0.000
285.88	-0.000
286.10	-0.000
286.31	-0.000
286.52	-0.000
286.73	-0.000
286.94	-0.000
287.15	-0.000
287.37	-0.000
287.58	-0.000
287.79	-0.000
288.00	-0.000
288.21	-0.000
288.42	-0.000
288.63	-0.000
288.85	-0.000
289.06	-0.000
289.27	-0.000
289.48	-0.000
289.69	-0.000
289.90	-0.000
290.11	-0.000
290.33	-0.000
290.54	-0.000
290.75	-0.000
290.96	-0.000
291.17	-0.000
291.38	-0.000
291.59	-0.000
291.81	-0.000
292.02	-0.000
292.23	-0.000
292.44	-0.000
292.65	-0.000
292.86	-0.000
293.07	-0.000
293.28	2.678
293.50	-0.000
293.71	-0.000
293.92	-0.000
294.13	-0.000
294.34	-0.000
294.55	-0.000
294.76	-0.000
294.97	4.025
295.19	-0.000
295.40	-0.000
295.61	-0.000
295.82	2.403
296.03	2.088
296.24	2.255
296.45	1.795
296.66	1.564
296.87	1.577
297.09	1.633
297.30	1.742
297.51	1.518
297.72	1.492
297.93	1.569
298.14	1.547
298.35	1.502
298.56	1.486
298.77	1.581
298.99	1.561
299.20	1.526
299.41	1.508
299.62	1.488
299.83	1.481
300.04	1.427
300.25	1.416
300.46	1.458
300.67	1.433
300.88	1.382
301.10	1.377
301.31	1.438
301.52	1.391
301.73	1.344
301.94	1.345
302.15	1.364
302.36	1.328
302.57	1.273
302.78	1.280
302.99	1.316
303.20	1.325
303.41	1.255
303.63	1.238
303.84	1.248
304.05	1.244
304.26	1.192
304.47	1.194
304.68	1.202
304.89	1.194
305.10	1.153
305.31	1.143
305.52	1.180
305.73	1.174
305.94	1.141
306.15	1.139
306.37	1.162
306.58	1.168
306.79	1.139
307.00	1.154
307.21	1.191
307.42	1.188
307.63	1.157
307.84	1.132
308.05	1.165
308.26	1.165
308.47	1.140
308.68	1.135
308.89	1.140
309.10	1.137
309.31	1.101
309.52	1.092
309.73	1.107
309.95	1.102
310.16	1.077
310.37	1.069
310.58	1.084
310.79	1.082
311.00	1.074
311.21	1.076
311.42	1.081
311.63	1.078
311.84	1.060
312.05	1.058
312.26	1.078
312.47	1.088
312.68	1.065
312.89	1.051
313.10	1.059
313.31	1.037
313.52	1.035
313.73	1.036
313.94	1.041
314.15	1.025
314.36	1.007
314.57	1.000
314.78	0.990
314.99	0.985
315.21	0.972
315.42	0.974
315.63	0.989
315.84	0.968
316.05	0.953
316.26	0.959
316.47	0.977
316.68	0.972
316.89	0.955
317.10	0.971
317.31	0.980
317.52	0.981
317.73	0.962
317.94	0.960
318.15	1.000
318.36	1.001
318.57	0.983
318.78	0.973
318.99	1.008
319.20	1.007
319.41	0.977
319.62	0.976
319.83	0.990
320.04	0.987
320.25	0.974
320.46	0.943
320.67	0.947
320.88	0.945
321.09	0.931
321.30	0.916
321.51	0.928
321.72	0.926
321.93	0.911
322.14	0.904
322.35	0.928
322.56	0.930
322.77	0.920
322.98	0.929
323.19	0.938
323.40	0.943
323.61	0.924
323.82	0.920
324.03	0.926
324.24	0.923
324.45	0.911
324.66	0.894
324.87	0.895
325.08	0.894
325.29	0.875
325.50	0.873
325.71	0.878
325.92	0.886
326.13	0.872
326.34	0.871
326.55	0.881
326.76	0.880
326.97	0.870
327.18	0.863
327.39	0.886
327.60	0.888
327.80	0.882
328.01	0.881
328.22	0.882
328.43	0.886
328.64	0.875
328.85	0.878
329.06	0.881
329.27	0.880
329.48	0.874
329.69	0.858
329.90	0.867
330.11	0.862
330.32	0.853
330.53	0.848
330.74	0.850
330.95	0.849
331.16	0.836
331.37	0.843
331.58	0.844
331.79	0.844
332.00	0.834
332.21	0.828
332.42	0.833
332.63	0.826
332.83	0.820
333.04	0.821
333.25	0.833
333.46	0.832
333.67	0.818
333.88	0.820
334.09	0.829
334.30	0.826
334.51	0.818
334.72	0.814
334.93	0.819
335.14	0.818
335.35	0.811
335.56	0.806
335.77	0.815
335.98	0.814
336.18	0.808
336.39	0.802
336.60	0.808
336.81	0.806
337.02	0.804
337.23	0.808
337.44	0.811
337.65	0.812
337.86	0.803
338.07	0.799
338.28	0.805
338.49	0.804
338.70	0.796
338.91	0.802
339.11	0.810
339.32	0.807
339.53	0.795
339.74	0.792
339.95	0.791
340.16	0.788
340.37	0.779
340.58	0.778
340.79	0.783
341.00	0.784
341.21	0.773
341.41	0.774
341.62	0.776
341.83	0.778
342.04	0.773
342.25	0.782
342.46	0.789
342.67	0.788
342.88	0.780
343.09	0.779
343.30	0.785
343.50	0.788
343.71	0.778
343.92	0.778
344.13	0.784
344.34	0.783
344.55	0.767
344.76	0.765
344.97	0.770
345.18	0.770
345.38	0.766
345.59	0.761
345.80	0.761
346.01	0.760
346.22	0.754
346.43	0.749
346.64	0.758
346.85	0.758
347.06	0.751
347.26	0.752
347.47	0.757
347.68	0.753
347.89	0.750
348.10	0.746
348.31	0.753
348.52	0.753
348.73	0.750
348.93	0.746
349.14	0.749
349.35	0.748
349.56	0.740
349.77	0.736
349.98	0.743
350.19	0.740
350.39	0.735
350.60	0.731
350.81	0.746
351.02	0.744
351.23	0.741
351.44	0.743
351.65	0.748
351.86	0.746
352.06	0.744
352.27	0.744
352.48	0.747
352.69	0.747
352.90	0.742
353.11	0.729
353.31	0.737
353.52	0.733
353.73	0.724
353.94	0.726
354.15	0.731
354.36	0.732
354.57	0.723
354.77	0.724
354.98	0.724
355.19	0.723
355.40	0.722
355.61	0.728
355.82	0.734
356.02	0.734
356.23	0.727
356.44	0.728
356.65	0.733
356.86	0.733
357.07	0.727
357.27	0.731
357.48	0.734
357.69	0.731
357.90	0.716
358.11	0.714
358.32	0.718
358.52	0.720
358.73	0.711
358.94	0.714
359.15	0.718
359.36	0.719
359.56	0.714
359.77	0.711
359.98	0.718
360.19	0.718
360.40	0.713
360.61	0.714
360.81	0.714
361.02	0.715
361.23	0.707
361.44	0.706
361.65	0.708
361.85	0.708
362.06	0.706
362.27	0.708
362.48	0.708
362.69	0.710
362.89	0.704
363.10	0.705
363.31	0.710
363.52	0.712
363.73	0.707
363.93	0.706
364.14	0.710
364.35	0.712
364.56	0.701
364.77	0.704
364.97	0.707
365.18	0.708
365.39	0.703
365.60	0.700
365.81	0.701
366.01	0.701
366.22	0.698
366.43	0.696
366.64	0.699
366.84	0.704
367.05	0.700
367.26	0.700
367.47	0.702
367.68	0.702
367.88	0.699
368.09	0.698
368.30	0.702
368.51	0.701
368.71	0.700
368.92	0.704
369.13	0.702
369.34	0.702
369.55	0.700
369.75	0.699
369.96	0.706
370.17	0.706
370.38	0.702
370.58	0.701
370.79	0.708
371.00	0.706
371.21	0.697
371.41	0.702
371.62	0.706
371.83	0.703
372.04	0.700
372.24	0.693
372.45	0.695
372.66	0.695
372.87	0.692
373.07	0.690
373.28	0.692
373.49	0.695
373.70	0.685
373.90	0.685
374.11	0.694
374.32	0.693
374.53	0.693
374.73	0.693
374.94	0.696
375.15	0.696
375.36	0.692
375.56	0.700
375.77	0.701
375.98	0.701
376.19	0.698
376.39	0.692
376.60	0.697
376.81	0.697
377.02	0.695
377.22	0.694
377.43	0.694
377.64	0.694
377.84	0.685
378.05	0.689
378.26	0.695
378.47	0.695
378.67	0.691
378.88	0.688
379.09	0.689
379.30	0.690
379.50	0.687
379.71	0.690
379.92	0.694
380.12	0.693
380.33	0.684
380.54	0.680
380.75	0.688
380.95	0.688
381.16	0.685
381.37	0.684
381.57	0.686
381.78	0.687
381.99	0.686
382.20	0.685
382.40	0.689
382.61	0.690
382.82	0.687
383.02	0.679
383.23	0.683
383.44	0.682
383.64	0.680
383.85	0.682
384.06	0.684
384.27	0.682
384.47	0.679
384.68	0.679
384.89	0.686
385.09	0.685
385.30	0.684
385.51	0.683
385.71	0.688
385.92	0.688
386.13	0.686
386.33	0.688
386.54	0.689
386.75	0.688
386.95	0.683
387.16	0.677
387.37	0.680
387.58	0.681
387.78	0.678
387.99	0.676
388.20	0.678
388.40	0.675
388.61	0.671
388.82	0.674
389.02	0.677
389.23	0.677
389.44	0.675
389.64	0.676
389.85	0.686
390.06	0.686
390.26	0.686
390.47	0.684
390.68	0.687
390.88	0.686
391.09	0.681
391.30	0.681
391.50	0.680
391.71	0.680
391.92	0.676
392.12	0.669
392.33	0.670
392.53	0.669
392.74	0.669
392.95	0.670
393.15	0.672
393.36	0.674
393.57	0.670
393.77	0.673
393.98	0.675
394.19	0.675
394.39	0.673
394.60	0.674
394.81	0.676
395.01	0.674
395.22	0.670
395.43	0.671
395.63	0.676
395.84	0.677
396.04	0.672
396.25	0.674
396.46	0.676
396.66	0.674
396.87	0.671
397.08	0.669
397.28	0.671
397.49	0.672
397.69	0.668
397.90	0.663
398.11	0.665
398.31	0.665
398.52	0.661
398.73	0.662
398.93	0.662
399.14	0.662
399.34	0.660
399.55	0.661
399.76	0.662
399.96	0.663
400.17	0.662
400.37	0.660
400.58	0.666
400.79	0.668
400.99	0.665
401.20	0.670
401.41	0.672
401.61	0.672
401.82	0.676
402.02	0.675
402.23	0.676
402.44	0.675
402.64	0.675
402.85	0.670
403.05	0.669
403.26	0.668
403.47	0.662
403.67	0.661
403.88	0.662
404.08	0.656
404.29	0.653
404.50	0.653
404.70	0.654
404.91	0.653
405.11	0.649
405.32	0.650
405.52	0.650
405.73	0.649
405.94	0.648
406.14	0.650
406.35	0.653
406.55	0.652
406.76	0.650
406.97	0.651
407.17	0.653
407.38	0.653
407.58	0.651
407.79	0.654
407.99	0.657
408.20	0.657
408.41	0.653
408.61	0.650
408.82	0.652
409.02	0.651
409.23	0.649
409.43	0.648
409.64	0.649
409.84	0.648
410.05	0.644
410.26	0.643
410.46	0.642
410.67	0.642
410.87	0.643
411.08	0.644
411.28	0.646
411.49	0.647
411.69	0.645
411.90	0.646
412.11	0.649
412.31	0.650
412.52	0.649
412.72	0.650
412.93	0.651
413.13	0.650
413.34	0.647
413.54	0.648
413.75	0.649
413.95	0.649
414.16	0.645
414.37	0.648
414.57	0.648
414.78	0.650
414.98	0.648
415.19	0.649
415.39	0.647
415.60	0.649
415.80	0.648
416.01	0.647
416.21	0.649
416.42	0.650
416.62	0.645
416.83	0.646
417.03	0.645
417.24	0.645
417.44	0.643
417.65	0.643
417.86	0.644
418.06	0.642
418.27	0.640
418.47	0.641
418.68	0.642
418.88	0.642
419.09	0.640
419.29	0.641
419.50	0.642
419.70	0.641
419.91	0.639
420.11	0.637
420.32	0.640
420.52	0.640
420.73	0.639
420.93	0.640
421.14	0.642
421.34	0.641
421.55	0.637
421.75	0.637
421.96	0.639
422.16	0.639
422.37	0.638
422.57	0.635
422.78	0.637
422.98	0.634
423.19	0.632
423.39	0.631
423.60	0.635
423.80	0.637
424.01	0.636
424.21	0.638
424.42	0.639
424.62	0.639
424.83	0.638
425.03	0.638
425.23	0.641
425.44	0.641
425.64	0.641
425.85	0.639
426.05	0.641
426.26	0.641
426.46	0.638
426.67	0.637
426.87	0.642
427.08	0.643
427.28	0.641
427.49	0.642
427.69	0.643
427.90	0.642
428.10	0.639
428.31	0.638
428.51	0.640
428.71	0.639
428.92	0.639
429.12	0.637
429.33	0.638
429.53	0.641
429.74	0.645
429.94	0.645
430.15	0.646
430.35	0.646
430.56	0.643
430.76	0.643
430.96	0.644
431.17	0.642
431.37	0.639
431.58	0.637
431.78	0.635
431.99	0.629
432.19	0.631
432.40	0.633
432.60	0.634
432.80	0.636
433.01	0.634
433.21	0.635
433.42	0.637
433.62	0.638
433.83	0.637
434.03	0.639
434.23	0.643
434.44	0.642
434.64	0.640
434.85	0.644
435.05	0.645
435.26	0.646
435.46	0.644
435.66	0.643
435.87	0.643
436.07	0.643
436.28	0.639
436.48	0.636
436.69	0.636
436.89	0.636
437.09	0.631
437.30	0.630
437.50	0.631
437.71	0.643
437.91	0.642
438.11	0.643
438.32	0.648
438.52	0.648
438.73	0.647
438.93	0.646
439.13	0.646
439.34	0.650
439.54	0.647
439.75	0.647
439.95	0.638
440.15	0.642
440.36	0.640
440.56	0.638
440.77	0.640
440.97	0.640
441.17	0.639
441.38	0.640
441.58	0.638
441.79	0.638
441.99	0.636
442.19	0.635
442.40	0.633
442.60	0.633
442.81	0.631
443.01	0.631
443.21	0.633
443.42	0.632
443.62	0.630
443.82	0.630
444.03	0.631
444.23	0.632
444.44	0.632
444.64	0.631
444.84	0.633
445.05	0.633
445.25	0.630
445.45	0.630
445.66	0.634
445.86	0.633
446.06	0.634
446.27	0.634
446.47	0.638
446.68	0.635
446.88	0.634
447.08	0.634
447.29	0.636
447.49	0.637
447.69	0.636
447.90	0.634
448.10	0.639
448.30	0.636
448.51	0.637
448.71	0.635
448.91	0.638
449.12	0.637
449.32	0.639
449.52	0.638
449.73	0.642
449.93	0.641
450.14	0.641
450.34	0.641
450.54	0.643
450.75	0.640
450.95	0.640
451.15	0.639
451.36	0.643
451.56	0.639
451.76	0.638
451.97	0.635
452.17	0.636
452.37	0.634
452.58	0.630
452.78	0.629
452.98	0.633
453.19	0.632
453.39	0.632
453.59	0.631
453.79	0.633
454.00	0.633
454.20	0.632
454.40	0.633
454.61	0.636
454.81	0.637
455.01	0.635
455.22	0.636
455.42	0.638
455.62	0.636
455.83	0.635
456.03	0.638
456.23	0.639
456.44	0.640
456.64	0.638
456.84	0.637
457.04	0.638
457.25	0.638
457.45	0.635
457.65	0.634
457.86	0.635
458.06	0.634
458.26	0.629
458.47	0.629
458.67	0.630
458.87	0.631
459.07	0.628
459.28	0.630
459.48	0.633
459.68	0.632
459.89	0.631
460.09	0.630
460.29	0.632
460.49	0.634
460.70	0.633
460.90	0.633
461.10	0.634
461.31	0.634
461.51	0.631
461.71	0.632
461.91	0.635
462.12	0.635
462.32	0.633
462.52	0.634
462.72	0.637
462.93	0.637
463.13	0.635
463.33	0.635
463.53	0.637
463.74	0.637
463.94	0.632
464.14	0.633
464.35	0.634
464.55	0.635
464.75	0.632
464.95	0.629
465.16	0.632
465.36	0.631
465.56	0.630
465.76	0.629
465.97	0.630
466.17	0.631
466.37	0.628
466.57	0.630
466.78	0.631
466.98	0.632
467.18	0.630
467.38	0.628
467.59	0.631
467.79	0.632
467.99	0.630
468.19	0.632
468.39	0.635
468.60	0.635
468.80	0.633
469.00	0.634
469.20	0.637
469.41	0.637
469.61	0.635
469.81	0.635
470.01	0.635
470.22	0.635
470.42	0.633
470.62	0.631
470.82	0.633
471.02	0.632
471.23	0.629
471.43	0.629
471.63	0.632
471.83	0.632
472.04	0.630
472.24	0.629
472.44	0.635
472.64	0.634
472.84	0.632
473.05	0.631
473.25	0.635
473.45	0.634
473.65	0.632
473.85	0.633
474.06	0.634
474.26	0.634
474.46	0.634
474.66	0.631
474.86	0.633
475.07	0.633
475.27	0.631
475.47	0.629
475.67	0.630
475.87	0.632
476.08	0.628
476.28	0.629
476.48	0.631
476.68	0.630
476.88	0.627
477.09	0.628
477.29	0.630
477.49	0.630
477.69	0.629
477.89	0.629
478.09	0.629
478.30	0.631
478.50	0.628
478.70	0.628
478.90	0.628
479.10	0.631
479.31	0.631
479.51	0.629
479.71	0.631
479.91	0.630
480.11	0.629
480.31	0.629
480.52	0.629
480.72	0.629
480.92	0.628
481.12	0.627
481.32	0.625
481.52	0.623
481.72	0.623
481.93	0.626
482.13	0.627
482.33	0.627
482.53	0.624
482.73	0.625
482.93	0.626
483.14	0.625
483.34	0.625
483.54	0.626
483.74	0.626
483.94	0.625
484.14	0.620
484.34	0.620
484.55	0.622
484.75	0.622
484.95	0.620
485.15	0.619
485.35	0.620
485.55	0.619
485.75	0.616
485.96	0.617
486.16	0.619
486.36	0.619
486.56	0.617
486.76	0.617
486.96	0.618
487.16	0.618
487.36	0.616
487.57	0.616
487.77	0.617
487.97	0.618
488.17	0.616
488.37	0.615
488.57	0.616
488.77	0.616
488.97	0.614
489.18	0.614
489.38	0.616
489.58	0.617
489.78	0.616
489.98	0.615
490.18	0.616
490.38	0.616
490.58	0.615
490.78	0.616
490.98	0.617
491.19	0.617
491.39	0.616
491.59	0.615
491.79	0.618
491.99	0.618
492.19	0.618
492.39	0.621
492.59	0.621
492.79	0.623
492.99	0.622
493.20	0.623
493.40	0.623
493.60	0.625
493.80	0.623
494.00	0.621
494.20	0.622
494.40	0.622
494.60	0.619
494.80	0.623
495.00	0.622
495.20	0.621
495.40	0.619
495.61	0.622
495.81	0.622
496.01	0.625
496.21	0.626
496.41	0.626
496.61	0.627
496.81	0.626
497.01	0.621
497.21	0.620
497.41	0.621
497.61	0.621
497.81	0.618
498.01	0.619
498.21	0.617
498.41	0.615
498.61	0.615
498.82	0.616
499.02	0.619
499.22	0.619
499.42	0.618
499.62	0.619
499.82	0.620
500.02	0.621
500.22	0.619
500.42	0.621
500.62	0.622
500.82	0.622
501.02	0.620
501.22	0.620
501.42	0.621
501.62	0.623
501.82	0.622
502.02	0.622
502.22	0.622
502.42	0.625
502.62	0.622
502.82	0.622
503.02	0.623
503.22	0.623
503.42	0.620
503.63	0.620
503.83	0.619
504.03	0.617
504.23	0.615
504.43	0.616
504.63	0.617
504.83	0.617
505.03	0.616
505.23	0.617
505.43	0.619
505.63	0.620
505.83	0.620
506.03	0.622
506.23	0.625
506.43	0.625
506.63	0.624
506.83	0.623
507.03	0.625
507.23	0.625
507.43	0.622
507.63	0.623
507.83	0.623
508.03	0.622
508.23	0.621
508.43	0.620
508.63	0.622
508.83	0.622
509.03	0.623
509.23	0.622
509.43	0.623
509.63	0.624
509.83	0.622
510.03	0.625
510.23	0.628
510.43	0.628
510.63	0.628
510.83	0.628
511.03	0.630
511.23	0.628
511.43	0.626
511.63	0.628
511.83	0.631
512.03	0.631
512.22	0.627
512.42	0.627
512.62	0.628
512.82	0.628
513.02	0.626
513.22	0.626
513.42	0.628
513.62	0.631
513.82	0.629
514.02	0.628
514.22	0.629
514.42	0.630
514.62	0.629
514.82	0.629
515.02	0.632
515.22	0.635
515.42	0.634
515.62	0.636
515.82	0.636
516.02	0.637
516.22	0.636
516.42	0.638
516.62	0.640
516.82	0.641
517.01	0.639
517.21	0.638
517.41	0.642
517.61	0.643
517.81	0.638
518.01	0.638
518.21	0.638
518.41	0.637
518.61	0.636
518.81	0.636
519.01	0.637
519.21	0.638
519.41	0.636
519.61	0.631
519.81	0.634
520.00	0.635
520.20	0.634
520.40	0.637
520.60	0.638
520.80	0.638
521.00	0.638
521.20	0.639
521.40	0.644
521.60	0.644
521.80	0.643
522.00	0.643
522.20	0.646
522.39	0.646
522.59	0.642
522.79	0.644
522.99	0.647
523.19	0.644
523.39	0.641
523.59	0.639
523.79	0.642
523.99	0.645
524.19	0.644
524.38	0.642
524.58	0.644
524.78	0.644
524.98	0.642
525.18	0.644
525.38	0.646
525.58	0.647
525.78	0.644
525.98	0.642
526.18	0.643
526.37	0.642
526.57	0.644
526.77	0.644
526.97	0.645
527.17	0.645
527.37	0.642
527.57	0.644
527.77	0.647
527.96	0.647
528.16	0.646
528.36	0.647
528.56	0.649
528.76	0.647
528.96	0.646
529.16	0.647
529.36	0.651
529.55	0.650
529.75	0.647
529.95	0.646
530.15	0.648
530.35	0.651
530.55	0.648
530.75	0.648
530.94	0.650
531.14	0.649
531.34	0.647
531.54	0.645
531.74	0.649
531.94	0.652
532.13	0.649
532.33	0.651
532.53	0.649
532.73	0.648
532.93	0.647
533.13	0.648
533.33	0.649
533.52	0.650
533.72	0.652
533.92	0.650
534.12	0.649
534.32	0.649
534.52	0.648
534.71	0.650
534.91	0.653
535.11	0.655
535.31	0.652
535.51	0.654
535.71	0.656
535.90	0.653
536.10	0.655
536.30	0.656
536.50	0.658
536.70	0.658
536.89	0.656
537.09	0.655
537.29	0.658
537.49	0.658
537.69	0.656
537.89	0.657
538.08	0.657
538.28	0.655
538.48	0.655
538.68	0.657
538.88	0.658
539.07	0.658
539.27	0.656
539.47	0.655
539.67	0.656
539.87	0.658
540.06	0.655
540.26	0.656
540.46	0.659
540.66	0.656
540.86	0.653
541.05	0.653
541.25	0.655
541.45	0.655
541.65	0.653
541.84	0.655
542.04	0.656
542.24	0.656
542.44	0.655
542.64	0.655
542.83	0.658
543.03	0.659
543.23	0.656
543.43	0.657
543.62	0.659
543.82	0.659
544.02	0.657
544.22	0.657
544.42	0.661
544.61	0.661
544.81	0.658
545.01	0.657
545.21	0.659
545.40	0.660
545.60	0.658
545.80	0.661
546.00	0.662
546.19	0.661
546.39	0.659
546.59	0.657
546.79	0.659
546.98	0.659
547.18	0.658
547.38	0.659
547.58	0.663
547.77	0.663
547.97	0.659
548.17	0.661
548.37	0.662
548.56	0.662
548.76	0.660
548.96	0.662
549.16	0.666
549.35	0.666
549.55	0.663
549.75	0.662
549.95	0.667
550.14	0.667
550.34	0.664
550.54	0.669
550.73	0.674
550.93	0.674
551.13	0.671
551.33	0.669
551.52	0.670
551.72	0.671
551.92	0.669
552.12	0.669
552.31	0.670
552.51	0.670
552.71	0.664
552.90	0.664
553.10	0.665
553.30	0.666
553.50	0.664
553.69	0.666
553.89	0.667
554.09	0.667
554.28	0.664
554.48	0.665
554.68	0.667
554.87	0.667
555.07	0.664
555.27	0.665
555.47	0.667
555.66	0.668
555.86	0.665
556.06	0.667
556.25	0.669
556.45	0.677
556.65	0.675
556.84	0.679
557.04	0.683
557.24	0.684
557.43	0.682
557.63	0.686
557.83	0.688
558.02	0.688
558.22	0.691
558.42	0.691
558.61	0.685
558.81	0.686
559.01	0.681
559.21	0.681
559.40	0.683
559.60	0.683
559.80	0.678
559.99	0.679
560.19	0.683
560.39	0.677
560.58	0.674
560.78	0.675
560.97	0.679
561.17	0.677
561.37	0.674
561.56	0.674
561.76	0.676
561.96	0.676
562.15	0.673
562.35	0.675
562.55	0.677
562.74	0.677
562.94	0.676
563.14	0.673
563.33	0.675
563.53	0.676
563.73	0.673
563.92	0.675
564.12	0.678
564.31	0.681
564.51	0.678
564.71	0.679
564.90	0.682
565.10	0.682
565.30	0.685
565.49	0.685
565.69	0.687
565.89	0.688
566.08	0.684
566.28	0.686
566.47	0.687
566.67	0.685
566.87	0.681
567.06	0.682
567.26	0.690
567.46	0.686
567.65	0.684
567.85	0.685
568.04	0.688
568.24	0.687
568.44	0.683
568.63	0.682
568.83	0.684
569.02	0.683
569.22	0.677
569.42	0.673
569.61	0.676
569.81	0.675
570.00	0.672
570.20	0.674
570.40	0.676
570.59	0.676
570.79	0.673
570.98	0.672
571.18	0.674
571.38	0.674
571.57	0.671
571.77	0.668
571.96	0.672
572.16	0.670
572.35	0.664
572.55	0.665
572.75	0.664
572.94	0.664
573.14	0.661
573.33	0.662
573.53	0.663
573.73	0.662
573.92	0.659
574.12	0.657
574.31	0.661
574.51	0.661
574.70	0.658
574.90	0.659
575.09	0.662
575.29	0.663
575.49	0.660
575.68	0.660
575.88	0.662
576.07	0.664
576.27	0.662
576.46	0.661
576.66	0.661
576.86	0.660
577.05	0.657
577.25	0.656
577.44	0.657
577.64	0.657
577.83	0.655
578.03	0.655
578.22	0.655
578.42	0.654
578.61	0.652
578.81	0.653
579.00	0.654
579.20	0.654
579.40	0.652
579.59	0.651
579.79	0.652
579.98	0.652
580.18	0.651
580.37	0.651
580.57	0.654
580.76	0.658
580.96	0.656
581.15	0.656
581.35	0.659
581.54	0.658
581.74	0.657
581.93	0.659
582.13	0.660
582.32	0.658
582.52	0.657
582.71	0.656
582.91	0.653
583.10	0.653
583.30	0.652
583.49	0.651
583.69	0.656
583.88	0.657
584.08	0.655
584.27	0.657
584.47	0.661
584.66	0.661
584.86	0.659
585.05	0.660
585.25	0.663
585.44	0.662
585.64	0.661
585.83	0.657
586.03	0.658
586.22	0.657
586.42	0.654
586.61	0.656
586.81	0.659
587.00	0.660
587.20	0.658
587.39	0.658
587.59	0.661
587.78	0.663
587.98	0.663
588.17	0.664
588.37	0.667
588.56	0.668
588.76	0.664
588.95	0.664
589.15	0.667
589.34	0.669
589.54	0.667
589.73	0.667
589.92	0.670
590.12	0.670
590.31	0.667
590.51	0.672
590.70	0.674
590.90	0.674
591.09	0.671
591.29	0.670
591.48	0.670
591.68	0.671
591.87	0.668
592.06	0.669
592.26	0.672
592.45	0.672
592.65	0.665
592.84	0.665
593.04	0.668
593.23	0.670
593.43	0.668
593.62	0.668
593.81	0.669
594.01	0.669
594.20	0.666
594.40	0.665
594.59	0.668
594.79	0.669
594.98	0.667
595.17	0.666
595.37	0.667
595.56	0.668
595.76	0.667
595.95	0.668
596.14	0.670
596.34	0.672
596.53	0.669
596.73	0.670
596.92	0.672
597.12	0.674
597.31	0.673
597.50	0.672
597.70	0.674
597.89	0.673
598.09	0.669
598.28	0.671
598.47	0.674
598.67	0.673
598.86	0.669
599.06	0.671
599.25	0.672
599.44	0.671
599.64	0.668
599.83	0.666
600.03	0.670
600.22	0.671
600.41	0.670
600.61	0.668
600.80	0.671
601.00	0.672
601.19	0.667
601.38	0.666
601.58	0.669
601.77	0.670
601.96	0.672
602.16	0.671
602.35	0.682
602.55	0.679
602.74	0.679
602.93	0.680
603.13	0.685
603.32	0.686
603.51	0.685
603.71	0.688
603.90	0.690
604.09	0.690
604.29	0.686
604.48	0.680
604.68	0.682
604.87	0.681
605.06	0.677
605.26	0.674
605.45	0.675
605.64	0.674
605.84	0.668
606.03	0.668
606.22	0.667
606.42	0.667
606.61	0.663
606.80	0.664
607.00	0.666
607.19	0.667
607.38	0.665
607.58	0.667
607.77	0.671
607.96	0.671
608.16	0.669
608.35	0.674
608.54	0.678
608.74	0.682
608.93	0.686
609.12	0.689
609.32	0.692
609.51	0.696
609.70	0.693
609.90	0.695
610.09	0.699
610.28	0.705
610.48	0.698
610.67	0.700
610.86	0.701
611.06	0.695
611.25	0.692
611.44	0.693
611.64	0.692
611.83	0.695
612.02	0.691
612.21	0.690
612.41	0.689
612.60	0.688
612.79	0.683
612.99	0.683
613.18	0.684
613.37	0.682
613.57	0.678
613.76	0.680
613.95	0.679
614.14	0.679
614.34	0.676
614.53	0.677
614.72	0.681
614.92	0.681
615.11	0.677
615.30	0.674
615.49	0.677
615.69	0.681
615.88	0.676
616.07	0.679
616.26	0.682
616.46	0.683
616.65	0.680
616.84	0.679
617.04	0.681
617.23	0.684
617.42	0.685
617.61	0.689
617.81	0.690
618.00	0.692
618.19	0.689
618.38	0.693
618.58	0.696
618.77	0.697
618.96	0.696
619.15	0.697
619.35	0.700
619.54	0.700
619.73	0.694
619.92	0.696
620.12	0.701
620.31	0.701
620.50	0.695
620.69	0.695
620.89	0.700
621.08	0.699
621.27	0.699
621.46	0.698
621.66	0.703
621.85	0.703
622.04	0.698
622.23	0.698
622.43	0.700
622.62	0.699
622.81	0.698
623.00	0.697
623.19	0.702
623.39	0.701
623.58	0.697
623.77	0.696
623.96	0.700
624.16	0.701
624.35	0.695
624.54	0.699
624.73	0.703
624.92	0.701
625.12	0.698
625.31	0.699
625.50	0.703
625.69	0.705
625.88	0.700
626.08	0.700
626.27	0.702
626.46	0.703
626.65	0.698
626.84	0.698
627.04	0.704
627.23	0.704
627.42	0.698
627.61	0.699
627.80	0.703
628.00	0.704
628.19	0.702
628.38	0.706
628.57	0.709
628.76	0.709
628.96	0.705
629.15	0.707
629.34	0.711
629.53	0.712
629.72	0.705
629.91	0.706
630.11	0.712
630.30	0.712
630.49	0.713
630.68	0.715
630.87	0.720
631.06	0.721
631.26	0.715
631.45	0.717
631.64	0.726
631.83	0.730
632.02	0.726
632.21	0.725
632.41	0.732
632.60	0.726
632.79	0.723
632.98	0.723
633.17	0.724
633.36	0.726
633.55	0.721
633.75	0.717
633.94	0.719
634.13	0.719
634.32	0.716
634.51	0.710
634.70	0.713
634.89	0.713
635.09	0.709
635.28	0.711
635.47	0.714
635.66	0.718
635.85	0.712
636.04	0.715
636.23	0.720
636.43	0.721
636.62	0.719
636.81	0.719
637.00	0.723
637.19	0.727
637.38	0.722
637.57	0.721
637.76	0.723
637.95	0.724
638.15	0.719
638.34	0.716
638.53	0.721
638.72	0.722
638.91	0.718
639.10	0.713
639.29	0.715
639.48	0.715
639.67	0.714
639.87	0.713
640.06	0.719
640.25	0.719
640.44	0.719
640.63	0.718
640.82	0.722
641.01	0.722
641.20	0.722
641.39	0.722
641.58	0.726
641.78	0.725
641.97	0.720
642.16	0.734
642.35	0.736
642.54	0.735
642.73	0.728
642.92	0.727
643.11	0.733
643.30	0.732
643.49	0.726
643.68	0.730
643.87	0.733
644.06	0.732
644.25	0.711
644.45	0.714
644.64	0.716
644.83	0.717
645.02	0.713
645.21	0.711
645.40	0.713
645.59	0.713
645.78	0.705
645.97	0.707
646.16	0.710
646.35	0.709
646.54	0.707
646.73	0.706
646.92	0.709
647.11	0.708
647.30	0.704
647.49	0.706
647.68	0.707
647.88	0.706
648.07	0.697
648.26	0.700
648.45	0.702
648.64	0.698
648.83	0.695
649.02	0.697
649.21	0.709
649.40	0.707
649.59	0.701
649.78	0.702
649.97	0.718
650.16	0.718
650.35	0.712
650.54	0.715
650.73	0.725
650.92	0.723
651.11	0.716
651.30	0.712
651.49	0.717
651.68	0.718
651.87	0.713
652.06	0.702
652.25	0.706
652.44	0.705
652.63	0.698
652.82	0.695
653.01	0.694
653.20	0.691
653.39	0.678
653.58	0.676
653.77	0.676
653.96	0.671
654.15	0.663
654.34	0.661
654.53	0.659
654.72	0.655
654.91	0.646
655.10	0.643
655.29	0.643
655.48	0.641
655.67	0.635
655.86	0.633
656.05	0.632
656.24	0.632
656.43	0.626
656.62	0.626
656.81	0.628
657.00	0.628
657.19	0.626
657.38	0.627
657.57	0.628
657.76	0.631
657.95	0.629
658.14	0.633
658.33	0.638
658.51	0.644
658.70	0.644
658.89	0.644
659.08	0.652
659.27	0.658
659.46	0.657
659.65	0.662
659.84	0.666
660.03	0.669
660.22	0.670
660.41	0.674
660.60	0.674
660.79	0.677
660.98	0.682
661.17	0.681
661.36	0.681
661.55	0.680
661.74	0.677
661.92	0.680
662.11	0.683
662.30	0.680
662.49	0.672
662.68	0.671
662.87	0.676
663.06	0.670
663.25	0.669
663.44	0.669
663.63	0.671
663.82	0.670
664.01	0.664
664.20	0.662
664.38	0.664
664.57	0.664
664.76	0.662
664.95	0.663
665.14	0.669
665.33	0.664
665.52	0.671
665.71	0.675
665.90	0.675
666.09	0.677
666.28	0.674
666.46	0.673
666.65	0.675
666.84	0.674
667.03	0.668
667.22	0.665
667.41	0.669
667.60	0.657
667.79	0.650
667.98	0.652
668.16	0.653
668.35	0.654
668.54	0.649
668.73	0.650
668.92	0.650
669.11	0.649
669.30	0.642
669.49	0.639
669.67	0.642
669.86	0.644
670.05	0.641
670.24	0.638
670.43	0.636
670.62	0.636
670.81	0.630
671.00	0.630
671.18	0.631
671.37	0.631
671.56	0.628
671.75	0.628
671.94	0.626
672.13	0.623
672.32	0.618
672.50	0.618
672.69	0.618
672.88	0.619
673.07	0.615
673.26	0.617
673.45	0.619
673.63	0.619
673.82	0.614
674.01	0.615
674.20	0.616
674.39	0.615
674.58	0.613
674.76	0.613
674.95	0.612
675.14	0.611
675.33	0.605
675.52	0.603
675.71	0.603
675.89	0.602
676.08	0.598
676.27	0.598
676.46	0.599
676.65	0.598
676.84	0.597
677.02	0.599
677.21	0.602
677.40	0.602
677.59	0.599
677.78	0.600
677.96	0.603
678.15	0.603
678.34	0.600
678.53	0.601
678.72	0.602
678.90	0.598
679.09	0.593
679.28	0.589
679.47	0.590
679.66	0.590
679.84	0.586
680.03	0.584
680.22	0.583
680.41	0.585
680.60	0.581
680.78	0.580
680.97	0.583
681.16	0.584
681.35	0.583
681.53	0.582
681.72	0.583
681.91	0.585
682.10	0.583
682.29	0.585
682.47	0.582
682.66	0.582
682.85	0.580
683.04	0.578
683.22	0.578
683.41	0.579
683.60	0.577
683.79	0.578
683.97	0.578
684.16	0.577
684.35	0.572
684.54	0.575
684.72	0.576
684.91	0.577
685.10	0.574
685.29	0.575
685.47	0.573
685.66	0.572
685.85	0.568
686.04	0.568
686.22	0.571
686.41	0.574
686.60	0.570
686.79	0.573
686.97	0.574
687.16	0.576
687.35	0.573
687.54	0.576
687.72	0.581
687.91	0.580
688.10	0.582
688.29	0.581
688.47	0.579
688.66	0.578
688.85	0.574
689.03	0.570
689.22	0.575
689.41	0.576
689.60	0.571
689.78	0.567
689.97	0.569
690.16	0.566
690.34	0.562
690.53	0.562
690.72	0.563
690.91	0.561
691.09	0.558
691.28	0.553
691.47	0.551
691.65	0.551
691.84	0.548
692.03	0.547
692.21	0.546
692.40	0.546
692.59	0.543
692.77	0.543
692.96	0.545
693.15	0.547
693.34	0.544
693.52	0.545
693.71	0.546
693.90	0.547
694.08	0.547
694.27	0.548
694.46	0.558
694.64	0.559
694.83	0.557
695.02	0.555
695.20	0.555
695.39	0.554
695.58	0.553
695.76	0.554
695.95	0.554
696.14	0.552
696.32	0.549
696.51	0.540
696.70	0.540
696.88	0.541
697.07	0.540
697.26	0.541
697.44	0.543
697.63	0.541
697.81	0.538
698.00	0.538
698.19	0.539
698.37	0.540
698.56	0.539
698.75	0.539
698.93	0.539
699.12	0.539
699.31	0.538
699.49	0.538
699.68	0.540
699.87	0.542
700.05	0.541
700.24	0.539
700.42	0.541
700.61	0.540
700.80	0.538
700.98	0.537
701.17	0.540
701.36	0.538
701.54	0.537
701.73	0.538
701.91	0.536
702.10	0.536
702.29	0.534
702.47	0.533
702.66	0.535
702.84	0.536
703.03	0.533
703.22	0.535
703.40	0.536
703.59	0.536
703.77	0.535
703.96	0.535
704.15	0.537
704.33	0.536
704.52	0.535
704.70	0.535
704.89	0.535
705.08	0.534
705.26	0.529
705.45	0.529
705.63	0.529
705.82	0.526
706.00	0.524
706.19	0.523
706.38	0.524
706.56	0.523
706.75	0.520
706.93	0.519
707.12	0.521
707.30	0.522
707.49	0.519
707.68	0.517
707.86	0.517
708.05	0.517
708.23	0.514
708.42	0.515
708.60	0.519
708.79	0.519
708.98	0.517
709.16	0.516
709.35	0.518
709.53	0.522
709.72	0.520
709.90	0.522
710.09	0.524
710.27	0.526
710.46	0.529
710.64	0.528
710.83	0.530
711.02	0.531
711.20	0.528
711.39	0.527
711.57	0.525
711.76	0.526
711.94	0.523
712.13	0.525
712.31	0.525
712.50	0.520
712.68	0.517
712.87	0.517
713.05	0.519
713.24	0.519
713.42	0.517
713.61	0.518
713.79	0.519
713.98	0.518
714.16	0.518
714.35	0.518
714.54	0.520
714.72	0.520
714.91	0.518
715.09	0.524
715.28	0.528
715.46	0.529
715.65	0.526
715.83	0.526
716.02	0.529
716.20	0.526
716.39	0.525
716.57	0.526
716.76	0.529
716.94	0.529
717.12	0.520
717.31	0.521
717.49	0.525
717.68	0.527
717.86	0.525
718.05	0.527
718.23	0.530
718.42	0.533
718.60	0.533
718.79	0.541
718.97	0.545
719.16	0.545
719.34	0.541
719.53	0.541
719.71	0.541
719.90	0.543
720.08	0.539
720.27	0.540
720.45	0.540
720.63	0.539
720.82	0.533
721.00	0.535
721.19	0.540
721.37	0.540
721.56	0.539
721.74	0.542
721.93	0.551
722.11	0.557
722.30	0.555
722.48	0.560
722.66	0.561
722.85	0.561
723.03	0.561
723.22	0.557
723.40	0.561
723.59	0.561
723.77	0.565
723.95	0.558
724.14	0.562
724.32	0.563
724.51	0.561
724.69	0.561
724.88	0.562
725.06	0.560
725.24	0.561
725.43	0.562
725.61	0.565
725.80	0.558
725.98	0.555
726.16	0.551
726.35	0.558
726.53	0.557
726.72	0.556
726.90	0.566
727.09	0.567
727.27	0.572
727.45	0.568
727.64	0.577
727.82	0.589
728.01	0.593
728.19	0.589
728.37	0.595
728.56	0.600
728.74	0.606
728.92	0.592
729.11	0.596
729.29	0.596
729.48	0.600
729.66	0.589
729.84	0.588
730.03	0.593
730.21	0.595
730.40	0.583
730.58	0.586
730.76	0.587
730.95	0.590
731.13	0.589
731.31	0.603
731.50	0.614
731.68	0.615
731.86	0.609
732.05	0.624
732.23	0.629
732.42	0.633
732.60	0.634
732.78	0.640
732.97	0.663
733.15	0.669
733.33	0.653
733.52	0.660
733.70	0.676
733.88	0.685
734.07	0.667
734.25	0.696
734.43	0.706
734.62	0.709
734.80	0.699
734.98	0.687
735.17	0.696
735.35	0.705
735.53	0.691
735.72	0.694
735.90	0.723
736.08	0.745
736.27	0.717
736.45	0.728
736.63	0.745
736.82	0.759
737.00	0.758
737.18	0.771
737.37	0.808
737.55	0.833
737.73	0.825
737.92	0.825
738.10	0.824
738.28	0.846
738.46	0.830
738.65	0.842
738.83	0.867
739.01	0.919
739.20	0.903
739.38	0.886
739.56	0.881
739.75	0.885
739.93	0.843
740.11	0.868
740.29	0.876
740.48	0.885
740.66	0.856
740.84	0.851
741.03	0.822
741.21	0.836
741.39	0.810
741.57	0.823
741.76	0.848
741.94	0.855
742.12	0.814
742.31	0.817
742.49	0.842
742.67	0.868
742.85	0.878
743.04	0.880
743.22	0.899
743.40	0.958
743.58	0.931
743.77	0.949
743.95	0.994
744.13	1.058
744.31	1.034
744.50	1.032
744.68	1.046
744.86	1.018
745.04	1.027
745.23	1.097
745.41	1.088
745.59	1.098
745.77	1.045
745.96	1.027
746.14	1.045
746.32	1.039
746.50	1.017
746.69	0.990
746.87	1.015
747.05	1.004
747.23	0.915
747.42	0.897
747.60	0.937
747.78	0.939
747.96	0.969
748.14	0.912
748.33	0.946
748.51	0.943
748.69	0.931
748.87	0.958
749.06	0.957
749.24	0.960
749.42	0.941
749.60	0.919
749.78	0.938
749.97	0.888
750.15	0.883
750.33	0.888
750.51	0.925
750.69	0.928
750.88	0.929
751.06	0.948
751.24	0.987
751.42	0.971
751.60	0.948
751.79	1.037
751.97	1.100
752.15	1.093
752.33	1.042
752.51	1.109
752.69	1.146
752.88	1.093
753.06	1.135
753.24	1.106
753.42	1.160
753.60	1.388
753.78	1.168
753.97	1.193
754.15	1.228
754.33	1.267
754.51	1.105
754.69	1.086
754.87	1.137
755.06	1.043
755.24	1.029
755.42	1.038
755.60	0.935
755.78	0.949
755.96	0.882
756.15	0.882
756.33	0.892
756.51	0.914
756.69	0.891
756.87	0.854
757.05	0.885
757.23	0.867
757.42	0.825
757.60	0.823
757.78	0.812
757.96	0.812
758.14	0.792
758.32	0.775
758.50	0.792
758.69	0.792
758.87	0.781
759.05	0.782
759.23	0.798
759.41	0.801
759.59	0.789
759.77	0.817
759.95	0.850
760.13	0.908
760.32	0.902
760.50	0.895
760.68	0.928
760.86	0.927
761.04	0.889
761.22	0.895
761.40	0.955
761.58	0.960
761.76	0.920
761.95	0.899
762.13	0.850
762.31	0.854
762.49	0.817
762.67	0.834
762.85	0.855
763.03	0.852
763.21	0.823
763.39	0.803
763.57	0.808
763.75	0.800
763.94	0.783
764.12	0.783
764.30	0.813
764.48	0.818
764.66	0.776
764.84	0.772
765.02	0.816
765.20	0.827
765.38	0.804
765.56	0.810
765.74	0.863
765.92	0.862
766.10	0.869
766.28	0.855
766.46	0.891
766.65	0.892
766.83	0.876
767.01	0.860
767.19	0.874
767.37	0.873
767.55	0.854
767.73	0.830
767.91	0.838
768.09	0.826
768.27	0.811
768.45	0.799
768.63	0.806
768.81	0.806
768.99	0.772
769.17	0.794
769.35	0.814
769.53	0.812
769.71	0.790
769.89	0.800
770.07	0.809
770.25	0.792
770.43	0.763
770.61	0.791
770.79	0.803
770.97	0.816
771.15	0.781
771.33	0.786
771.51	0.791
771.69	0.800
771.87	0.803
772.05	0.810
772.24	0.824
772.42	0.840
772.60	0.813
772.78	0.880
772.96	0.918
773.14	0.913
773.32	0.880
773.49	0.889
773.67	0.893
773.85	0.868
774.03	0.853
774.21	0.890
774.39	0.906
774.57	0.929
774.75	0.840
774.93	0.837
775.11	0.866
775.29	0.873
775.47	0.870
775.65	0.884
775.83	0.910
776.01	0.933
776.19	0.873
776.37	0.871
776.55	0.876
776.73	0.873
776.91	0.861
777.09	0.843
777.27	0.850
777.45	0.835
777.63	0.803
777.81	0.799
777.99	0.787
778.17	0.787
778.35	0.764
778.53	0.752
778.71	0.762
778.89	0.747
779.07	0.730
779.24	0.734
779.42	0.740
779.60	0.759
779.78	0.753
779.96	0.760
780.14	0.771
780.32	0.793
780.50	0.771
780.68	0.770
780.86	0.765
781.04	0.783
781.22	0.784
781.40	0.799
781.58	0.793
781.75	0.785
781.93	0.761
782.11	0.763
782.29	0.749
782.47	0.749
782.65	0.733
782.83	0.768
783.01	0.765
783.19	0.757
783.37	0.737
783.55	0.740
783.72	0.762
783.90	0.776
784.08	0.762
784.26	0.777
784.44	0.801
784.62	0.806
784.80	0.763
784.98	0.766
785.16	0.774
785.33	0.787
785.51	0.769
785.69	0.753
785.87	0.755
786.05	0.766
786.23	0.758
786.41	0.758
786.59	0.766
786.77	0.767
786.94	0.748
787.12	0.752
787.30	0.758
787.48	0.754
787.66	0.738
787.84	0.737
788.02	0.734
788.19	0.728
788.37	0.710
788.55	0.711
788.73	0.712
788.91	0.709
789.09	0.688
789.27	0.678
789.44	0.693
789.62	0.700
789.80	0.707
789.98	0.735
790.16	0.724
790.34	0.719
790.51	0.704
790.69	0.726
790.87	0.736
791.05	0.734
791.23	0.727
791.41	0.727
791.58	0.740
791.76	0.715
791.94	0.676
792.12	0.686
792.30	0.692
792.48	0.688
792.65	0.678
792.83	0.685
793.01	0.695
793.19	0.691
793.37	0.672
793.54	0.668
793.72	0.683
793.90	0.681
794.08	0.669
794.26	0.672
794.43	0.684
794.61	0.667
794.79	0.651
794.97	0.650
795.15	0.658
795.32	0.662
795.50	0.649
795.68	0.644
795.86	0.653
796.04	0.653
796.21	0.644
796.39	0.643
796.57	0.661
796.75	0.671
796.92	0.671
797.10	0.677
797.28	0.683
797.46	0.687
797.64	0.686
797.81	0.695
797.99	0.701
798.17	0.702
798.35	0.692
798.52	0.694
798.70	0.692
798.88	0.701
799.06	0.697
799.23	0.697
799.41	0.707
799.59	0.701
799.77	0.683
799.94	0.694
800.12	0.708
800.30	0.727
800.48	0.724
800.65	0.724
800.83	0.715
801.01	0.706
801.19	0.707
801.36	0.703
801.54	0.708
801.72	0.720
801.90	0.701
802.07	0.695
802.25	0.685
802.43	0.665
802.60	0.659
802.78	0.666
802.96	0.673
803.14	0.664
803.31	0.660
803.49	0.660
803.67	0.658
803.84	0.662
804.02	0.649
804.20	0.651
804.38	0.660
804.55	0.659
804.73	0.642
804.91	0.644
805.08	0.659
805.26	0.655
805.44	0.716
805.61	0.721
805.79	0.722
805.97	0.726
806.15	0.714
806.32	0.707
806.50	0.715
806.68	0.715
806.85	0.703
807.03	0.694
807.21	0.716
807.38	0.649
807.56	0.637
807.74	0.648
807.91	0.657
808.09	0.658
808.27	0.677
808.44	0.708
808.62	0.720
808.80	0.721
808.97	0.714
809.15	0.704
809.33	0.726
809.50	0.733
809.68	0.714
809.86	0.721
810.03	0.761
810.21	0.739
810.39	0.715
810.56	0.722
810.74	0.752
810.91	0.830
811.09	0.814
811.27	0.836
811.44	0.846
811.62	0.848
811.80	0.825
811.97	0.790
812.15	0.791
812.33	0.784
812.50	0.764
812.68	0.752
812.85	0.695
813.03	0.700
813.21	0.663
813.38	0.657
813.56	0.664
813.74	0.676
813.91	0.683
814.09	0.717
814.26	0.714
814.44	0.718
814.62	0.706
814.79	0.708
814.97	0.717
815.14	0.724
815.32	0.727
815.50	0.744
815.67	0.750
815.85	0.740
816.02	0.726
816.20	0.732
816.38	0.753
816.55	0.759
816.73	0.759
816.90	0.772
817.08	0.809
817.26	0.814
817.43	0.788
817.61	0.816
817.78	0.843
817.96	0.818
818.13	0.807
818.31	0.807
818.49	0.825
818.66	0.812
818.84	0.789
819.01	0.764
819.19	0.775
819.36	0.776
819.54	0.738
819.71	0.785
819.89	0.803
820.07	0.817
820.24	0.805
820.42	0.803
820.59	0.830
820.77	0.855
820.94	0.842
821.12	0.862
821.29	0.886
821.47	0.889
821.64	0.814
821.82	0.829
822.00	0.828
822.17	0.827
822.35	0.816
822.52	0.816
822.70	0.810
822.87	0.819
823.05	0.792
823.22	0.807
823.40	0.844
823.57	0.866
823.75	0.837
823.92	0.870
824.10	0.900
824.27	0.953
824.45	0.933
824.62	1.014
824.80	1.052
824.97	1.070
825.15	1.041
825.32	1.058
825.50	1.073
825.67	1.091
825.85	1.052
826.02	1.076
826.20	1.124
826.37	1.326
826.55	1.182
826.72	1.523
826.90	1.803
827.07	2.124
827.25	1.801
827.42	-0.000
827.60	-0.000
827.77	-0.000
827.95	-0.000
828.12	-0.000
828.30	-0.000
828.47	-0.000
828.65	1.953
828.82	2.430
829.00	-0.000
829.17	-0.000
829.34	-0.000
829.52	-0.000
829.69	-0.000
829.87	-0.000
830.04	-0.000
830.22	-0.000
830.39	-0.000
830.57	-0.000
830.74	-0.000
830.92	-0.000
831.09	-0.000
831.26	-0.000
831.44	-0.000
831.61	-0.000
831.79	-0.000
831.96	-0.000
832.14	-0.000
832.31	-0.000
832.49	-0.000
832.66	-0.000
832.83	-0.000
833.01	-0.000
833.18	-0.000
833.36	-0.000
833.53	-0.000
833.70	-0.000
833.88	-0.000
834.05	-0.000
834.23	-0.000
834.40	-0.000
834.58	-0.000
834.75	-0.000
834.92	-0.000
835.10	-0.000
835.27	-0.000
835.45	-0.000
835.62	-0.000
835.79	-0.000
835.97	-0.000
836.14	-0.000
836.32	-0.000
836.49	-0.000
836.66	-0.000
836.84	-0.000
837.01	-0.000
837.18	-0.000
837.36	-0.000
837.53	-0.000
837.71	-0.000
837.88	-0.000
838.05	-0.000
838.23	-0.000
838.40	-0.000
838.58	-0.000
838.75	-0.000
838.92	-0.000
839.10	-0.000
839.27	-0.000
839.44	-0.000
839.62	-0.000
839.79	-0.000
839.96	-0.000
840.14	-0.000
840.31	-0.000
840.48	-0.000
840.66	-0.000
840.83	-0.000
841.01	-0.000
841.18	-0.000
841.35	-0.000
841.53	-0.000
841.70	-0.000
841.87	-0.000
842.05	-0.000
842.22	-0.000
842.39	-0.000
842.57	-0.000
842.74	-0.000
842.91	-0.000
843.09	-0.000
843.26	-0.000
843.43	-0.000
843.60	-0.000
843.78	-0.000
843.95	-0.000
844.12	-0.000
844.30	-0.000
844.47	-0.000
844.64	-0.000
844.82	-0.000
844.99	-0.000
845.16	-0.000
845.34	-0.000
845.51	-0.000
845.68	-0.000
845.85	-0.000
846.03	-0.000
846.20	-0.000
846.37	-0.000
846.55	-0.000
846.72	-0.000
846.89	-0.000
847.06	-0.000
847.24	-0.000
847.41	-0.000
847.58	-0.000
847.76	-0.000
847.93	-0.000
848.10	-0.000
848.27	-0.000
848.45	-0.000
848.62	-0.000
848.79	-0.000
848.97	-0.000
849.14	-0.000
849.31	-0.000
849.48	-0.000
849.66	-0.000
849.83	-0.000
850.00	-0.000
850.17	-0.000
850.35	-0.000
850.52	-0.000
850.69	-0.000
850.86	-0.000
851.04	-0.000
851.21	-0.000
851.38	-0.000
851.55	-0.000
851.72	-0.000
851.90	-0.000
852.07	-0.000
852.24	-0.000
852.41	-0.000
852.59	-0.000
852.76	-0.000
852.93	-0.000
853.10	-0.000
853.28	-0.000
853.45	-0.000
853.62	-0.000
853.79	-0.000
853.96	-0.000
854.14	-0.000
854.31	-0.000
854.48	-0.000
854.65	-0.000
854.82	-0.000
855.00	-0.000
855.17	-0.000
855.34	-0.000
855.51	-0.000
855.68	-0.000
855.86	-0.000
856.03	-0.000
856.20	-0.000
856.37	-0.000
856.54	-0.000
856.72	-0.000
856.89	-0.000
857.06	-0.000
857.23	-0.000
857.40	-0.000
857.57	-0.000
857.75	-0.000
857.92	-0.000
858.09	-0.000
858.26	-0.000
858.43	-0.000
858.60	-0.000
858.78	-0.000
858.95	-0.000
859.12	-0.000
859.29	-0.000
859.46	-0.000
859.63	-0.000
859.81	-0.000
859.98	-0.000
860.15	-0.000
860.32	-0.000
860.49	-0.000
860.66	-0.000
860.83	-0.000
861.01	-0.000
861.18	-0.000
861.35	-0.000
861.52	-0.000
861.69	-0.000
861.86	-0.000
862.03	-0.000
862.21	-0.000
862.38	-0.000
862.55	-0.000
862.72	-0.000
862.89	-0.000
863.06	-0.000
863.23	-0.000
863.40	-0.000
863.58	-0.000
863.75	-0.000
863.92	-0.000
864.09	-0.000
864.26	-0.000
864.43	-0.000
864.60	-0.000
864.77	-0.000
864.94	-0.000
865.11	-0.000
865.29	-0.000
865.46	-0.000
865.63	-0.000
865.80	-0.000
865.97	-0.000
866.14	-0.000
866.31	-0.000
866.48	-0.000
866.65	-0.000
866.82	-0.000
866.99	-0.000
867.16	-0.000
867.34	-0.000
867.51	-0.000
867.68	-0.000
867.85	-0.000
868.02	-0.000
868.19	-0.000
868.36	-0.000
868.53	-0.000
868.70	-0.000
868.87	-0.000
869.04	-0.000
869.21	-0.000
869.38	-0.000
869.55	-0.000
869.72	-0.000
869.89	-0.000
870.06	-0.000
870.24	-0.000
870.41	-0.000
870.58	-0.000
870.75	-0.000
870.92	-0.000
871.09	-0.000
871.26	-0.000
871.43	-0.000
871.60	-0.000
871.77	-0.000
871.94	-0.000
872.11	-0.000
872.28	-0.000
872.45	-0.000
872.62	-0.000
872.79	-0.000
872.96	-0.000
873.13	-0.000
873.30	-0.000
873.47	-0.000
873.64	-0.000
873.81	-0.000
873.98	-0.000
874.15	-0.000
874.32	-0.000
874.49	-0.000
874.66	-0.000
874.83	-0.000
875.00	-0.000
875.17	-0.000
875.34	-0.000
875.51	-0.000
875.68	-0.000
875.85	-0.000
876.02	-0.000
876.19	-0.000
876.36	-0.000
876.53	-0.000
876.70	-0.000
876.87	-0.000
877.04	-0.000
877.21	-0.000
877.38	-0.000
877.55	-0.000
877.72	-0.000
877.89	-0.000
878.06	-0.000
878.23	-0.000
878.39	-0.000
878.56	-0.000
878.73	-0.000
878.90	-0.000
879.07	-0.000
879.24	-0.000
879.41	-0.000
879.58	-0.000
879.75	-0.000
879.92	-0.000
880.09	-0.000
880.26	-0.000
880.43	-0.000
880.60	-0.000
880.77	-0.000
880.94	-0.000
881.11	-0.000
881.27	-0.000
881.44	-0.000
881.61	-0.000
881.78	-0.000
881.95	-0.000
882.12	-0.000
882.29	-0.000
882.46	-0.000
882.63	-0.000
882.80	-0.000
882.97	-0.000
883.14	-0.000
883.30	-0.000
883.47	-0.000
883.64	-0.000
883.81	-0.000
883.98	-0.000
884.15	-0.000
884.32	-0.000
884.49	-0.000
884.66	-0.000
884.82	-0.000
884.99	-0.000
885.16	-0.000
885.33	-0.000
885.50	-0.000
885.67	-0.000
885.84	-0.000
886.01	-0.000
886.17	-0.000
886.34	-0.000
886.51	-0.000
886.68	-0.000
886.85	-0.000
887.02	-0.000
887.19	-0.000
887.36	-0.000
887.52	-0.000
887.69	-0.000
887.86	-0.000
888.03	-0.000
888.20	-0.000
888.37	-0.000
888.54	-0.000
888.70	-0.000
888.87	-0.000
889.04	-0.000
889.21	-0.000
889.38	-0.000
889.55	-0.000
889.71	-0.000
889.88	-0.000
890.05	-0.000
890.22	-0.000
890.39	-0.000
>>>>>End Processed Spectral Data<<<<<
