SpectraSuite Data File
++++++++++++++++++++++++++++++++++++
Date: Fri Jun 19 15:00:12 CEST 2015
User: introlabs
Dark Spectrum Present: Yes
Reference Spectrum Present: Yes
Number of Sampled Component Spectra: 1
Spectrometers: USB4H08886
Integration Time (usec): 745692 (USB4H08886)
Spectra Averaged: 5 (USB4H08886)
Boxcar Smoothing: 5 (USB4H08886)
Correct for Electrical Dark: Yes (USB4H08886)
Strobe/Lamp Enabled: No (USB4H08886)
Correct for Detector Non-linearity: Yes (USB4H08886)
Correct for Stray Light: Yes (USB4H08886)
Number of Pixels in Processed Spectrum: 3648
>>>>>Begin Processed Spectral Data<<<<<
178.14	-0.000
178.36	-0.000
178.57	-0.000
178.79	-0.000
179.01	-0.000
179.22	-0.000
179.44	-0.000
179.65	-0.000
179.87	-0.000
180.08	-0.000
180.30	-0.000
180.52	-0.000
180.73	-0.000
180.95	-0.000
181.16	-0.000
181.38	-0.000
181.59	-0.000
181.81	-0.000
182.03	-0.000
182.24	-0.000
182.46	-0.000
182.67	-0.000
182.89	-0.000
183.10	-0.000
183.32	-0.000
183.54	-0.000
183.75	-0.000
183.97	-0.000
184.18	-0.000
184.40	-0.000
184.61	-0.000
184.83	-0.000
185.04	-0.000
185.26	-0.000
185.48	-0.000
185.69	-0.000
185.91	-0.000
186.12	-0.000
186.34	-0.000
186.55	-0.000
186.77	-0.000
186.98	-0.000
187.20	-0.000
187.42	-0.000
187.63	-0.000
187.85	-0.000
188.06	-0.000
188.28	-0.000
188.49	-0.000
188.71	-0.000
188.92	-0.000
189.14	-0.000
189.36	-0.000
189.57	-0.000
189.79	-0.000
190.00	-0.000
190.22	-0.000
190.43	-0.000
190.65	-0.000
190.86	-0.000
191.08	-0.000
191.29	-0.000
191.51	-0.000
191.72	-0.000
191.94	-0.000
192.16	-0.000
192.37	-0.000
192.59	-0.000
192.80	-0.000
193.02	-0.000
193.23	-0.000
193.45	-0.000
193.66	-0.000
193.88	-0.000
194.09	-0.000
194.31	-0.000
194.52	-0.000
194.74	-0.000
194.95	-0.000
195.17	-0.000
195.38	-0.000
195.60	-0.000
195.81	-0.000
196.03	-0.000
196.25	-0.000
196.46	-0.000
196.68	-0.000
196.89	-0.000
197.11	-0.000
197.32	-0.000
197.54	-0.000
197.75	-0.000
197.97	-0.000
198.18	-0.000
198.40	-0.000
198.61	-0.000
198.83	-0.000
199.04	-0.000
199.26	-0.000
199.47	-0.000
199.69	-0.000
199.90	-0.000
200.12	-0.000
200.33	-0.000
200.55	-0.000
200.76	-0.000
200.98	-0.000
201.19	-0.000
201.41	-0.000
201.62	-0.000
201.84	-0.000
202.05	-0.000
202.27	-0.000
202.48	-0.000
202.70	-0.000
202.91	-0.000
203.13	-0.000
203.34	-0.000
203.56	-0.000
203.77	-0.000
203.99	-0.000
204.20	-0.000
204.42	-0.000
204.63	-0.000
204.85	-0.000
205.06	-0.000
205.28	-0.000
205.49	-0.000
205.71	-0.000
205.92	-0.000
206.14	-0.000
206.35	-0.000
206.56	-0.000
206.78	-0.000
206.99	-0.000
207.21	-0.000
207.42	-0.000
207.64	-0.000
207.85	-0.000
208.07	-0.000
208.28	-0.000
208.50	-0.000
208.71	-0.000
208.93	-0.000
209.14	-0.000
209.36	-0.000
209.57	-0.000
209.79	-0.000
210.00	-0.000
210.22	-0.000
210.43	-0.000
210.64	-0.000
210.86	-0.000
211.07	-0.000
211.29	-0.000
211.50	-0.000
211.72	-0.000
211.93	-0.000
212.15	-0.000
212.36	-0.000
212.58	-0.000
212.79	-0.000
213.01	-0.000
213.22	-0.000
213.43	-0.000
213.65	-0.000
213.86	-0.000
214.08	-0.000
214.29	-0.000
214.51	-0.000
214.72	-0.000
214.94	-0.000
215.15	-0.000
215.36	-0.000
215.58	-0.000
215.79	-0.000
216.01	-0.000
216.22	-0.000
216.44	-0.000
216.65	-0.000
216.87	-0.000
217.08	-0.000
217.29	-0.000
217.51	-0.000
217.72	-0.000
217.94	-0.000
218.15	-0.000
218.37	-0.000
218.58	-0.000
218.80	-0.000
219.01	-0.000
219.22	-0.000
219.44	-0.000
219.65	-0.000
219.87	-0.000
220.08	-0.000
220.30	-0.000
220.51	-0.000
220.72	-0.000
220.94	-0.000
221.15	-0.000
221.37	-0.000
221.58	-0.000
221.79	-0.000
222.01	-0.000
222.22	-0.000
222.44	-0.000
222.65	-0.000
222.87	-0.000
223.08	-0.000
223.29	-0.000
223.51	-0.000
223.72	-0.000
223.94	-0.000
224.15	-0.000
224.36	-0.000
224.58	-0.000
224.79	-0.000
225.01	-0.000
225.22	-0.000
225.44	-0.000
225.65	-0.000
225.86	-0.000
226.08	-0.000
226.29	-0.000
226.51	-0.000
226.72	-0.000
226.93	-0.000
227.15	-0.000
227.36	-0.000
227.58	-0.000
227.79	-0.000
228.00	-0.000
228.22	-0.000
228.43	-0.000
228.65	-0.000
228.86	-0.000
229.07	-0.000
229.29	-0.000
229.50	-0.000
229.72	-0.000
229.93	-0.000
230.14	-0.000
230.36	-0.000
230.57	-0.000
230.78	-0.000
231.00	-0.000
231.21	-0.000
231.43	-0.000
231.64	-0.000
231.85	-0.000
232.07	-0.000
232.28	-0.000
232.50	-0.000
232.71	-0.000
232.92	-0.000
233.14	-0.000
233.35	-0.000
233.56	-0.000
233.78	-0.000
233.99	-0.000
234.21	-0.000
234.42	-0.000
234.63	-0.000
234.85	-0.000
235.06	-0.000
235.27	-0.000
235.49	-0.000
235.70	-0.000
235.91	-0.000
236.13	-0.000
236.34	-0.000
236.56	-0.000
236.77	-0.000
236.98	-0.000
237.20	-0.000
237.41	-0.000
237.62	-0.000
237.84	-0.000
238.05	-0.000
238.26	-0.000
238.48	-0.000
238.69	-0.000
238.91	-0.000
239.12	-0.000
239.33	-0.000
239.55	-0.000
239.76	-0.000
239.97	-0.000
240.19	-0.000
240.40	-0.000
240.61	-0.000
240.83	-0.000
241.04	-0.000
241.25	-0.000
241.47	-0.000
241.68	-0.000
241.89	-0.000
242.11	-0.000
242.32	-0.000
242.53	-0.000
242.75	-0.000
242.96	-0.000
243.17	-0.000
243.39	-0.000
243.60	-0.000
243.81	-0.000
244.03	-0.000
244.24	-0.000
244.45	-0.000
244.67	-0.000
244.88	-0.000
245.09	-0.000
245.31	-0.000
245.52	-0.000
245.73	-0.000
245.95	-0.000
246.16	-0.000
246.37	-0.000
246.59	-0.000
246.80	-0.000
247.01	-0.000
247.23	-0.000
247.44	-0.000
247.65	-0.000
247.87	-0.000
248.08	-0.000
248.29	-0.000
248.51	-0.000
248.72	-0.000
248.93	-0.000
249.15	-0.000
249.36	-0.000
249.57	-0.000
249.78	-0.000
250.00	-0.000
250.21	-0.000
250.42	-0.000
250.64	-0.000
250.85	-0.000
251.06	-0.000
251.28	-0.000
251.49	-0.000
251.70	-0.000
251.92	-0.000
252.13	-0.000
252.34	-0.000
252.55	-0.000
252.77	-0.000
252.98	-0.000
253.19	-0.000
253.41	-0.000
253.62	-0.000
253.83	-0.000
254.05	-0.000
254.26	-0.000
254.47	-0.000
254.68	-0.000
254.90	-0.000
255.11	-0.000
255.32	-0.000
255.54	-0.000
255.75	-0.000
255.96	-0.000
256.17	-0.000
256.39	-0.000
256.60	-0.000
256.81	-0.000
257.03	-0.000
257.24	-0.000
257.45	-0.000
257.66	-0.000
257.88	-0.000
258.09	-0.000
258.30	-0.000
258.51	-0.000
258.73	-0.000
258.94	-0.000
259.15	-0.000
259.37	-0.000
259.58	-0.000
259.79	-0.000
260.00	-0.000
260.22	-0.000
260.43	-0.000
260.64	-0.000
260.85	-0.000
261.07	-0.000
261.28	-0.000
261.49	-0.000
261.71	-0.000
261.92	-0.000
262.13	-0.000
262.34	-0.000
262.56	-0.000
262.77	-0.000
262.98	-0.000
263.19	-0.000
263.41	-0.000
263.62	-0.000
263.83	-0.000
264.04	-0.000
264.26	-0.000
264.47	-0.000
264.68	-0.000
264.89	-0.000
265.11	-0.000
265.32	-0.000
265.53	-0.000
265.74	-0.000
265.96	-0.000
266.17	-0.000
266.38	-0.000
266.59	-0.000
266.81	-0.000
267.02	-0.000
267.23	-0.000
267.44	-0.000
267.65	-0.000
267.87	-0.000
268.08	-0.000
268.29	-0.000
268.50	-0.000
268.72	-0.000
268.93	-0.000
269.14	-0.000
269.35	-0.000
269.57	-0.000
269.78	-0.000
269.99	-0.000
270.20	-0.000
270.41	-0.000
270.63	-0.000
270.84	-0.000
271.05	-0.000
271.26	-0.000
271.48	-0.000
271.69	-0.000
271.90	-0.000
272.11	-0.000
272.32	-0.000
272.54	-0.000
272.75	-0.000
272.96	-0.000
273.17	-0.000
273.39	-0.000
273.60	-0.000
273.81	-0.000
274.02	-0.000
274.23	-0.000
274.45	-0.000
274.66	-0.000
274.87	-0.000
275.08	-0.000
275.29	-0.000
275.51	-0.000
275.72	-0.000
275.93	-0.000
276.14	-0.000
276.35	-0.000
276.57	-0.000
276.78	-0.000
276.99	-0.000
277.20	-0.000
277.41	-0.000
277.63	-0.000
277.84	-0.000
278.05	-0.000
278.26	-0.000
278.47	-0.000
278.69	-0.000
278.90	-0.000
279.11	-0.000
279.32	-0.000
279.53	-0.000
279.74	-0.000
279.96	-0.000
280.17	-0.000
280.38	-0.000
280.59	-0.000
280.80	-0.000
281.02	-0.000
281.23	-0.000
281.44	-0.000
281.65	-0.000
281.86	-0.000
282.07	-0.000
282.29	-0.000
282.50	-0.000
282.71	-0.000
282.92	-0.000
283.13	-0.000
283.35	-0.000
283.56	-0.000
283.77	-0.000
283.98	-0.000
284.19	-0.000
284.40	-0.000
284.62	-0.000
284.83	-0.000
285.04	-0.000
285.25	-0.000
285.46	-0.000
285.67	-0.000
285.88	-0.000
286.10	-0.000
286.31	-0.000
286.52	-0.000
286.73	-0.000
286.94	-0.000
287.15	-0.000
287.37	-0.000
287.58	-0.000
287.79	-0.000
288.00	-0.000
288.21	-0.000
288.42	-0.000
288.63	-0.000
288.85	-0.000
289.06	-0.000
289.27	-0.000
289.48	-0.000
289.69	-0.000
289.90	-0.000
290.11	-0.000
290.33	-0.000
290.54	-0.000
290.75	-0.000
290.96	-0.000
291.17	-0.000
291.38	-0.000
291.59	-0.000
291.81	-0.000
292.02	-0.000
292.23	-0.000
292.44	-0.000
292.65	-0.000
292.86	-0.000
293.07	-0.000
293.28	-0.000
293.50	-0.000
293.71	-0.000
293.92	-0.000
294.13	-0.000
294.34	-0.000
294.55	-0.000
294.76	-0.000
294.97	-0.000
295.19	-0.000
295.40	-0.000
295.61	-0.000
295.82	-0.000
296.03	-0.000
296.24	-0.000
296.45	2.198
296.66	1.800
296.87	1.818
297.09	1.888
297.30	2.130
297.51	1.738
297.72	1.698
297.93	1.776
298.14	1.744
298.35	1.709
298.56	1.686
298.77	1.815
298.99	1.778
299.20	1.756
299.41	1.743
299.62	1.695
299.83	1.686
300.04	1.625
300.25	1.628
300.46	1.660
300.67	1.631
300.88	1.578
301.10	1.579
301.31	1.660
301.52	1.598
301.73	1.538
301.94	1.542
302.15	1.555
302.36	1.504
302.57	1.438
302.78	1.449
302.99	1.487
303.20	1.506
303.41	1.412
303.63	1.392
303.84	1.397
304.05	1.390
304.26	1.328
304.47	1.332
304.68	1.336
304.89	1.327
305.10	1.286
305.31	1.276
305.52	1.320
305.73	1.313
305.94	1.276
306.15	1.266
306.37	1.289
306.58	1.298
306.79	1.266
307.00	1.287
307.21	1.324
307.42	1.317
307.63	1.281
307.84	1.246
308.05	1.282
308.26	1.283
308.47	1.264
308.68	1.259
308.89	1.256
309.10	1.256
309.31	1.216
309.52	1.209
309.73	1.225
309.95	1.219
310.16	1.192
310.37	1.182
310.58	1.201
310.79	1.197
311.00	1.195
311.21	1.199
311.42	1.199
311.63	1.194
311.84	1.175
312.05	1.174
312.26	1.194
312.47	1.205
312.68	1.181
312.89	1.163
313.10	1.168
313.31	1.141
313.52	1.143
313.73	1.145
313.94	1.148
314.15	1.131
314.36	1.110
314.57	1.104
314.78	1.090
314.99	1.084
315.21	1.072
315.42	1.080
315.63	1.094
315.84	1.071
316.05	1.057
316.26	1.064
316.47	1.083
316.68	1.079
316.89	1.060
317.10	1.081
317.31	1.088
317.52	1.090
317.73	1.068
317.94	1.067
318.15	1.108
318.36	1.110
318.57	1.094
318.78	1.080
318.99	1.114
319.20	1.113
319.41	1.080
319.62	1.080
319.83	1.095
320.04	1.090
320.25	1.077
320.46	1.046
320.67	1.047
320.88	1.042
321.09	1.031
321.30	1.015
321.51	1.029
321.72	1.027
321.93	1.010
322.14	1.001
322.35	1.025
322.56	1.027
322.77	1.013
322.98	1.024
323.19	1.031
323.40	1.038
323.61	1.019
323.82	1.014
324.03	1.018
324.24	1.016
324.45	1.004
324.66	0.986
324.87	0.983
325.08	0.983
325.29	0.966
325.50	0.959
325.71	0.964
325.92	0.971
326.13	0.958
326.34	0.959
326.55	0.967
326.76	0.965
326.97	0.955
327.18	0.950
327.39	0.974
327.60	0.974
327.80	0.974
328.01	0.971
328.22	0.969
328.43	0.972
328.64	0.962
328.85	0.966
329.06	0.970
329.27	0.970
329.48	0.965
329.69	0.946
329.90	0.957
330.11	0.950
330.32	0.943
330.53	0.937
330.74	0.937
330.95	0.935
331.16	0.922
331.37	0.927
331.58	0.929
331.79	0.927
332.00	0.920
332.21	0.913
332.42	0.917
332.63	0.908
332.83	0.905
333.04	0.908
333.25	0.920
333.46	0.917
333.67	0.904
333.88	0.905
334.09	0.915
334.30	0.912
334.51	0.904
334.72	0.901
334.93	0.905
335.14	0.904
335.35	0.896
335.56	0.890
335.77	0.899
335.98	0.898
336.18	0.892
336.39	0.885
336.60	0.888
336.81	0.886
337.02	0.885
337.23	0.889
337.44	0.890
337.65	0.892
337.86	0.882
338.07	0.876
338.28	0.881
338.49	0.879
338.70	0.871
338.91	0.878
339.11	0.885
339.32	0.881
339.53	0.871
339.74	0.869
339.95	0.865
340.16	0.864
340.37	0.857
340.58	0.854
340.79	0.857
341.00	0.858
341.21	0.847
341.41	0.846
341.62	0.847
341.83	0.847
342.04	0.841
342.25	0.853
342.46	0.857
342.67	0.856
342.88	0.850
343.09	0.849
343.30	0.857
343.50	0.861
343.71	0.853
343.92	0.851
344.13	0.855
344.34	0.857
344.55	0.840
344.76	0.839
344.97	0.843
345.18	0.842
345.38	0.840
345.59	0.834
345.80	0.832
346.01	0.830
346.22	0.826
346.43	0.820
346.64	0.828
346.85	0.828
347.06	0.821
347.26	0.820
347.47	0.823
347.68	0.818
347.89	0.814
348.10	0.811
348.31	0.817
348.52	0.815
348.73	0.814
348.93	0.810
349.14	0.811
349.35	0.810
349.56	0.806
349.77	0.801
349.98	0.808
350.19	0.804
350.39	0.799
350.60	0.795
350.81	0.810
351.02	0.809
351.23	0.804
351.44	0.808
351.65	0.810
351.86	0.808
352.06	0.807
352.27	0.806
352.48	0.808
352.69	0.807
352.90	0.802
353.11	0.788
353.31	0.795
353.52	0.791
353.73	0.783
353.94	0.785
354.15	0.792
354.36	0.792
354.57	0.784
354.77	0.787
354.98	0.786
355.19	0.785
355.40	0.785
355.61	0.790
355.82	0.794
356.02	0.794
356.23	0.786
356.44	0.787
356.65	0.790
356.86	0.790
357.07	0.783
357.27	0.787
357.48	0.790
357.69	0.786
357.90	0.770
358.11	0.767
358.32	0.770
358.52	0.772
358.73	0.763
358.94	0.765
359.15	0.769
359.36	0.769
359.56	0.764
359.77	0.761
359.98	0.769
360.19	0.769
360.40	0.766
360.61	0.767
360.81	0.766
361.02	0.767
361.23	0.759
361.44	0.757
361.65	0.758
361.85	0.757
362.06	0.755
362.27	0.757
362.48	0.757
362.69	0.759
362.89	0.752
363.10	0.754
363.31	0.757
363.52	0.761
363.73	0.756
363.93	0.757
364.14	0.759
364.35	0.760
364.56	0.751
364.77	0.752
364.97	0.754
365.18	0.755
365.39	0.750
365.60	0.747
365.81	0.747
366.01	0.747
366.22	0.745
366.43	0.743
366.64	0.745
366.84	0.750
367.05	0.748
367.26	0.747
367.47	0.749
367.68	0.749
367.88	0.746
368.09	0.744
368.30	0.747
368.51	0.745
368.71	0.745
368.92	0.749
369.13	0.747
369.34	0.746
369.55	0.745
369.75	0.744
369.96	0.750
370.17	0.751
370.38	0.747
370.58	0.746
370.79	0.752
371.00	0.750
371.21	0.741
371.41	0.747
371.62	0.750
371.83	0.746
372.04	0.743
372.24	0.738
372.45	0.738
372.66	0.739
372.87	0.736
373.07	0.733
373.28	0.732
373.49	0.736
373.70	0.727
373.90	0.726
374.11	0.736
374.32	0.736
374.53	0.735
374.73	0.736
374.94	0.738
375.15	0.738
375.36	0.735
375.56	0.745
375.77	0.745
375.98	0.746
376.19	0.742
376.39	0.736
376.60	0.739
376.81	0.740
377.02	0.737
377.22	0.736
377.43	0.736
377.64	0.736
377.84	0.726
378.05	0.730
378.26	0.736
378.47	0.735
378.67	0.732
378.88	0.729
379.09	0.729
379.30	0.730
379.50	0.727
379.71	0.730
379.92	0.733
380.12	0.733
380.33	0.725
380.54	0.721
380.75	0.728
380.95	0.728
381.16	0.727
381.37	0.728
381.57	0.729
381.78	0.731
381.99	0.730
382.20	0.730
382.40	0.732
382.61	0.733
382.82	0.730
383.02	0.724
383.23	0.726
383.44	0.725
383.64	0.724
383.85	0.727
384.06	0.729
384.27	0.726
384.47	0.724
384.68	0.726
384.89	0.732
385.09	0.731
385.30	0.731
385.51	0.730
385.71	0.735
385.92	0.735
386.13	0.733
386.33	0.736
386.54	0.737
386.75	0.736
386.95	0.731
387.16	0.726
387.37	0.729
387.58	0.728
387.78	0.726
387.99	0.723
388.20	0.726
388.40	0.723
388.61	0.719
388.82	0.722
389.02	0.724
389.23	0.725
389.44	0.723
389.64	0.724
389.85	0.735
390.06	0.734
390.26	0.735
390.47	0.734
390.68	0.737
390.88	0.735
391.09	0.731
391.30	0.730
391.50	0.730
391.71	0.730
391.92	0.727
392.12	0.719
392.33	0.720
392.53	0.719
392.74	0.720
392.95	0.720
393.15	0.723
393.36	0.725
393.57	0.723
393.77	0.726
393.98	0.727
394.19	0.727
394.39	0.726
394.60	0.728
394.81	0.729
395.01	0.727
395.22	0.725
395.43	0.725
395.63	0.729
395.84	0.730
396.04	0.726
396.25	0.729
396.46	0.731
396.66	0.729
396.87	0.727
397.08	0.724
397.28	0.727
397.49	0.728
397.69	0.724
397.90	0.720
398.11	0.721
398.31	0.722
398.52	0.719
398.73	0.721
398.93	0.720
399.14	0.719
399.34	0.718
399.55	0.719
399.76	0.718
399.96	0.720
400.17	0.719
400.37	0.717
400.58	0.724
400.79	0.725
400.99	0.722
401.20	0.728
401.41	0.730
401.61	0.731
401.82	0.737
402.02	0.737
402.23	0.739
402.44	0.739
402.64	0.739
402.85	0.734
403.05	0.733
403.26	0.732
403.47	0.725
403.67	0.725
403.88	0.726
404.08	0.719
404.29	0.717
404.50	0.716
404.70	0.717
404.91	0.716
405.11	0.712
405.32	0.712
405.52	0.712
405.73	0.712
405.94	0.710
406.14	0.713
406.35	0.715
406.55	0.714
406.76	0.713
406.97	0.713
407.17	0.716
407.38	0.716
407.58	0.714
407.79	0.718
407.99	0.720
408.20	0.721
408.41	0.718
408.61	0.715
408.82	0.716
409.02	0.715
409.23	0.714
409.43	0.712
409.64	0.713
409.84	0.713
410.05	0.709
410.26	0.708
410.46	0.707
410.67	0.707
410.87	0.709
411.08	0.711
411.28	0.713
411.49	0.714
411.69	0.712
411.90	0.714
412.11	0.715
412.31	0.715
412.52	0.714
412.72	0.715
412.93	0.715
413.13	0.713
413.34	0.709
413.54	0.711
413.75	0.713
413.95	0.712
414.16	0.709
414.37	0.712
414.57	0.713
414.78	0.715
414.98	0.712
415.19	0.714
415.39	0.711
415.60	0.713
415.80	0.712
416.01	0.710
416.21	0.712
416.42	0.712
416.62	0.707
416.83	0.707
417.03	0.707
417.24	0.707
417.44	0.705
417.65	0.705
417.86	0.705
418.06	0.703
418.27	0.701
418.47	0.704
418.68	0.704
418.88	0.705
419.09	0.704
419.29	0.705
419.50	0.705
419.70	0.704
419.91	0.703
420.11	0.700
420.32	0.702
420.52	0.702
420.73	0.701
420.93	0.702
421.14	0.703
421.34	0.701
421.55	0.698
421.75	0.697
421.96	0.698
422.16	0.698
422.37	0.697
422.57	0.694
422.78	0.696
422.98	0.692
423.19	0.690
423.39	0.688
423.60	0.692
423.80	0.693
424.01	0.692
424.21	0.695
424.42	0.695
424.62	0.695
424.83	0.695
425.03	0.695
425.23	0.698
425.44	0.698
425.64	0.699
425.85	0.697
426.05	0.698
426.26	0.698
426.46	0.694
426.67	0.694
426.87	0.699
427.08	0.699
427.28	0.697
427.49	0.697
427.69	0.698
427.90	0.696
428.10	0.694
428.31	0.693
428.51	0.694
428.71	0.694
428.92	0.695
429.12	0.692
429.33	0.693
429.53	0.697
429.74	0.701
429.94	0.702
430.15	0.701
430.35	0.701
430.56	0.699
430.76	0.698
430.96	0.698
431.17	0.696
431.37	0.693
431.58	0.691
431.78	0.687
431.99	0.680
432.19	0.682
432.40	0.683
432.60	0.683
432.80	0.686
433.01	0.684
433.21	0.685
433.42	0.687
433.62	0.687
433.83	0.687
434.03	0.689
434.23	0.692
434.44	0.692
434.64	0.690
434.85	0.695
435.05	0.696
435.26	0.695
435.46	0.694
435.66	0.694
435.87	0.693
436.07	0.694
436.28	0.689
436.48	0.686
436.69	0.685
436.89	0.685
437.09	0.679
437.30	0.678
437.50	0.678
437.71	0.690
437.91	0.689
438.11	0.690
438.32	0.694
438.52	0.695
438.73	0.694
438.93	0.692
439.13	0.692
439.34	0.695
439.54	0.692
439.75	0.692
439.95	0.682
440.15	0.686
440.36	0.685
440.56	0.682
440.77	0.683
440.97	0.682
441.17	0.681
441.38	0.682
441.58	0.680
441.79	0.679
441.99	0.678
442.19	0.677
442.40	0.675
442.60	0.674
442.81	0.672
443.01	0.672
443.21	0.673
443.42	0.672
443.62	0.670
443.82	0.670
444.03	0.672
444.23	0.672
444.44	0.672
444.64	0.671
444.84	0.672
445.05	0.672
445.25	0.670
445.45	0.670
445.66	0.673
445.86	0.672
446.06	0.673
446.27	0.673
446.47	0.676
446.68	0.674
446.88	0.674
447.08	0.673
447.29	0.675
447.49	0.675
447.69	0.674
447.90	0.673
448.10	0.676
448.30	0.674
448.51	0.675
448.71	0.672
448.91	0.675
449.12	0.673
449.32	0.675
449.52	0.674
449.73	0.677
449.93	0.676
450.14	0.678
450.34	0.677
450.54	0.678
450.75	0.676
450.95	0.675
451.15	0.674
451.36	0.676
451.56	0.673
451.76	0.672
451.97	0.669
452.17	0.669
452.37	0.666
452.58	0.663
452.78	0.663
452.98	0.665
453.19	0.665
453.39	0.666
453.59	0.665
453.79	0.666
454.00	0.666
454.20	0.666
454.40	0.667
454.61	0.669
454.81	0.669
455.01	0.667
455.22	0.668
455.42	0.670
455.62	0.667
455.83	0.667
456.03	0.669
456.23	0.670
456.44	0.671
456.64	0.670
456.84	0.670
457.04	0.670
457.25	0.670
457.45	0.667
457.65	0.665
457.86	0.667
458.06	0.665
458.26	0.661
458.47	0.660
458.67	0.661
458.87	0.662
459.07	0.659
459.28	0.662
459.48	0.664
459.68	0.664
459.89	0.663
460.09	0.661
460.29	0.662
460.49	0.663
460.70	0.663
460.90	0.662
461.10	0.663
461.31	0.663
461.51	0.660
461.71	0.662
461.91	0.663
462.12	0.663
462.32	0.663
462.52	0.664
462.72	0.666
462.93	0.666
463.13	0.665
463.33	0.666
463.53	0.667
463.74	0.666
463.94	0.662
464.14	0.663
464.35	0.664
464.55	0.664
464.75	0.662
464.95	0.660
465.16	0.662
465.36	0.660
465.56	0.659
465.76	0.658
465.97	0.658
466.17	0.659
466.37	0.657
466.57	0.657
466.78	0.658
466.98	0.658
467.18	0.656
467.38	0.654
467.59	0.656
467.79	0.658
467.99	0.657
468.19	0.658
468.39	0.661
468.60	0.661
468.80	0.660
469.00	0.661
469.20	0.661
469.41	0.662
469.61	0.662
469.81	0.662
470.01	0.661
470.22	0.662
470.42	0.660
470.62	0.658
470.82	0.659
471.02	0.658
471.23	0.656
471.43	0.657
471.63	0.660
471.83	0.659
472.04	0.657
472.24	0.656
472.44	0.661
472.64	0.661
472.84	0.659
473.05	0.659
473.25	0.662
473.45	0.661
473.65	0.660
473.85	0.660
474.06	0.660
474.26	0.660
474.46	0.662
474.66	0.658
474.86	0.659
475.07	0.659
475.27	0.657
475.47	0.654
475.67	0.655
475.87	0.657
476.08	0.653
476.28	0.654
476.48	0.656
476.68	0.654
476.88	0.652
477.09	0.653
477.29	0.655
477.49	0.655
477.69	0.655
477.89	0.655
478.09	0.654
478.30	0.657
478.50	0.654
478.70	0.653
478.90	0.654
479.10	0.656
479.31	0.657
479.51	0.655
479.71	0.655
479.91	0.655
480.11	0.654
480.31	0.654
480.52	0.653
480.72	0.654
480.92	0.652
481.12	0.651
481.32	0.648
481.52	0.646
481.72	0.646
481.93	0.650
482.13	0.651
482.33	0.651
482.53	0.649
482.73	0.650
482.93	0.651
483.14	0.651
483.34	0.650
483.54	0.651
483.74	0.650
483.94	0.650
484.14	0.645
484.34	0.646
484.55	0.646
484.75	0.645
484.95	0.643
485.15	0.643
485.35	0.642
485.55	0.642
485.75	0.640
485.96	0.641
486.16	0.642
486.36	0.641
486.56	0.640
486.76	0.639
486.96	0.640
487.16	0.639
487.36	0.637
487.57	0.637
487.77	0.638
487.97	0.639
488.17	0.637
488.37	0.636
488.57	0.637
488.77	0.637
488.97	0.636
489.18	0.636
489.38	0.638
489.58	0.638
489.78	0.637
489.98	0.637
490.18	0.637
490.38	0.637
490.58	0.636
490.78	0.637
490.98	0.638
491.19	0.639
491.39	0.638
491.59	0.637
491.79	0.640
491.99	0.640
492.19	0.640
492.39	0.643
492.59	0.643
492.79	0.645
492.99	0.645
493.20	0.645
493.40	0.645
493.60	0.647
493.80	0.645
494.00	0.643
494.20	0.643
494.40	0.643
494.60	0.640
494.80	0.644
495.00	0.643
495.20	0.642
495.40	0.641
495.61	0.643
495.81	0.643
496.01	0.647
496.21	0.648
496.41	0.647
496.61	0.648
496.81	0.646
497.01	0.641
497.21	0.641
497.41	0.641
497.61	0.641
497.81	0.638
498.01	0.638
498.21	0.635
498.41	0.633
498.61	0.633
498.82	0.635
499.02	0.637
499.22	0.638
499.42	0.637
499.62	0.638
499.82	0.639
500.02	0.641
500.22	0.639
500.42	0.641
500.62	0.642
500.82	0.642
501.02	0.641
501.22	0.641
501.42	0.641
501.62	0.643
501.82	0.642
502.02	0.642
502.22	0.641
502.42	0.643
502.62	0.640
502.82	0.641
503.02	0.641
503.22	0.640
503.42	0.638
503.63	0.638
503.83	0.636
504.03	0.635
504.23	0.634
504.43	0.635
504.63	0.635
504.83	0.635
505.03	0.634
505.23	0.636
505.43	0.638
505.63	0.639
505.83	0.638
506.03	0.640
506.23	0.642
506.43	0.642
506.63	0.641
506.83	0.639
507.03	0.641
507.23	0.642
507.43	0.639
507.63	0.639
507.83	0.640
508.03	0.640
508.23	0.639
508.43	0.637
508.63	0.639
508.83	0.640
509.03	0.641
509.23	0.640
509.43	0.641
509.63	0.641
509.83	0.640
510.03	0.642
510.23	0.644
510.43	0.644
510.63	0.645
510.83	0.645
511.03	0.647
511.23	0.644
511.43	0.644
511.63	0.645
511.83	0.648
512.03	0.647
512.22	0.644
512.42	0.643
512.62	0.644
512.82	0.644
513.02	0.643
513.22	0.642
513.42	0.644
513.62	0.647
513.82	0.645
514.02	0.644
514.22	0.645
514.42	0.646
514.62	0.647
514.82	0.647
515.02	0.649
515.22	0.652
515.42	0.651
515.62	0.653
515.82	0.652
516.02	0.654
516.22	0.654
516.42	0.655
516.62	0.657
516.82	0.657
517.01	0.656
517.21	0.655
517.41	0.658
517.61	0.658
517.81	0.655
518.01	0.654
518.21	0.654
518.41	0.652
518.61	0.652
518.81	0.652
519.01	0.653
519.21	0.653
519.41	0.651
519.61	0.647
519.81	0.648
520.00	0.649
520.20	0.650
520.40	0.652
520.60	0.653
520.80	0.652
521.00	0.652
521.20	0.653
521.40	0.658
521.60	0.659
521.80	0.658
522.00	0.658
522.20	0.660
522.39	0.659
522.59	0.656
522.79	0.658
522.99	0.660
523.19	0.659
523.39	0.657
523.59	0.655
523.79	0.658
523.99	0.660
524.19	0.659
524.38	0.658
524.58	0.659
524.78	0.659
524.98	0.657
525.18	0.659
525.38	0.660
525.58	0.660
525.78	0.658
525.98	0.656
526.18	0.657
526.37	0.656
526.57	0.658
526.77	0.658
526.97	0.658
527.17	0.659
527.37	0.656
527.57	0.659
527.77	0.660
527.96	0.660
528.16	0.659
528.36	0.660
528.56	0.662
528.76	0.659
528.96	0.659
529.16	0.660
529.36	0.663
529.55	0.663
529.75	0.659
529.95	0.660
530.15	0.661
530.35	0.663
530.55	0.661
530.75	0.661
530.94	0.663
531.14	0.663
531.34	0.662
531.54	0.660
531.74	0.663
531.94	0.666
532.13	0.665
532.33	0.666
532.53	0.665
532.73	0.664
532.93	0.662
533.13	0.663
533.33	0.663
533.52	0.663
533.72	0.667
533.92	0.664
534.12	0.662
534.32	0.662
534.52	0.660
534.71	0.662
534.91	0.665
535.11	0.667
535.31	0.665
535.51	0.667
535.71	0.669
535.90	0.667
536.10	0.669
536.30	0.670
536.50	0.671
536.70	0.671
536.89	0.669
537.09	0.668
537.29	0.670
537.49	0.670
537.69	0.668
537.89	0.668
538.08	0.667
538.28	0.665
538.48	0.665
538.68	0.667
538.88	0.668
539.07	0.668
539.27	0.666
539.47	0.666
539.67	0.666
539.87	0.667
540.06	0.665
540.26	0.667
540.46	0.669
540.66	0.667
540.86	0.665
541.05	0.665
541.25	0.667
541.45	0.667
541.65	0.666
541.84	0.667
542.04	0.668
542.24	0.669
542.44	0.667
542.64	0.668
542.83	0.671
543.03	0.672
543.23	0.669
543.43	0.670
543.62	0.671
543.82	0.672
544.02	0.671
544.22	0.671
544.42	0.674
544.61	0.675
544.81	0.672
545.01	0.671
545.21	0.673
545.40	0.673
545.60	0.671
545.80	0.674
546.00	0.674
546.19	0.673
546.39	0.672
546.59	0.669
546.79	0.670
546.98	0.670
547.18	0.670
547.38	0.670
547.58	0.673
547.77	0.674
547.97	0.670
548.17	0.672
548.37	0.673
548.56	0.674
548.76	0.673
548.96	0.675
549.16	0.677
549.35	0.677
549.55	0.674
549.75	0.674
549.95	0.677
550.14	0.677
550.34	0.675
550.54	0.680
550.73	0.684
550.93	0.684
551.13	0.681
551.33	0.680
551.52	0.681
551.72	0.682
551.92	0.680
552.12	0.681
552.31	0.682
552.51	0.682
552.71	0.677
552.90	0.677
553.10	0.678
553.30	0.678
553.50	0.677
553.69	0.679
553.89	0.678
554.09	0.679
554.28	0.675
554.48	0.676
554.68	0.678
554.87	0.679
555.07	0.676
555.27	0.676
555.47	0.678
555.66	0.679
555.86	0.677
556.06	0.680
556.25	0.681
556.45	0.689
556.65	0.687
556.84	0.690
557.04	0.693
557.24	0.694
557.43	0.693
557.63	0.696
557.83	0.698
558.02	0.699
558.22	0.702
558.42	0.703
558.61	0.696
558.81	0.696
559.01	0.694
559.21	0.693
559.40	0.694
559.60	0.694
559.80	0.691
559.99	0.692
560.19	0.693
560.39	0.687
560.58	0.685
560.78	0.685
560.97	0.688
561.17	0.686
561.37	0.684
561.56	0.685
561.76	0.686
561.96	0.686
562.15	0.684
562.35	0.686
562.55	0.688
562.74	0.688
562.94	0.687
563.14	0.684
563.33	0.685
563.53	0.685
563.73	0.682
563.92	0.683
564.12	0.685
564.31	0.687
564.51	0.686
564.71	0.687
564.90	0.690
565.10	0.690
565.30	0.694
565.49	0.695
565.69	0.698
565.89	0.698
566.08	0.695
566.28	0.697
566.47	0.699
566.67	0.696
566.87	0.694
567.06	0.695
567.26	0.701
567.46	0.697
567.65	0.697
567.85	0.698
568.04	0.702
568.24	0.701
568.44	0.698
568.63	0.697
568.83	0.698
569.02	0.697
569.22	0.693
569.42	0.689
569.61	0.692
569.81	0.690
570.00	0.688
570.20	0.689
570.40	0.690
570.59	0.690
570.79	0.688
570.98	0.686
571.18	0.687
571.38	0.687
571.57	0.684
571.77	0.681
571.96	0.684
572.16	0.682
572.35	0.677
572.55	0.678
572.75	0.676
572.94	0.676
573.14	0.675
573.33	0.675
573.53	0.676
573.73	0.676
573.92	0.674
574.12	0.672
574.31	0.674
574.51	0.675
574.70	0.672
574.90	0.674
575.09	0.676
575.29	0.676
575.49	0.673
575.68	0.673
575.88	0.674
576.07	0.675
576.27	0.673
576.46	0.672
576.66	0.670
576.86	0.670
577.05	0.668
577.25	0.666
577.44	0.668
577.64	0.667
577.83	0.666
578.03	0.667
578.22	0.667
578.42	0.666
578.61	0.664
578.81	0.666
579.00	0.666
579.20	0.665
579.40	0.664
579.59	0.663
579.79	0.663
579.98	0.662
580.18	0.662
580.37	0.662
580.57	0.664
580.76	0.669
580.96	0.667
581.15	0.667
581.35	0.670
581.54	0.669
581.74	0.669
581.93	0.671
582.13	0.672
582.32	0.669
582.52	0.667
582.71	0.666
582.91	0.662
583.10	0.662
583.30	0.661
583.49	0.661
583.69	0.664
583.88	0.665
584.08	0.664
584.27	0.667
584.47	0.670
584.66	0.670
584.86	0.669
585.05	0.671
585.25	0.674
585.44	0.673
585.64	0.671
585.83	0.668
586.03	0.668
586.22	0.667
586.42	0.663
586.61	0.664
586.81	0.667
587.00	0.666
587.20	0.664
587.39	0.664
587.59	0.665
587.78	0.667
587.98	0.667
588.17	0.668
588.37	0.670
588.56	0.672
588.76	0.669
588.95	0.669
589.15	0.673
589.34	0.676
589.54	0.674
589.73	0.675
589.92	0.678
590.12	0.678
590.31	0.676
590.51	0.682
590.70	0.683
590.90	0.683
591.09	0.682
591.29	0.680
591.48	0.680
591.68	0.681
591.87	0.680
592.06	0.679
592.26	0.682
592.45	0.681
592.65	0.674
592.84	0.674
593.04	0.676
593.23	0.678
593.43	0.675
593.62	0.675
593.81	0.674
594.01	0.673
594.20	0.671
594.40	0.670
594.59	0.672
594.79	0.673
594.98	0.671
595.17	0.671
595.37	0.672
595.56	0.674
595.76	0.675
595.95	0.676
596.14	0.680
596.34	0.681
596.53	0.680
596.73	0.681
596.92	0.682
597.12	0.685
597.31	0.685
597.50	0.683
597.70	0.685
597.89	0.684
598.09	0.680
598.28	0.682
598.47	0.684
598.67	0.683
598.86	0.679
599.06	0.681
599.25	0.681
599.44	0.679
599.64	0.676
599.83	0.674
600.03	0.677
600.22	0.677
600.41	0.677
600.61	0.675
600.80	0.677
601.00	0.678
601.19	0.674
601.38	0.672
601.58	0.675
601.77	0.677
601.96	0.679
602.16	0.679
602.35	0.688
602.55	0.685
602.74	0.687
602.93	0.688
603.13	0.693
603.32	0.695
603.51	0.695
603.71	0.698
603.90	0.700
604.09	0.700
604.29	0.697
604.48	0.691
604.68	0.693
604.87	0.691
605.06	0.688
605.26	0.684
605.45	0.684
605.64	0.683
605.84	0.678
606.03	0.677
606.22	0.676
606.42	0.675
606.61	0.672
606.80	0.672
607.00	0.673
607.19	0.673
607.38	0.672
607.58	0.674
607.77	0.675
607.96	0.675
608.16	0.675
608.35	0.679
608.54	0.682
608.74	0.684
608.93	0.690
609.12	0.693
609.32	0.695
609.51	0.699
609.70	0.697
609.90	0.699
610.09	0.704
610.28	0.709
610.48	0.703
610.67	0.704
610.86	0.704
611.06	0.699
611.25	0.697
611.44	0.698
611.64	0.697
611.83	0.700
612.02	0.698
612.21	0.696
612.41	0.695
612.60	0.694
612.79	0.691
612.99	0.691
613.18	0.693
613.37	0.690
613.57	0.687
613.76	0.689
613.95	0.686
614.14	0.685
614.34	0.683
614.53	0.683
614.72	0.686
614.92	0.686
615.11	0.683
615.30	0.680
615.49	0.681
615.69	0.684
615.88	0.681
616.07	0.682
616.26	0.684
616.46	0.685
616.65	0.682
616.84	0.681
617.04	0.683
617.23	0.686
617.42	0.686
617.61	0.690
617.81	0.689
618.00	0.692
618.19	0.691
618.38	0.694
618.58	0.698
618.77	0.699
618.96	0.699
619.15	0.700
619.35	0.701
619.54	0.702
619.73	0.698
619.92	0.701
620.12	0.704
620.31	0.705
620.50	0.701
620.69	0.701
620.89	0.704
621.08	0.704
621.27	0.705
621.46	0.704
621.66	0.707
621.85	0.708
622.04	0.705
622.23	0.706
622.43	0.706
622.62	0.706
622.81	0.706
623.00	0.705
623.19	0.709
623.39	0.706
623.58	0.704
623.77	0.702
623.96	0.705
624.16	0.704
624.35	0.698
624.54	0.701
624.73	0.705
624.92	0.702
625.12	0.700
625.31	0.701
625.50	0.704
625.69	0.704
625.88	0.701
626.08	0.701
626.27	0.703
626.46	0.704
626.65	0.701
626.84	0.701
627.04	0.706
627.23	0.705
627.42	0.702
627.61	0.703
627.80	0.706
628.00	0.706
628.19	0.705
628.38	0.708
628.57	0.709
628.76	0.708
628.96	0.705
629.15	0.705
629.34	0.708
629.53	0.707
629.72	0.702
629.91	0.703
630.11	0.707
630.30	0.708
630.49	0.710
630.68	0.711
630.87	0.715
631.06	0.716
631.26	0.712
631.45	0.714
631.64	0.722
631.83	0.725
632.02	0.722
632.21	0.721
632.41	0.727
632.60	0.722
632.79	0.720
632.98	0.720
633.17	0.721
633.36	0.723
633.55	0.719
633.75	0.716
633.94	0.716
634.13	0.716
634.32	0.714
634.51	0.708
634.70	0.711
634.89	0.710
635.09	0.707
635.28	0.707
635.47	0.708
635.66	0.711
635.85	0.707
636.04	0.708
636.23	0.713
636.43	0.713
636.62	0.713
636.81	0.711
637.00	0.715
637.19	0.718
637.38	0.714
637.57	0.714
637.76	0.715
637.95	0.717
638.15	0.713
638.34	0.709
638.53	0.712
638.72	0.713
638.91	0.710
639.10	0.707
639.29	0.707
639.48	0.708
639.67	0.708
639.87	0.707
640.06	0.712
640.25	0.712
640.44	0.713
640.63	0.714
640.82	0.717
641.01	0.717
641.20	0.718
641.39	0.719
641.58	0.720
641.78	0.720
641.97	0.716
642.16	0.730
642.35	0.732
642.54	0.731
642.73	0.725
642.92	0.724
643.11	0.727
643.30	0.727
643.49	0.722
643.68	0.724
643.87	0.725
644.06	0.724
644.25	0.705
644.45	0.707
644.64	0.708
644.83	0.709
645.02	0.705
645.21	0.705
645.40	0.707
645.59	0.707
645.78	0.702
645.97	0.704
646.16	0.706
646.35	0.705
646.54	0.703
646.73	0.705
646.92	0.707
647.11	0.706
647.30	0.702
647.49	0.703
647.68	0.703
647.88	0.701
648.07	0.694
648.26	0.697
648.45	0.699
648.64	0.696
648.83	0.693
649.02	0.695
649.21	0.705
649.40	0.705
649.59	0.700
649.78	0.700
649.97	0.715
650.16	0.715
650.35	0.709
650.54	0.711
650.73	0.719
650.92	0.715
651.11	0.709
651.30	0.706
651.49	0.710
651.68	0.710
651.87	0.708
652.06	0.697
652.25	0.700
652.44	0.703
652.63	0.702
652.82	0.703
653.01	0.703
653.20	0.702
653.39	0.691
653.58	0.689
653.77	0.689
653.96	0.684
654.15	0.677
654.34	0.675
654.53	0.670
654.72	0.663
654.91	0.654
655.10	0.650
655.29	0.647
655.48	0.645
655.67	0.640
655.86	0.638
656.05	0.636
656.24	0.636
656.43	0.630
656.62	0.629
656.81	0.629
657.00	0.626
657.19	0.623
657.38	0.623
657.57	0.621
657.76	0.623
657.95	0.621
658.14	0.623
658.33	0.626
658.51	0.631
658.70	0.630
658.89	0.632
659.08	0.641
659.27	0.649
659.46	0.649
659.65	0.656
659.84	0.659
660.03	0.663
660.22	0.664
660.41	0.668
660.60	0.667
660.79	0.669
660.98	0.675
661.17	0.675
661.36	0.674
661.55	0.675
661.74	0.673
661.92	0.676
662.11	0.678
662.30	0.676
662.49	0.670
662.68	0.669
662.87	0.672
663.06	0.666
663.25	0.667
663.44	0.667
663.63	0.668
663.82	0.666
664.01	0.661
664.20	0.659
664.38	0.661
664.57	0.662
664.76	0.662
664.95	0.662
665.14	0.666
665.33	0.661
665.52	0.669
665.71	0.673
665.90	0.672
666.09	0.673
666.28	0.671
666.46	0.669
666.65	0.669
666.84	0.668
667.03	0.662
667.22	0.661
667.41	0.665
667.60	0.655
667.79	0.648
667.98	0.650
668.16	0.650
668.35	0.650
668.54	0.647
668.73	0.647
668.92	0.648
669.11	0.648
669.30	0.641
669.49	0.637
669.67	0.638
669.86	0.640
670.05	0.638
670.24	0.637
670.43	0.634
670.62	0.634
670.81	0.629
671.00	0.629
671.18	0.629
671.37	0.628
671.56	0.626
671.75	0.626
671.94	0.623
672.13	0.621
672.32	0.616
672.50	0.616
672.69	0.615
672.88	0.616
673.07	0.612
673.26	0.614
673.45	0.615
673.63	0.615
673.82	0.611
674.01	0.612
674.20	0.611
674.39	0.611
674.58	0.610
674.76	0.610
674.95	0.609
675.14	0.608
675.33	0.603
675.52	0.602
675.71	0.603
675.89	0.602
676.08	0.598
676.27	0.598
676.46	0.599
676.65	0.598
676.84	0.598
677.02	0.600
677.21	0.602
677.40	0.603
677.59	0.600
677.78	0.600
677.96	0.603
678.15	0.602
678.34	0.600
678.53	0.600
678.72	0.601
678.90	0.598
679.09	0.594
679.28	0.590
679.47	0.590
679.66	0.590
679.84	0.587
680.03	0.584
680.22	0.583
680.41	0.585
680.60	0.581
680.78	0.580
680.97	0.583
681.16	0.583
681.35	0.582
681.53	0.581
681.72	0.582
681.91	0.583
682.10	0.582
682.29	0.584
682.47	0.582
682.66	0.581
682.85	0.580
683.04	0.578
683.22	0.577
683.41	0.579
683.60	0.577
683.79	0.578
683.97	0.577
684.16	0.576
684.35	0.572
684.54	0.575
684.72	0.575
684.91	0.576
685.10	0.574
685.29	0.575
685.47	0.572
685.66	0.572
685.85	0.569
686.04	0.568
686.22	0.570
686.41	0.573
686.60	0.569
686.79	0.573
686.97	0.574
687.16	0.575
687.35	0.573
687.54	0.576
687.72	0.579
687.91	0.579
688.10	0.581
688.29	0.581
688.47	0.579
688.66	0.579
688.85	0.574
689.03	0.571
689.22	0.575
689.41	0.575
689.60	0.571
689.78	0.569
689.97	0.569
690.16	0.566
690.34	0.562
690.53	0.562
690.72	0.562
690.91	0.560
691.09	0.558
691.28	0.553
691.47	0.550
691.65	0.549
691.84	0.547
692.03	0.546
692.21	0.544
692.40	0.543
692.59	0.541
692.77	0.540
692.96	0.542
693.15	0.543
693.34	0.540
693.52	0.541
693.71	0.541
693.90	0.542
694.08	0.543
694.27	0.544
694.46	0.553
694.64	0.554
694.83	0.554
695.02	0.552
695.20	0.552
695.39	0.552
695.58	0.552
695.76	0.552
695.95	0.552
696.14	0.551
696.32	0.549
696.51	0.540
696.70	0.539
696.88	0.541
697.07	0.539
697.26	0.540
697.44	0.541
697.63	0.540
697.81	0.538
698.00	0.538
698.19	0.537
698.37	0.537
698.56	0.537
698.75	0.537
698.93	0.537
699.12	0.537
699.31	0.535
699.49	0.535
699.68	0.536
699.87	0.539
700.05	0.538
700.24	0.538
700.42	0.539
700.61	0.538
700.80	0.535
700.98	0.536
701.17	0.537
701.36	0.536
701.54	0.536
701.73	0.537
701.91	0.534
702.10	0.533
702.29	0.532
702.47	0.531
702.66	0.533
702.84	0.534
703.03	0.532
703.22	0.534
703.40	0.533
703.59	0.534
703.77	0.533
703.96	0.534
704.15	0.535
704.33	0.535
704.52	0.535
704.70	0.533
704.89	0.532
705.08	0.531
705.26	0.527
705.45	0.526
705.63	0.526
705.82	0.523
706.00	0.521
706.19	0.521
706.38	0.521
706.56	0.520
706.75	0.518
706.93	0.517
707.12	0.518
707.30	0.519
707.49	0.518
707.68	0.516
707.86	0.515
708.05	0.515
708.23	0.512
708.42	0.512
708.60	0.515
708.79	0.515
708.98	0.514
709.16	0.513
709.35	0.514
709.53	0.517
709.72	0.517
709.90	0.519
710.09	0.521
710.27	0.523
710.46	0.527
710.64	0.526
710.83	0.527
711.02	0.530
711.20	0.529
711.39	0.528
711.57	0.525
711.76	0.525
711.94	0.524
712.13	0.524
712.31	0.524
712.50	0.520
712.68	0.517
712.87	0.518
713.05	0.518
713.24	0.518
713.42	0.517
713.61	0.518
713.79	0.519
713.98	0.519
714.16	0.520
714.35	0.520
714.54	0.521
714.72	0.521
714.91	0.519
715.09	0.524
715.28	0.528
715.46	0.528
715.65	0.525
715.83	0.524
716.02	0.526
716.20	0.522
716.39	0.522
716.57	0.523
716.76	0.524
716.94	0.525
717.12	0.518
717.31	0.519
717.49	0.522
717.68	0.524
717.86	0.524
718.05	0.526
718.23	0.528
718.42	0.530
718.60	0.531
718.79	0.538
718.97	0.540
719.16	0.540
719.34	0.538
719.53	0.537
719.71	0.537
719.90	0.539
720.08	0.536
720.27	0.537
720.45	0.537
720.63	0.535
720.82	0.530
721.00	0.533
721.19	0.536
721.37	0.536
721.56	0.536
721.74	0.539
721.93	0.546
722.11	0.554
722.30	0.553
722.48	0.557
722.66	0.558
722.85	0.557
723.03	0.556
723.22	0.554
723.40	0.558
723.59	0.557
723.77	0.562
723.95	0.556
724.14	0.556
724.32	0.559
724.51	0.558
724.69	0.559
724.88	0.561
725.06	0.559
725.24	0.561
725.43	0.562
725.61	0.564
725.80	0.557
725.98	0.556
726.16	0.553
726.35	0.558
726.53	0.557
726.72	0.556
726.90	0.566
727.09	0.566
727.27	0.572
727.45	0.569
727.64	0.578
727.82	0.586
728.01	0.590
728.19	0.589
728.37	0.593
728.56	0.598
728.74	0.603
728.92	0.591
729.11	0.594
729.29	0.592
729.48	0.594
729.66	0.584
729.84	0.582
730.03	0.584
730.21	0.586
730.40	0.576
730.58	0.577
730.76	0.578
730.95	0.580
731.13	0.580
731.31	0.592
731.50	0.601
731.68	0.604
731.86	0.601
732.05	0.614
732.23	0.618
732.42	0.622
732.60	0.625
732.78	0.628
732.97	0.645
733.15	0.651
733.33	0.640
733.52	0.648
733.70	0.659
733.88	0.670
734.07	0.656
734.25	0.680
734.43	0.689
734.62	0.692
734.80	0.689
734.98	0.681
735.17	0.686
735.35	0.694
735.53	0.680
735.72	0.681
735.90	0.700
736.08	0.718
736.27	0.697
736.45	0.704
736.63	0.714
736.82	0.723
737.00	0.723
737.18	0.734
737.37	0.763
737.55	0.786
737.73	0.782
737.92	0.784
738.10	0.781
738.28	0.800
738.46	0.790
738.65	0.803
738.83	0.823
739.01	0.876
739.20	0.868
739.38	0.850
739.56	0.839
739.75	0.843
739.93	0.815
740.11	0.839
740.29	0.836
740.48	0.841
740.66	0.823
740.84	0.815
741.03	0.779
741.21	0.787
741.39	0.772
741.57	0.785
741.76	0.801
741.94	0.805
742.12	0.773
742.31	0.777
742.49	0.794
742.67	0.817
742.85	0.830
743.04	0.834
743.22	0.842
743.40	0.894
743.58	0.877
743.77	0.889
743.95	0.919
744.13	0.967
744.31	0.952
744.50	0.945
744.68	0.943
744.86	0.919
745.04	0.931
745.23	0.994
745.41	0.972
745.59	0.972
745.77	0.940
745.96	0.930
746.14	0.933
746.32	0.932
746.50	0.932
746.69	0.916
746.87	0.922
747.05	0.906
747.23	0.837
747.42	0.823
747.60	0.850
747.78	0.854
747.96	0.882
748.14	0.845
748.33	0.874
748.51	0.863
748.69	0.855
748.87	0.883
749.06	0.878
749.24	0.875
749.42	0.863
749.60	0.847
749.78	0.852
749.97	0.810
750.15	0.802
750.33	0.801
750.51	0.825
750.69	0.831
750.88	0.833
751.06	0.842
751.24	0.866
751.42	0.858
751.60	0.852
751.79	0.922
751.97	0.966
752.15	0.961
752.33	0.929
752.51	0.989
752.69	1.000
752.88	0.973
753.06	1.017
753.24	0.994
753.42	1.024
753.60	1.179
753.78	1.047
753.97	1.058
754.15	1.078
754.33	1.109
754.51	0.996
754.69	0.981
754.87	1.009
755.06	0.947
755.24	0.951
755.42	0.959
755.60	0.860
755.78	0.868
755.96	0.821
756.15	0.822
756.33	0.827
756.51	0.845
756.69	0.835
756.87	0.802
757.05	0.817
757.23	0.801
757.42	0.771
757.60	0.769
757.78	0.760
757.96	0.758
758.14	0.742
758.32	0.728
758.50	0.739
758.69	0.736
758.87	0.727
759.05	0.730
759.23	0.742
759.41	0.743
759.59	0.738
759.77	0.758
759.95	0.784
760.13	0.831
760.32	0.831
760.50	0.824
760.68	0.847
760.86	0.851
761.04	0.827
761.22	0.824
761.40	0.870
761.58	0.871
761.76	0.842
761.95	0.825
762.13	0.781
762.31	0.779
762.49	0.753
762.67	0.769
762.85	0.779
763.03	0.774
763.21	0.761
763.39	0.741
763.57	0.744
763.75	0.744
763.94	0.729
764.12	0.733
764.30	0.755
764.48	0.761
764.66	0.726
764.84	0.725
765.02	0.758
765.20	0.764
765.38	0.747
765.56	0.751
765.74	0.786
765.92	0.787
766.10	0.795
766.28	0.786
766.46	0.812
766.65	0.816
766.83	0.804
767.01	0.791
767.19	0.795
767.37	0.796
767.55	0.785
767.73	0.766
767.91	0.767
768.09	0.756
768.27	0.748
768.45	0.737
768.63	0.739
768.81	0.744
768.99	0.720
769.17	0.743
769.35	0.756
769.53	0.755
769.71	0.737
769.89	0.747
770.07	0.752
770.25	0.737
770.43	0.717
770.61	0.738
770.79	0.740
770.97	0.747
771.15	0.719
771.33	0.720
771.51	0.720
771.69	0.730
771.87	0.738
772.05	0.743
772.24	0.750
772.42	0.762
772.60	0.742
772.78	0.797
772.96	0.822
773.14	0.819
773.32	0.800
773.49	0.806
773.67	0.804
773.85	0.784
774.03	0.774
774.21	0.801
774.39	0.808
774.57	0.833
774.75	0.768
774.93	0.764
775.11	0.785
775.29	0.790
775.47	0.792
775.65	0.799
775.83	0.814
776.01	0.835
776.19	0.793
776.37	0.797
776.55	0.794
776.73	0.792
776.91	0.788
777.09	0.772
777.27	0.770
777.45	0.761
777.63	0.742
777.81	0.737
777.99	0.722
778.17	0.721
778.35	0.700
778.53	0.688
778.71	0.694
778.89	0.683
779.07	0.674
779.24	0.680
779.42	0.679
779.60	0.697
779.78	0.695
779.96	0.699
780.14	0.704
780.32	0.724
780.50	0.710
780.68	0.708
780.86	0.701
781.04	0.718
781.22	0.720
781.40	0.729
781.58	0.719
781.75	0.712
781.93	0.698
782.11	0.699
782.29	0.684
782.47	0.684
782.65	0.672
782.83	0.698
783.01	0.689
783.19	0.684
783.37	0.673
783.55	0.675
783.72	0.691
783.90	0.700
784.08	0.694
784.26	0.706
784.44	0.723
784.62	0.726
784.80	0.696
784.98	0.702
785.16	0.705
785.33	0.717
785.51	0.707
785.69	0.695
785.87	0.696
786.05	0.707
786.23	0.703
786.41	0.700
786.59	0.706
786.77	0.705
786.94	0.693
787.12	0.698
787.30	0.701
787.48	0.698
787.66	0.685
787.84	0.685
788.02	0.674
788.19	0.673
788.37	0.660
788.55	0.662
788.73	0.661
788.91	0.655
789.09	0.642
789.27	0.630
789.44	0.641
789.62	0.648
789.80	0.656
789.98	0.681
790.16	0.667
790.34	0.665
790.51	0.652
790.69	0.673
790.87	0.680
791.05	0.674
791.23	0.669
791.41	0.671
791.58	0.677
791.76	0.656
791.94	0.626
792.12	0.634
792.30	0.636
792.48	0.635
792.65	0.628
792.83	0.635
793.01	0.645
793.19	0.643
793.37	0.628
793.54	0.625
793.72	0.636
793.90	0.636
794.08	0.628
794.26	0.627
794.43	0.634
794.61	0.619
794.79	0.608
794.97	0.605
795.15	0.609
795.32	0.613
795.50	0.602
795.68	0.596
795.86	0.601
796.04	0.602
796.21	0.597
796.39	0.595
796.57	0.608
796.75	0.615
796.92	0.615
797.10	0.621
797.28	0.622
797.46	0.626
797.64	0.629
797.81	0.636
797.99	0.640
798.17	0.645
798.35	0.641
798.52	0.644
798.70	0.639
798.88	0.648
799.06	0.647
799.23	0.651
799.41	0.657
799.59	0.649
799.77	0.641
799.94	0.647
800.12	0.655
800.30	0.670
800.48	0.668
800.65	0.669
800.83	0.658
801.01	0.650
801.19	0.650
801.36	0.646
801.54	0.649
801.72	0.656
801.90	0.645
802.07	0.639
802.25	0.626
802.43	0.611
802.60	0.607
802.78	0.613
802.96	0.616
803.14	0.609
803.31	0.609
803.49	0.609
803.67	0.606
803.84	0.609
804.02	0.604
804.20	0.607
804.38	0.612
804.55	0.612
804.73	0.601
804.91	0.603
805.08	0.616
805.26	0.612
805.44	0.676
805.61	0.679
805.79	0.678
805.97	0.678
806.15	0.670
806.32	0.666
806.50	0.672
806.68	0.671
806.85	0.663
807.03	0.655
807.21	0.672
807.38	0.605
807.56	0.595
807.74	0.605
807.91	0.610
808.09	0.612
808.27	0.631
808.44	0.654
808.62	0.662
808.80	0.662
808.97	0.657
809.15	0.652
809.33	0.669
809.50	0.676
809.68	0.660
809.86	0.666
810.03	0.694
810.21	0.676
810.39	0.660
810.56	0.667
810.74	0.688
810.91	0.755
811.09	0.742
811.27	0.759
811.44	0.764
811.62	0.769
811.80	0.754
811.97	0.728
812.15	0.728
812.33	0.723
812.50	0.710
812.68	0.699
812.85	0.647
813.03	0.651
813.21	0.623
813.38	0.619
813.56	0.622
813.74	0.631
813.91	0.638
814.09	0.664
814.26	0.659
814.44	0.661
814.62	0.652
814.79	0.653
814.97	0.656
815.14	0.658
815.32	0.662
815.50	0.677
815.67	0.679
815.85	0.671
816.02	0.660
816.20	0.665
816.38	0.679
816.55	0.684
816.73	0.686
816.90	0.694
817.08	0.720
817.26	0.725
817.43	0.704
817.61	0.726
817.78	0.743
817.96	0.725
818.13	0.717
818.31	0.717
818.49	0.728
818.66	0.717
818.84	0.706
819.01	0.688
819.19	0.691
819.36	0.695
819.54	0.670
819.71	0.708
819.89	0.721
820.07	0.731
820.24	0.726
820.42	0.727
820.59	0.744
820.77	0.766
820.94	0.760
821.12	0.778
821.29	0.788
821.47	0.787
821.64	0.733
821.82	0.745
822.00	0.743
822.17	0.740
822.35	0.732
822.52	0.736
822.70	0.725
822.87	0.732
823.05	0.712
823.22	0.724
823.40	0.747
823.57	0.768
823.75	0.749
823.92	0.777
824.10	0.793
824.27	0.833
824.45	0.826
824.62	0.884
824.80	0.900
824.97	0.913
825.15	0.901
825.32	0.911
825.50	0.905
825.67	0.917
825.85	0.897
826.02	0.916
826.20	0.931
826.37	1.045
826.55	0.973
826.72	1.141
826.90	1.206
827.07	1.266
827.25	1.229
827.42	1.396
827.60	1.536
827.77	1.677
827.95	1.619
828.12	1.749
828.30	1.374
828.47	1.473
828.65	1.163
828.82	1.200
829.00	1.225
829.17	1.288
829.34	1.280
829.52	1.298
829.69	-0.000
829.87	-0.000
830.04	-0.000
830.22	-0.000
830.39	-0.000
830.57	-0.000
830.74	-0.000
830.92	-0.000
831.09	-0.000
831.26	-0.000
831.44	-0.000
831.61	-0.000
831.79	-0.000
831.96	-0.000
832.14	-0.000
832.31	-0.000
832.49	-0.000
832.66	-0.000
832.83	-0.000
833.01	-0.000
833.18	-0.000
833.36	-0.000
833.53	-0.000
833.70	-0.000
833.88	-0.000
834.05	-0.000
834.23	-0.000
834.40	-0.000
834.58	-0.000
834.75	-0.000
834.92	-0.000
835.10	-0.000
835.27	-0.000
835.45	-0.000
835.62	-0.000
835.79	-0.000
835.97	-0.000
836.14	-0.000
836.32	-0.000
836.49	-0.000
836.66	-0.000
836.84	-0.000
837.01	-0.000
837.18	-0.000
837.36	-0.000
837.53	-0.000
837.71	-0.000
837.88	-0.000
838.05	-0.000
838.23	-0.000
838.40	-0.000
838.58	-0.000
838.75	-0.000
838.92	-0.000
839.10	-0.000
839.27	-0.000
839.44	-0.000
839.62	-0.000
839.79	-0.000
839.96	-0.000
840.14	-0.000
840.31	-0.000
840.48	-0.000
840.66	-0.000
840.83	-0.000
841.01	-0.000
841.18	-0.000
841.35	-0.000
841.53	-0.000
841.70	-0.000
841.87	-0.000
842.05	-0.000
842.22	-0.000
842.39	-0.000
842.57	-0.000
842.74	-0.000
842.91	-0.000
843.09	-0.000
843.26	-0.000
843.43	-0.000
843.60	-0.000
843.78	-0.000
843.95	-0.000
844.12	-0.000
844.30	-0.000
844.47	-0.000
844.64	-0.000
844.82	-0.000
844.99	-0.000
845.16	-0.000
845.34	-0.000
845.51	-0.000
845.68	-0.000
845.85	-0.000
846.03	-0.000
846.20	-0.000
846.37	-0.000
846.55	-0.000
846.72	-0.000
846.89	-0.000
847.06	-0.000
847.24	-0.000
847.41	-0.000
847.58	-0.000
847.76	-0.000
847.93	-0.000
848.10	-0.000
848.27	-0.000
848.45	-0.000
848.62	-0.000
848.79	-0.000
848.97	-0.000
849.14	-0.000
849.31	-0.000
849.48	-0.000
849.66	-0.000
849.83	-0.000
850.00	-0.000
850.17	-0.000
850.35	-0.000
850.52	-0.000
850.69	-0.000
850.86	-0.000
851.04	-0.000
851.21	-0.000
851.38	-0.000
851.55	-0.000
851.72	-0.000
851.90	-0.000
852.07	-0.000
852.24	-0.000
852.41	-0.000
852.59	-0.000
852.76	-0.000
852.93	-0.000
853.10	-0.000
853.28	-0.000
853.45	-0.000
853.62	-0.000
853.79	-0.000
853.96	-0.000
854.14	-0.000
854.31	-0.000
854.48	-0.000
854.65	-0.000
854.82	-0.000
855.00	-0.000
855.17	-0.000
855.34	-0.000
855.51	-0.000
855.68	-0.000
855.86	-0.000
856.03	-0.000
856.20	-0.000
856.37	-0.000
856.54	-0.000
856.72	-0.000
856.89	-0.000
857.06	-0.000
857.23	-0.000
857.40	-0.000
857.57	-0.000
857.75	-0.000
857.92	-0.000
858.09	-0.000
858.26	-0.000
858.43	-0.000
858.60	-0.000
858.78	-0.000
858.95	-0.000
859.12	-0.000
859.29	-0.000
859.46	-0.000
859.63	-0.000
859.81	-0.000
859.98	-0.000
860.15	-0.000
860.32	-0.000
860.49	-0.000
860.66	-0.000
860.83	-0.000
861.01	-0.000
861.18	-0.000
861.35	-0.000
861.52	-0.000
861.69	-0.000
861.86	-0.000
862.03	-0.000
862.21	-0.000
862.38	-0.000
862.55	-0.000
862.72	-0.000
862.89	-0.000
863.06	-0.000
863.23	-0.000
863.40	-0.000
863.58	-0.000
863.75	-0.000
863.92	-0.000
864.09	-0.000
864.26	-0.000
864.43	-0.000
864.60	-0.000
864.77	-0.000
864.94	-0.000
865.11	-0.000
865.29	-0.000
865.46	-0.000
865.63	-0.000
865.80	-0.000
865.97	-0.000
866.14	-0.000
866.31	-0.000
866.48	-0.000
866.65	-0.000
866.82	-0.000
866.99	-0.000
867.16	-0.000
867.34	-0.000
867.51	-0.000
867.68	-0.000
867.85	-0.000
868.02	-0.000
868.19	-0.000
868.36	-0.000
868.53	-0.000
868.70	-0.000
868.87	-0.000
869.04	-0.000
869.21	-0.000
869.38	-0.000
869.55	-0.000
869.72	-0.000
869.89	-0.000
870.06	-0.000
870.24	-0.000
870.41	-0.000
870.58	-0.000
870.75	-0.000
870.92	-0.000
871.09	-0.000
871.26	-0.000
871.43	-0.000
871.60	-0.000
871.77	-0.000
871.94	-0.000
872.11	-0.000
872.28	-0.000
872.45	-0.000
872.62	-0.000
872.79	-0.000
872.96	-0.000
873.13	-0.000
873.30	-0.000
873.47	-0.000
873.64	-0.000
873.81	-0.000
873.98	-0.000
874.15	-0.000
874.32	-0.000
874.49	-0.000
874.66	-0.000
874.83	-0.000
875.00	-0.000
875.17	-0.000
875.34	-0.000
875.51	-0.000
875.68	-0.000
875.85	-0.000
876.02	-0.000
876.19	-0.000
876.36	-0.000
876.53	-0.000
876.70	-0.000
876.87	-0.000
877.04	-0.000
877.21	-0.000
877.38	-0.000
877.55	-0.000
877.72	-0.000
877.89	-0.000
878.06	-0.000
878.23	-0.000
878.39	-0.000
878.56	-0.000
878.73	-0.000
878.90	-0.000
879.07	-0.000
879.24	-0.000
879.41	-0.000
879.58	-0.000
879.75	-0.000
879.92	-0.000
880.09	-0.000
880.26	-0.000
880.43	-0.000
880.60	-0.000
880.77	-0.000
880.94	-0.000
881.11	-0.000
881.27	-0.000
881.44	-0.000
881.61	-0.000
881.78	-0.000
881.95	-0.000
882.12	-0.000
882.29	-0.000
882.46	-0.000
882.63	-0.000
882.80	-0.000
882.97	-0.000
883.14	-0.000
883.30	-0.000
883.47	-0.000
883.64	-0.000
883.81	-0.000
883.98	-0.000
884.15	-0.000
884.32	-0.000
884.49	-0.000
884.66	-0.000
884.82	-0.000
884.99	-0.000
885.16	-0.000
885.33	-0.000
885.50	-0.000
885.67	-0.000
885.84	-0.000
886.01	-0.000
886.17	-0.000
886.34	-0.000
886.51	-0.000
886.68	-0.000
886.85	-0.000
887.02	-0.000
887.19	-0.000
887.36	-0.000
887.52	-0.000
887.69	-0.000
887.86	-0.000
888.03	-0.000
888.20	-0.000
888.37	-0.000
888.54	-0.000
888.70	-0.000
888.87	-0.000
889.04	-0.000
889.21	-0.000
889.38	-0.000
889.55	-0.000
889.71	-0.000
889.88	-0.000
890.05	-0.000
890.22	-0.000
890.39	-0.000
>>>>>End Processed Spectral Data<<<<<
