SpectraSuite Data File
++++++++++++++++++++++++++++++++++++
Date: Fri Jun 19 12:21:31 CEST 2015
User: introlabs
Dark Spectrum Present: Yes
Reference Spectrum Present: Yes
Number of Sampled Component Spectra: 1
Spectrometers: USB4H08886
Integration Time (usec): 745692 (USB4H08886)
Spectra Averaged: 5 (USB4H08886)
Boxcar Smoothing: 5 (USB4H08886)
Correct for Electrical Dark: Yes (USB4H08886)
Strobe/Lamp Enabled: No (USB4H08886)
Correct for Detector Non-linearity: Yes (USB4H08886)
Correct for Stray Light: Yes (USB4H08886)
Number of Pixels in Processed Spectrum: 3648
>>>>>Begin Processed Spectral Data<<<<<
178.14	-0.000
178.36	-0.000
178.57	-0.000
178.79	-0.000
179.01	-0.000
179.22	-0.000
179.44	-0.000
179.65	-0.000
179.87	-0.000
180.08	-0.000
180.30	-0.000
180.52	-0.000
180.73	-0.000
180.95	-0.000
181.16	-0.000
181.38	-0.000
181.59	-0.000
181.81	-0.000
182.03	-0.000
182.24	-0.000
182.46	-0.000
182.67	-0.000
182.89	-0.000
183.10	-0.000
183.32	-0.000
183.54	-0.000
183.75	-0.000
183.97	-0.000
184.18	-0.000
184.40	-0.000
184.61	-0.000
184.83	-0.000
185.04	-0.000
185.26	-0.000
185.48	-0.000
185.69	-0.000
185.91	-0.000
186.12	-0.000
186.34	-0.000
186.55	-0.000
186.77	-0.000
186.98	-0.000
187.20	-0.000
187.42	-0.000
187.63	-0.000
187.85	-0.000
188.06	-0.000
188.28	-0.000
188.49	-0.000
188.71	-0.000
188.92	-0.000
189.14	-0.000
189.36	-0.000
189.57	-0.000
189.79	-0.000
190.00	-0.000
190.22	-0.000
190.43	-0.000
190.65	-0.000
190.86	-0.000
191.08	-0.000
191.29	-0.000
191.51	-0.000
191.72	-0.000
191.94	-0.000
192.16	-0.000
192.37	-0.000
192.59	-0.000
192.80	-0.000
193.02	-0.000
193.23	-0.000
193.45	-0.000
193.66	-0.000
193.88	-0.000
194.09	-0.000
194.31	-0.000
194.52	-0.000
194.74	-0.000
194.95	-0.000
195.17	-0.000
195.38	-0.000
195.60	-0.000
195.81	-0.000
196.03	-0.000
196.25	-0.000
196.46	-0.000
196.68	-0.000
196.89	-0.000
197.11	-0.000
197.32	-0.000
197.54	-0.000
197.75	-0.000
197.97	-0.000
198.18	-0.000
198.40	-0.000
198.61	-0.000
198.83	-0.000
199.04	-0.000
199.26	-0.000
199.47	-0.000
199.69	-0.000
199.90	-0.000
200.12	-0.000
200.33	-0.000
200.55	-0.000
200.76	-0.000
200.98	-0.000
201.19	-0.000
201.41	-0.000
201.62	-0.000
201.84	-0.000
202.05	-0.000
202.27	-0.000
202.48	-0.000
202.70	-0.000
202.91	-0.000
203.13	-0.000
203.34	-0.000
203.56	-0.000
203.77	-0.000
203.99	-0.000
204.20	-0.000
204.42	-0.000
204.63	-0.000
204.85	-0.000
205.06	-0.000
205.28	-0.000
205.49	-0.000
205.71	-0.000
205.92	-0.000
206.14	-0.000
206.35	-0.000
206.56	-0.000
206.78	-0.000
206.99	-0.000
207.21	-0.000
207.42	-0.000
207.64	-0.000
207.85	-0.000
208.07	-0.000
208.28	-0.000
208.50	-0.000
208.71	-0.000
208.93	-0.000
209.14	-0.000
209.36	-0.000
209.57	-0.000
209.79	-0.000
210.00	-0.000
210.22	-0.000
210.43	-0.000
210.64	-0.000
210.86	-0.000
211.07	-0.000
211.29	-0.000
211.50	-0.000
211.72	-0.000
211.93	-0.000
212.15	-0.000
212.36	-0.000
212.58	-0.000
212.79	-0.000
213.01	-0.000
213.22	-0.000
213.43	-0.000
213.65	-0.000
213.86	-0.000
214.08	-0.000
214.29	-0.000
214.51	-0.000
214.72	-0.000
214.94	-0.000
215.15	-0.000
215.36	-0.000
215.58	-0.000
215.79	-0.000
216.01	-0.000
216.22	-0.000
216.44	-0.000
216.65	-0.000
216.87	-0.000
217.08	-0.000
217.29	-0.000
217.51	-0.000
217.72	-0.000
217.94	-0.000
218.15	-0.000
218.37	-0.000
218.58	-0.000
218.80	-0.000
219.01	-0.000
219.22	-0.000
219.44	-0.000
219.65	-0.000
219.87	-0.000
220.08	-0.000
220.30	-0.000
220.51	-0.000
220.72	-0.000
220.94	-0.000
221.15	-0.000
221.37	-0.000
221.58	-0.000
221.79	-0.000
222.01	-0.000
222.22	-0.000
222.44	-0.000
222.65	-0.000
222.87	-0.000
223.08	-0.000
223.29	-0.000
223.51	-0.000
223.72	-0.000
223.94	-0.000
224.15	-0.000
224.36	-0.000
224.58	-0.000
224.79	-0.000
225.01	-0.000
225.22	-0.000
225.44	-0.000
225.65	-0.000
225.86	-0.000
226.08	-0.000
226.29	-0.000
226.51	-0.000
226.72	-0.000
226.93	-0.000
227.15	-0.000
227.36	-0.000
227.58	-0.000
227.79	-0.000
228.00	-0.000
228.22	-0.000
228.43	-0.000
228.65	-0.000
228.86	-0.000
229.07	-0.000
229.29	-0.000
229.50	-0.000
229.72	-0.000
229.93	-0.000
230.14	-0.000
230.36	-0.000
230.57	-0.000
230.78	-0.000
231.00	-0.000
231.21	-0.000
231.43	-0.000
231.64	-0.000
231.85	-0.000
232.07	-0.000
232.28	-0.000
232.50	-0.000
232.71	-0.000
232.92	-0.000
233.14	-0.000
233.35	-0.000
233.56	-0.000
233.78	-0.000
233.99	-0.000
234.21	-0.000
234.42	-0.000
234.63	-0.000
234.85	-0.000
235.06	-0.000
235.27	-0.000
235.49	-0.000
235.70	-0.000
235.91	-0.000
236.13	-0.000
236.34	-0.000
236.56	-0.000
236.77	-0.000
236.98	-0.000
237.20	-0.000
237.41	-0.000
237.62	-0.000
237.84	-0.000
238.05	-0.000
238.26	-0.000
238.48	-0.000
238.69	-0.000
238.91	-0.000
239.12	-0.000
239.33	-0.000
239.55	-0.000
239.76	-0.000
239.97	-0.000
240.19	-0.000
240.40	-0.000
240.61	-0.000
240.83	-0.000
241.04	-0.000
241.25	-0.000
241.47	-0.000
241.68	-0.000
241.89	-0.000
242.11	-0.000
242.32	-0.000
242.53	-0.000
242.75	-0.000
242.96	-0.000
243.17	-0.000
243.39	-0.000
243.60	-0.000
243.81	-0.000
244.03	-0.000
244.24	-0.000
244.45	-0.000
244.67	-0.000
244.88	-0.000
245.09	-0.000
245.31	-0.000
245.52	-0.000
245.73	-0.000
245.95	-0.000
246.16	-0.000
246.37	-0.000
246.59	-0.000
246.80	-0.000
247.01	-0.000
247.23	-0.000
247.44	-0.000
247.65	-0.000
247.87	-0.000
248.08	-0.000
248.29	-0.000
248.51	-0.000
248.72	-0.000
248.93	-0.000
249.15	-0.000
249.36	-0.000
249.57	-0.000
249.78	-0.000
250.00	-0.000
250.21	-0.000
250.42	-0.000
250.64	-0.000
250.85	-0.000
251.06	-0.000
251.28	-0.000
251.49	-0.000
251.70	-0.000
251.92	-0.000
252.13	-0.000
252.34	-0.000
252.55	-0.000
252.77	-0.000
252.98	-0.000
253.19	-0.000
253.41	-0.000
253.62	-0.000
253.83	-0.000
254.05	-0.000
254.26	-0.000
254.47	-0.000
254.68	-0.000
254.90	-0.000
255.11	-0.000
255.32	-0.000
255.54	-0.000
255.75	-0.000
255.96	-0.000
256.17	-0.000
256.39	-0.000
256.60	-0.000
256.81	-0.000
257.03	-0.000
257.24	-0.000
257.45	-0.000
257.66	-0.000
257.88	-0.000
258.09	-0.000
258.30	-0.000
258.51	-0.000
258.73	-0.000
258.94	-0.000
259.15	-0.000
259.37	-0.000
259.58	-0.000
259.79	-0.000
260.00	-0.000
260.22	-0.000
260.43	-0.000
260.64	-0.000
260.85	-0.000
261.07	-0.000
261.28	-0.000
261.49	-0.000
261.71	-0.000
261.92	-0.000
262.13	-0.000
262.34	-0.000
262.56	-0.000
262.77	-0.000
262.98	-0.000
263.19	-0.000
263.41	-0.000
263.62	-0.000
263.83	-0.000
264.04	-0.000
264.26	-0.000
264.47	-0.000
264.68	-0.000
264.89	-0.000
265.11	-0.000
265.32	-0.000
265.53	-0.000
265.74	-0.000
265.96	-0.000
266.17	-0.000
266.38	-0.000
266.59	-0.000
266.81	-0.000
267.02	-0.000
267.23	-0.000
267.44	-0.000
267.65	-0.000
267.87	-0.000
268.08	-0.000
268.29	-0.000
268.50	-0.000
268.72	-0.000
268.93	-0.000
269.14	-0.000
269.35	-0.000
269.57	-0.000
269.78	-0.000
269.99	-0.000
270.20	-0.000
270.41	-0.000
270.63	-0.000
270.84	-0.000
271.05	-0.000
271.26	-0.000
271.48	-0.000
271.69	-0.000
271.90	-0.000
272.11	-0.000
272.32	-0.000
272.54	-0.000
272.75	-0.000
272.96	-0.000
273.17	-0.000
273.39	-0.000
273.60	-0.000
273.81	-0.000
274.02	-0.000
274.23	-0.000
274.45	-0.000
274.66	-0.000
274.87	-0.000
275.08	-0.000
275.29	-0.000
275.51	-0.000
275.72	-0.000
275.93	-0.000
276.14	-0.000
276.35	-0.000
276.57	-0.000
276.78	-0.000
276.99	-0.000
277.20	-0.000
277.41	-0.000
277.63	-0.000
277.84	-0.000
278.05	-0.000
278.26	-0.000
278.47	-0.000
278.69	-0.000
278.90	-0.000
279.11	-0.000
279.32	-0.000
279.53	-0.000
279.74	-0.000
279.96	-0.000
280.17	-0.000
280.38	-0.000
280.59	-0.000
280.80	-0.000
281.02	-0.000
281.23	-0.000
281.44	-0.000
281.65	-0.000
281.86	-0.000
282.07	-0.000
282.29	-0.000
282.50	-0.000
282.71	-0.000
282.92	-0.000
283.13	-0.000
283.35	-0.000
283.56	-0.000
283.77	-0.000
283.98	-0.000
284.19	-0.000
284.40	-0.000
284.62	-0.000
284.83	-0.000
285.04	-0.000
285.25	-0.000
285.46	-0.000
285.67	-0.000
285.88	-0.000
286.10	-0.000
286.31	-0.000
286.52	-0.000
286.73	-0.000
286.94	-0.000
287.15	-0.000
287.37	-0.000
287.58	-0.000
287.79	-0.000
288.00	-0.000
288.21	-0.000
288.42	-0.000
288.63	-0.000
288.85	-0.000
289.06	-0.000
289.27	-0.000
289.48	-0.000
289.69	-0.000
289.90	-0.000
290.11	-0.000
290.33	-0.000
290.54	-0.000
290.75	-0.000
290.96	-0.000
291.17	-0.000
291.38	-0.000
291.59	-0.000
291.81	1.869
292.02	1.854
292.23	1.809
292.44	1.602
292.65	1.508
292.86	1.620
293.07	1.603
293.28	1.456
293.50	1.489
293.71	1.556
293.92	1.510
294.13	1.543
294.34	1.552
294.55	1.609
294.76	1.588
294.97	1.492
295.19	1.536
295.40	1.672
295.61	1.632
295.82	1.457
296.03	1.406
296.24	1.441
296.45	1.325
296.66	1.229
296.87	1.230
297.09	1.260
297.30	1.299
297.51	1.199
297.72	1.183
297.93	1.222
298.14	1.213
298.35	1.189
298.56	1.180
298.77	1.225
298.99	1.219
299.20	1.203
299.41	1.194
299.62	1.191
299.83	1.187
300.04	1.155
300.25	1.149
300.46	1.173
300.67	1.165
300.88	1.138
301.10	1.140
301.31	1.173
301.52	1.150
301.73	1.119
301.94	1.114
302.15	1.125
302.36	1.105
302.57	1.073
302.78	1.074
302.99	1.095
303.20	1.102
303.41	1.057
303.63	1.046
303.84	1.050
304.05	1.052
304.26	1.020
304.47	1.025
304.68	1.029
304.89	1.023
305.10	0.997
305.31	0.991
305.52	1.015
305.73	1.012
305.94	0.988
306.15	0.985
306.37	0.997
306.58	1.001
306.79	0.980
307.00	0.991
307.21	1.016
307.42	1.012
307.63	0.990
307.84	0.973
308.05	0.993
308.26	0.995
308.47	0.978
308.68	0.977
308.89	0.983
309.10	0.981
309.31	0.955
309.52	0.950
309.73	0.962
309.95	0.957
310.16	0.940
310.37	0.935
310.58	0.947
310.79	0.947
311.00	0.941
311.21	0.940
311.42	0.945
311.63	0.942
311.84	0.930
312.05	0.928
312.26	0.946
312.47	0.952
312.68	0.935
312.89	0.926
313.10	0.932
313.31	0.915
313.52	0.913
313.73	0.914
313.94	0.918
314.15	0.905
314.36	0.891
314.57	0.884
314.78	0.877
314.99	0.873
315.21	0.862
315.42	0.865
315.63	0.876
315.84	0.862
316.05	0.851
316.26	0.857
316.47	0.870
316.68	0.866
316.89	0.852
317.10	0.866
317.31	0.872
317.52	0.873
317.73	0.858
317.94	0.857
318.15	0.886
318.36	0.886
318.57	0.871
318.78	0.864
318.99	0.890
319.20	0.887
319.41	0.863
319.62	0.863
319.83	0.873
320.04	0.869
320.25	0.859
320.46	0.836
320.67	0.839
320.88	0.836
321.09	0.826
321.30	0.816
321.51	0.827
321.72	0.827
321.93	0.814
322.14	0.811
322.35	0.831
322.56	0.832
322.77	0.822
322.98	0.831
323.19	0.839
323.40	0.842
323.61	0.825
323.82	0.821
324.03	0.826
324.24	0.824
324.45	0.814
324.66	0.800
324.87	0.800
325.08	0.799
325.29	0.783
325.50	0.781
325.71	0.787
325.92	0.793
326.13	0.783
326.34	0.784
326.55	0.791
326.76	0.790
326.97	0.781
327.18	0.777
327.39	0.797
327.60	0.798
327.80	0.793
328.01	0.793
328.22	0.794
328.43	0.797
328.64	0.787
328.85	0.790
329.06	0.793
329.27	0.792
329.48	0.788
329.69	0.774
329.90	0.783
330.11	0.778
330.32	0.771
330.53	0.766
330.74	0.767
330.95	0.767
331.16	0.755
331.37	0.760
331.58	0.762
331.79	0.761
332.00	0.754
332.21	0.748
332.42	0.753
332.63	0.747
332.83	0.742
333.04	0.743
333.25	0.753
333.46	0.752
333.67	0.740
333.88	0.741
334.09	0.750
334.30	0.747
334.51	0.739
334.72	0.736
334.93	0.740
335.14	0.739
335.35	0.733
335.56	0.730
335.77	0.738
335.98	0.738
336.18	0.732
336.39	0.727
336.60	0.732
336.81	0.731
337.02	0.729
337.23	0.733
337.44	0.737
337.65	0.738
337.86	0.729
338.07	0.725
338.28	0.730
338.49	0.729
338.70	0.723
338.91	0.727
339.11	0.733
339.32	0.730
339.53	0.720
339.74	0.717
339.95	0.716
340.16	0.716
340.37	0.709
340.58	0.707
340.79	0.711
341.00	0.711
341.21	0.702
341.41	0.703
341.62	0.706
341.83	0.708
342.04	0.703
342.25	0.710
342.46	0.714
342.67	0.713
342.88	0.708
343.09	0.706
343.30	0.713
343.50	0.715
343.71	0.706
343.92	0.705
344.13	0.710
344.34	0.710
344.55	0.698
344.76	0.697
344.97	0.702
345.18	0.701
345.38	0.698
345.59	0.694
345.80	0.695
346.01	0.693
346.22	0.688
346.43	0.684
346.64	0.692
346.85	0.692
347.06	0.686
347.26	0.687
347.47	0.691
347.68	0.687
347.89	0.684
348.10	0.679
348.31	0.686
348.52	0.686
348.73	0.682
348.93	0.679
349.14	0.681
349.35	0.682
349.56	0.676
349.77	0.672
349.98	0.678
350.19	0.676
350.39	0.672
350.60	0.668
350.81	0.682
351.02	0.682
351.23	0.677
351.44	0.679
351.65	0.683
351.86	0.681
352.06	0.680
352.27	0.680
352.48	0.683
352.69	0.682
352.90	0.678
353.11	0.668
353.31	0.674
353.52	0.672
353.73	0.665
353.94	0.666
354.15	0.672
354.36	0.672
354.57	0.665
354.77	0.666
354.98	0.667
355.19	0.667
355.40	0.665
355.61	0.671
355.82	0.675
356.02	0.674
356.23	0.668
356.44	0.669
356.65	0.672
356.86	0.672
357.07	0.666
357.27	0.670
357.48	0.673
357.69	0.669
357.90	0.656
358.11	0.653
358.32	0.657
358.52	0.659
358.73	0.651
358.94	0.654
359.15	0.658
359.36	0.660
359.56	0.655
359.77	0.652
359.98	0.659
360.19	0.659
360.40	0.656
360.61	0.657
360.81	0.658
361.02	0.658
361.23	0.650
361.44	0.650
361.65	0.651
361.85	0.650
362.06	0.648
362.27	0.649
362.48	0.651
362.69	0.653
362.89	0.647
363.10	0.648
363.31	0.653
363.52	0.656
363.73	0.651
363.93	0.651
364.14	0.654
364.35	0.656
364.56	0.647
364.77	0.648
364.97	0.651
365.18	0.652
365.39	0.646
365.60	0.643
365.81	0.644
366.01	0.644
366.22	0.641
366.43	0.642
366.64	0.644
366.84	0.650
367.05	0.646
367.26	0.646
367.47	0.648
367.68	0.650
367.88	0.646
368.09	0.645
368.30	0.649
368.51	0.648
368.71	0.646
368.92	0.650
369.13	0.648
369.34	0.648
369.55	0.646
369.75	0.646
369.96	0.652
370.17	0.652
370.38	0.648
370.58	0.648
370.79	0.654
371.00	0.653
371.21	0.645
371.41	0.650
371.62	0.655
371.83	0.651
372.04	0.648
372.24	0.641
372.45	0.644
372.66	0.644
372.87	0.640
373.07	0.637
373.28	0.638
373.49	0.641
373.70	0.633
373.90	0.632
374.11	0.641
374.32	0.641
374.53	0.640
374.73	0.641
374.94	0.643
375.15	0.644
375.36	0.641
375.56	0.649
375.77	0.650
375.98	0.650
376.19	0.646
376.39	0.641
376.60	0.645
376.81	0.646
377.02	0.643
377.22	0.642
377.43	0.642
377.64	0.642
377.84	0.634
378.05	0.638
378.26	0.644
378.47	0.644
378.67	0.641
378.88	0.638
379.09	0.639
379.30	0.639
379.50	0.637
379.71	0.639
379.92	0.642
380.12	0.641
380.33	0.632
380.54	0.629
380.75	0.635
380.95	0.634
381.16	0.632
381.37	0.632
381.57	0.635
381.78	0.635
381.99	0.634
382.20	0.634
382.40	0.637
382.61	0.638
382.82	0.634
383.02	0.628
383.23	0.632
383.44	0.632
383.64	0.629
383.85	0.631
384.06	0.634
384.27	0.632
384.47	0.629
384.68	0.630
384.89	0.635
385.09	0.635
385.30	0.634
385.51	0.633
385.71	0.637
385.92	0.637
386.13	0.635
386.33	0.636
386.54	0.638
386.75	0.637
386.95	0.632
387.16	0.628
387.37	0.631
387.58	0.631
387.78	0.629
387.99	0.626
388.20	0.628
388.40	0.625
388.61	0.621
388.82	0.623
389.02	0.626
389.23	0.626
389.44	0.624
389.64	0.623
389.85	0.633
390.06	0.633
390.26	0.633
390.47	0.632
390.68	0.635
390.88	0.633
391.09	0.629
391.30	0.628
391.50	0.627
391.71	0.627
391.92	0.625
392.12	0.619
392.33	0.620
392.53	0.620
392.74	0.620
392.95	0.619
393.15	0.622
393.36	0.624
393.57	0.622
393.77	0.625
393.98	0.627
394.19	0.626
394.39	0.625
394.60	0.626
394.81	0.627
395.01	0.625
395.22	0.623
395.43	0.623
395.63	0.627
395.84	0.627
396.04	0.623
396.25	0.624
396.46	0.626
396.66	0.624
396.87	0.621
397.08	0.619
397.28	0.621
397.49	0.622
397.69	0.618
397.90	0.614
398.11	0.616
398.31	0.617
398.52	0.613
398.73	0.614
398.93	0.614
399.14	0.613
399.34	0.611
399.55	0.612
399.76	0.613
399.96	0.613
400.17	0.611
400.37	0.610
400.58	0.615
400.79	0.617
400.99	0.614
401.20	0.619
401.41	0.622
401.61	0.623
401.82	0.626
402.02	0.626
402.23	0.627
402.44	0.626
402.64	0.626
402.85	0.621
403.05	0.620
403.26	0.619
403.47	0.613
403.67	0.612
403.88	0.613
404.08	0.608
404.29	0.606
404.50	0.606
404.70	0.606
404.91	0.605
405.11	0.602
405.32	0.603
405.52	0.603
405.73	0.603
405.94	0.601
406.14	0.604
406.35	0.606
406.55	0.605
406.76	0.602
406.97	0.603
407.17	0.606
407.38	0.605
407.58	0.603
407.79	0.606
407.99	0.608
408.20	0.608
408.41	0.604
408.61	0.602
408.82	0.604
409.02	0.604
409.23	0.601
409.43	0.601
409.64	0.603
409.84	0.603
410.05	0.599
410.26	0.598
410.46	0.598
410.67	0.597
410.87	0.598
411.08	0.600
411.28	0.601
411.49	0.602
411.69	0.600
411.90	0.600
412.11	0.602
412.31	0.602
412.52	0.600
412.72	0.601
412.93	0.602
413.13	0.601
413.34	0.597
413.54	0.598
413.75	0.600
413.95	0.599
414.16	0.597
414.37	0.599
414.57	0.600
414.78	0.602
414.98	0.600
415.19	0.601
415.39	0.600
415.60	0.602
415.80	0.602
416.01	0.600
416.21	0.603
416.42	0.603
416.62	0.598
416.83	0.599
417.03	0.599
417.24	0.599
417.44	0.597
417.65	0.596
417.86	0.597
418.06	0.594
418.27	0.592
418.47	0.593
418.68	0.594
418.88	0.595
419.09	0.593
419.29	0.594
419.50	0.595
419.70	0.594
419.91	0.593
420.11	0.591
420.32	0.594
420.52	0.594
420.73	0.593
420.93	0.594
421.14	0.595
421.34	0.594
421.55	0.591
421.75	0.591
421.96	0.593
422.16	0.593
422.37	0.592
422.57	0.590
422.78	0.592
422.98	0.589
423.19	0.586
423.39	0.586
423.60	0.590
423.80	0.590
424.01	0.589
424.21	0.591
424.42	0.592
424.62	0.592
424.83	0.591
425.03	0.591
425.23	0.593
425.44	0.594
425.64	0.594
425.85	0.592
426.05	0.594
426.26	0.594
426.46	0.590
426.67	0.590
426.87	0.595
427.08	0.595
427.28	0.593
427.49	0.593
427.69	0.594
427.90	0.593
428.10	0.590
428.31	0.590
428.51	0.592
428.71	0.592
428.92	0.592
429.12	0.590
429.33	0.592
429.53	0.596
429.74	0.598
429.94	0.599
430.15	0.599
430.35	0.599
430.56	0.596
430.76	0.596
430.96	0.597
431.17	0.596
431.37	0.593
431.58	0.591
431.78	0.589
431.99	0.584
432.19	0.585
432.40	0.587
432.60	0.589
432.80	0.591
433.01	0.589
433.21	0.589
433.42	0.590
433.62	0.592
433.83	0.591
434.03	0.594
434.23	0.596
434.44	0.595
434.64	0.593
434.85	0.597
435.05	0.598
435.26	0.598
435.46	0.597
435.66	0.597
435.87	0.597
436.07	0.597
436.28	0.593
436.48	0.590
436.69	0.590
436.89	0.590
437.09	0.585
437.30	0.584
437.50	0.585
437.71	0.595
437.91	0.594
438.11	0.595
438.32	0.600
438.52	0.600
438.73	0.599
438.93	0.598
439.13	0.599
439.34	0.601
439.54	0.599
439.75	0.598
439.95	0.590
440.15	0.594
440.36	0.593
440.56	0.591
440.77	0.592
440.97	0.592
441.17	0.591
441.38	0.592
441.58	0.590
441.79	0.590
441.99	0.589
442.19	0.588
442.40	0.587
442.60	0.587
442.81	0.585
443.01	0.585
443.21	0.586
443.42	0.586
443.62	0.584
443.82	0.584
444.03	0.586
444.23	0.586
444.44	0.586
444.64	0.585
444.84	0.587
445.05	0.587
445.25	0.584
445.45	0.585
445.66	0.587
445.86	0.586
446.06	0.587
446.27	0.587
446.47	0.591
446.68	0.589
446.88	0.588
447.08	0.588
447.29	0.590
447.49	0.590
447.69	0.590
447.90	0.589
448.10	0.593
448.30	0.591
448.51	0.592
448.71	0.589
448.91	0.592
449.12	0.591
449.32	0.592
449.52	0.591
449.73	0.595
449.93	0.594
450.14	0.594
450.34	0.593
450.54	0.596
450.75	0.593
450.95	0.593
451.15	0.592
451.36	0.595
451.56	0.592
451.76	0.590
451.97	0.588
452.17	0.589
452.37	0.588
452.58	0.585
452.78	0.584
452.98	0.587
453.19	0.587
453.39	0.587
453.59	0.586
453.79	0.588
454.00	0.588
454.20	0.587
454.40	0.587
454.61	0.589
454.81	0.590
455.01	0.588
455.22	0.589
455.42	0.591
455.62	0.589
455.83	0.588
456.03	0.591
456.23	0.592
456.44	0.593
456.64	0.592
456.84	0.592
457.04	0.593
457.25	0.593
457.45	0.590
457.65	0.588
457.86	0.590
458.06	0.588
458.26	0.584
458.47	0.584
458.67	0.585
458.87	0.585
459.07	0.583
459.28	0.585
459.48	0.587
459.68	0.588
459.89	0.586
460.09	0.586
460.29	0.587
460.49	0.589
460.70	0.587
460.90	0.587
461.10	0.589
461.31	0.589
461.51	0.586
461.71	0.587
461.91	0.588
462.12	0.589
462.32	0.587
462.52	0.588
462.72	0.591
462.93	0.591
463.13	0.590
463.33	0.590
463.53	0.591
463.74	0.591
463.94	0.586
464.14	0.587
464.35	0.589
464.55	0.589
464.75	0.587
464.95	0.585
465.16	0.587
465.36	0.587
465.56	0.586
465.76	0.585
465.97	0.585
466.17	0.586
466.37	0.584
466.57	0.585
466.78	0.586
466.98	0.587
467.18	0.584
467.38	0.583
467.59	0.585
467.79	0.586
467.99	0.585
468.19	0.586
468.39	0.589
468.60	0.590
468.80	0.588
469.00	0.589
469.20	0.590
469.41	0.590
469.61	0.589
469.81	0.589
470.01	0.589
470.22	0.590
470.42	0.588
470.62	0.586
470.82	0.587
471.02	0.587
471.23	0.585
471.43	0.585
471.63	0.588
471.83	0.587
472.04	0.585
472.24	0.584
472.44	0.589
472.64	0.589
472.84	0.587
473.05	0.587
473.25	0.590
473.45	0.589
473.65	0.588
473.85	0.588
474.06	0.591
474.26	0.591
474.46	0.591
474.66	0.589
474.86	0.590
475.07	0.590
475.27	0.588
475.47	0.585
475.67	0.587
475.87	0.588
476.08	0.585
476.28	0.586
476.48	0.587
476.68	0.586
476.88	0.584
477.09	0.585
477.29	0.587
477.49	0.587
477.69	0.586
477.89	0.586
478.09	0.586
478.30	0.587
478.50	0.585
478.70	0.585
478.90	0.585
479.10	0.587
479.31	0.588
479.51	0.587
479.71	0.588
479.91	0.588
480.11	0.586
480.31	0.587
480.52	0.586
480.72	0.586
480.92	0.584
481.12	0.583
481.32	0.582
481.52	0.580
481.72	0.579
481.93	0.582
482.13	0.583
482.33	0.583
482.53	0.581
482.73	0.581
482.93	0.583
483.14	0.582
483.34	0.581
483.54	0.582
483.74	0.582
483.94	0.581
484.14	0.578
484.34	0.578
484.55	0.579
484.75	0.579
484.95	0.577
485.15	0.577
485.35	0.578
485.55	0.578
485.75	0.575
485.96	0.576
486.16	0.578
486.36	0.578
486.56	0.576
486.76	0.576
486.96	0.577
487.16	0.576
487.36	0.575
487.57	0.575
487.77	0.576
487.97	0.577
488.17	0.575
488.37	0.574
488.57	0.575
488.77	0.575
488.97	0.573
489.18	0.573
489.38	0.575
489.58	0.576
489.78	0.575
489.98	0.574
490.18	0.574
490.38	0.575
490.58	0.574
490.78	0.574
490.98	0.576
491.19	0.576
491.39	0.576
491.59	0.574
491.79	0.577
491.99	0.578
492.19	0.577
492.39	0.580
492.59	0.580
492.79	0.582
492.99	0.581
493.20	0.582
493.40	0.582
493.60	0.583
493.80	0.581
494.00	0.579
494.20	0.580
494.40	0.580
494.60	0.578
494.80	0.582
495.00	0.581
495.20	0.580
495.40	0.578
495.61	0.581
495.81	0.581
496.01	0.585
496.21	0.585
496.41	0.584
496.61	0.586
496.81	0.584
497.01	0.580
497.21	0.579
497.41	0.580
497.61	0.580
497.81	0.577
498.01	0.577
498.21	0.575
498.41	0.573
498.61	0.573
498.82	0.575
499.02	0.577
499.22	0.577
499.42	0.576
499.62	0.577
499.82	0.578
500.02	0.580
500.22	0.578
500.42	0.580
500.62	0.581
500.82	0.581
501.02	0.579
501.22	0.579
501.42	0.579
501.62	0.581
501.82	0.580
502.02	0.580
502.22	0.580
502.42	0.582
502.62	0.579
502.82	0.579
503.02	0.580
503.22	0.581
503.42	0.579
503.63	0.579
503.83	0.578
504.03	0.577
504.23	0.576
504.43	0.577
504.63	0.578
504.83	0.578
505.03	0.577
505.23	0.579
505.43	0.580
505.63	0.581
505.83	0.579
506.03	0.581
506.23	0.584
506.43	0.584
506.63	0.582
506.83	0.581
507.03	0.583
507.23	0.584
507.43	0.580
507.63	0.581
507.83	0.582
508.03	0.582
508.23	0.581
508.43	0.579
508.63	0.581
508.83	0.582
509.03	0.583
509.23	0.582
509.43	0.584
509.63	0.584
509.83	0.582
510.03	0.585
510.23	0.587
510.43	0.587
510.63	0.587
510.83	0.587
511.03	0.589
511.23	0.586
511.43	0.585
511.63	0.586
511.83	0.589
512.03	0.589
512.22	0.585
512.42	0.585
512.62	0.586
512.82	0.586
513.02	0.585
513.22	0.584
513.42	0.587
513.62	0.589
513.82	0.587
514.02	0.586
514.22	0.589
514.42	0.589
514.62	0.589
514.82	0.589
515.02	0.592
515.22	0.595
515.42	0.593
515.62	0.595
515.82	0.595
516.02	0.596
516.22	0.594
516.42	0.595
516.62	0.597
516.82	0.598
517.01	0.596
517.21	0.596
517.41	0.600
517.61	0.600
517.81	0.597
518.01	0.596
518.21	0.597
518.41	0.596
518.61	0.595
518.81	0.596
519.01	0.597
519.21	0.597
519.41	0.595
519.61	0.590
519.81	0.593
520.00	0.593
520.20	0.594
520.40	0.597
520.60	0.599
520.80	0.598
521.00	0.598
521.20	0.598
521.40	0.604
521.60	0.604
521.80	0.602
522.00	0.603
522.20	0.606
522.39	0.606
522.59	0.602
522.79	0.603
522.99	0.606
523.19	0.604
523.39	0.601
523.59	0.599
523.79	0.602
523.99	0.605
524.19	0.603
524.38	0.601
524.58	0.602
524.78	0.603
524.98	0.601
525.18	0.603
525.38	0.605
525.58	0.605
525.78	0.603
525.98	0.602
526.18	0.602
526.37	0.602
526.57	0.603
526.77	0.603
526.97	0.604
527.17	0.605
527.37	0.601
527.57	0.603
527.77	0.605
527.96	0.605
528.16	0.604
528.36	0.604
528.56	0.607
528.76	0.605
528.96	0.604
529.16	0.605
529.36	0.608
529.55	0.608
529.75	0.605
529.95	0.604
530.15	0.607
530.35	0.609
530.55	0.607
530.75	0.607
530.94	0.609
531.14	0.610
531.34	0.608
531.54	0.606
531.74	0.610
531.94	0.613
532.13	0.611
532.33	0.612
532.53	0.611
532.73	0.611
532.93	0.609
533.13	0.609
533.33	0.610
533.52	0.610
533.72	0.613
533.92	0.610
534.12	0.609
534.32	0.609
534.52	0.608
534.71	0.609
534.91	0.612
535.11	0.614
535.31	0.611
535.51	0.614
535.71	0.616
535.90	0.613
536.10	0.615
536.30	0.617
536.50	0.618
536.70	0.619
536.89	0.616
537.09	0.616
537.29	0.618
537.49	0.619
537.69	0.617
537.89	0.617
538.08	0.617
538.28	0.615
538.48	0.615
538.68	0.616
538.88	0.618
539.07	0.618
539.27	0.616
539.47	0.616
539.67	0.616
539.87	0.618
540.06	0.615
540.26	0.617
540.46	0.619
540.66	0.617
540.86	0.614
541.05	0.615
541.25	0.617
541.45	0.616
541.65	0.615
541.84	0.616
542.04	0.617
542.24	0.618
542.44	0.617
542.64	0.617
542.83	0.620
543.03	0.621
543.23	0.618
543.43	0.619
543.62	0.621
543.82	0.620
544.02	0.619
544.22	0.619
544.42	0.623
544.61	0.623
544.81	0.620
545.01	0.619
545.21	0.622
545.40	0.622
545.60	0.620
545.80	0.623
546.00	0.624
546.19	0.623
546.39	0.622
546.59	0.620
546.79	0.621
546.98	0.622
547.18	0.621
547.38	0.621
547.58	0.624
547.77	0.625
547.97	0.621
548.17	0.622
548.37	0.623
548.56	0.623
548.76	0.622
548.96	0.625
549.16	0.628
549.35	0.628
549.55	0.625
549.75	0.626
549.95	0.629
550.14	0.629
550.34	0.626
550.54	0.631
550.73	0.636
550.93	0.636
551.13	0.632
551.33	0.630
551.52	0.632
551.72	0.632
551.92	0.629
552.12	0.629
552.31	0.630
552.51	0.630
552.71	0.625
552.90	0.625
553.10	0.627
553.30	0.627
553.50	0.625
553.69	0.627
553.89	0.628
554.09	0.628
554.28	0.625
554.48	0.626
554.68	0.629
554.87	0.629
555.07	0.626
555.27	0.626
555.47	0.628
555.66	0.628
555.86	0.626
556.06	0.628
556.25	0.630
556.45	0.638
556.65	0.635
556.84	0.638
557.04	0.642
557.24	0.643
557.43	0.643
557.63	0.645
557.83	0.648
558.02	0.648
558.22	0.652
558.42	0.653
558.61	0.646
558.81	0.646
559.01	0.643
559.21	0.642
559.40	0.644
559.60	0.644
559.80	0.639
559.99	0.640
560.19	0.643
560.39	0.637
560.58	0.634
560.78	0.634
560.97	0.638
561.17	0.636
561.37	0.634
561.56	0.634
561.76	0.636
561.96	0.636
562.15	0.634
562.35	0.637
562.55	0.639
562.74	0.639
562.94	0.638
563.14	0.637
563.33	0.638
563.53	0.638
563.73	0.635
563.92	0.637
564.12	0.641
564.31	0.643
564.51	0.640
564.71	0.641
564.90	0.645
565.10	0.645
565.30	0.646
565.49	0.647
565.69	0.650
565.89	0.650
566.08	0.647
566.28	0.648
566.47	0.650
566.67	0.648
566.87	0.644
567.06	0.644
567.26	0.651
567.46	0.646
567.65	0.645
567.85	0.646
568.04	0.650
568.24	0.649
568.44	0.645
568.63	0.644
568.83	0.646
569.02	0.645
569.22	0.641
569.42	0.637
569.61	0.640
569.81	0.639
570.00	0.637
570.20	0.638
570.40	0.640
570.59	0.639
570.79	0.637
570.98	0.635
571.18	0.637
571.38	0.636
571.57	0.633
571.77	0.631
571.96	0.635
572.16	0.632
572.35	0.627
572.55	0.628
572.75	0.628
572.94	0.628
573.14	0.626
573.33	0.626
573.53	0.627
573.73	0.626
573.92	0.624
574.12	0.623
574.31	0.626
574.51	0.626
574.70	0.623
574.90	0.624
575.09	0.627
575.29	0.627
575.49	0.624
575.68	0.625
575.88	0.626
576.07	0.627
576.27	0.625
576.46	0.624
576.66	0.624
576.86	0.623
577.05	0.621
577.25	0.620
577.44	0.622
577.64	0.622
577.83	0.620
578.03	0.620
578.22	0.620
578.42	0.619
578.61	0.618
578.81	0.619
579.00	0.620
579.20	0.620
579.40	0.619
579.59	0.617
579.79	0.618
579.98	0.618
580.18	0.618
580.37	0.618
580.57	0.621
580.76	0.625
580.96	0.623
581.15	0.623
581.35	0.626
581.54	0.625
581.74	0.624
581.93	0.625
582.13	0.627
582.32	0.624
582.52	0.623
582.71	0.623
582.91	0.620
583.10	0.620
583.30	0.618
583.49	0.618
583.69	0.622
583.88	0.624
584.08	0.622
584.27	0.624
584.47	0.628
584.66	0.628
584.86	0.626
585.05	0.627
585.25	0.630
585.44	0.630
585.64	0.628
585.83	0.625
586.03	0.626
586.22	0.625
586.42	0.621
586.61	0.623
586.81	0.626
587.00	0.626
587.20	0.624
587.39	0.625
587.59	0.627
587.78	0.629
587.98	0.629
588.17	0.630
588.37	0.632
588.56	0.634
588.76	0.630
588.95	0.630
589.15	0.634
589.34	0.636
589.54	0.634
589.73	0.634
589.92	0.637
590.12	0.636
590.31	0.632
590.51	0.637
590.70	0.638
590.90	0.639
591.09	0.636
591.29	0.635
591.48	0.636
591.68	0.636
591.87	0.634
592.06	0.633
592.26	0.637
592.45	0.636
592.65	0.630
592.84	0.629
593.04	0.633
593.23	0.635
593.43	0.633
593.62	0.632
593.81	0.634
594.01	0.634
594.20	0.632
594.40	0.632
594.59	0.635
594.79	0.637
594.98	0.636
595.17	0.635
595.37	0.635
595.56	0.637
595.76	0.635
595.95	0.635
596.14	0.638
596.34	0.639
596.53	0.636
596.73	0.636
596.92	0.636
597.12	0.638
597.31	0.636
597.50	0.636
597.70	0.638
597.89	0.637
598.09	0.633
598.28	0.634
598.47	0.637
598.67	0.636
598.86	0.633
599.06	0.635
599.25	0.636
599.44	0.635
599.64	0.633
599.83	0.631
600.03	0.635
600.22	0.636
600.41	0.636
600.61	0.634
600.80	0.638
601.00	0.639
601.19	0.635
601.38	0.634
601.58	0.637
601.77	0.637
601.96	0.638
602.16	0.639
602.35	0.648
602.55	0.645
602.74	0.644
602.93	0.645
603.13	0.650
603.32	0.651
603.51	0.649
603.71	0.651
603.90	0.654
604.09	0.654
604.29	0.650
604.48	0.644
604.68	0.646
604.87	0.645
605.06	0.641
605.26	0.638
605.45	0.640
605.64	0.639
605.84	0.634
606.03	0.633
606.22	0.633
606.42	0.632
606.61	0.629
606.80	0.629
607.00	0.632
607.19	0.632
607.38	0.630
607.58	0.631
607.77	0.635
607.96	0.635
608.16	0.633
608.35	0.638
608.54	0.642
608.74	0.646
608.93	0.651
609.12	0.653
609.32	0.657
609.51	0.661
609.70	0.660
609.90	0.661
610.09	0.666
610.28	0.671
610.48	0.663
610.67	0.664
610.86	0.664
611.06	0.659
611.25	0.657
611.44	0.656
611.64	0.656
611.83	0.658
612.02	0.653
612.21	0.652
612.41	0.652
612.60	0.651
612.79	0.646
612.99	0.647
613.18	0.649
613.37	0.646
613.57	0.644
613.76	0.646
613.95	0.645
614.14	0.645
614.34	0.642
614.53	0.643
614.72	0.647
614.92	0.648
615.11	0.645
615.30	0.643
615.49	0.646
615.69	0.648
615.88	0.645
616.07	0.647
616.26	0.650
616.46	0.652
616.65	0.648
616.84	0.647
617.04	0.649
617.23	0.653
617.42	0.653
617.61	0.657
617.81	0.659
618.00	0.660
618.19	0.657
618.38	0.660
618.58	0.663
618.77	0.664
618.96	0.663
619.15	0.664
619.35	0.666
619.54	0.666
619.73	0.660
619.92	0.661
620.12	0.666
620.31	0.666
620.50	0.661
620.69	0.661
620.89	0.665
621.08	0.665
621.27	0.665
621.46	0.664
621.66	0.668
621.85	0.668
622.04	0.664
622.23	0.663
622.43	0.666
622.62	0.665
622.81	0.663
623.00	0.663
623.19	0.668
623.39	0.668
623.58	0.666
623.77	0.665
623.96	0.669
624.16	0.669
624.35	0.664
624.54	0.667
624.73	0.673
624.92	0.671
625.12	0.668
625.31	0.668
625.50	0.671
625.69	0.672
625.88	0.667
626.08	0.666
626.27	0.669
626.46	0.670
626.65	0.666
626.84	0.666
627.04	0.672
627.23	0.673
627.42	0.668
627.61	0.669
627.80	0.672
628.00	0.674
628.19	0.672
628.38	0.676
628.57	0.679
628.76	0.679
628.96	0.675
629.15	0.675
629.34	0.679
629.53	0.679
629.72	0.674
629.91	0.674
630.11	0.679
630.30	0.680
630.49	0.681
630.68	0.682
630.87	0.687
631.06	0.689
631.26	0.683
631.45	0.685
631.64	0.694
631.83	0.696
632.02	0.693
632.21	0.692
632.41	0.699
632.60	0.694
632.79	0.691
632.98	0.691
633.17	0.693
633.36	0.695
633.55	0.691
633.75	0.688
633.94	0.691
634.13	0.691
634.32	0.686
634.51	0.681
634.70	0.685
634.89	0.685
635.09	0.680
635.28	0.681
635.47	0.683
635.66	0.686
635.85	0.680
636.04	0.682
636.23	0.687
636.43	0.689
636.62	0.686
636.81	0.685
637.00	0.689
637.19	0.693
637.38	0.689
637.57	0.689
637.76	0.691
637.95	0.693
638.15	0.688
638.34	0.685
638.53	0.690
638.72	0.693
638.91	0.689
639.10	0.687
639.29	0.687
639.48	0.689
639.67	0.688
639.87	0.687
640.06	0.694
640.25	0.693
640.44	0.692
640.63	0.693
640.82	0.696
641.01	0.695
641.20	0.694
641.39	0.696
641.58	0.698
641.78	0.696
641.97	0.692
642.16	0.705
642.35	0.707
642.54	0.707
642.73	0.699
642.92	0.699
643.11	0.705
643.30	0.704
643.49	0.699
643.68	0.702
643.87	0.705
644.06	0.704
644.25	0.683
644.45	0.685
644.64	0.688
644.83	0.689
645.02	0.685
645.21	0.684
645.40	0.687
645.59	0.687
645.78	0.679
645.97	0.681
646.16	0.683
646.35	0.682
646.54	0.680
646.73	0.681
646.92	0.682
647.11	0.681
647.30	0.676
647.49	0.677
647.68	0.678
647.88	0.677
648.07	0.669
648.26	0.673
648.45	0.676
648.64	0.672
648.83	0.667
649.02	0.669
649.21	0.681
649.40	0.680
649.59	0.674
649.78	0.674
649.97	0.688
650.16	0.688
650.35	0.682
650.54	0.684
650.73	0.693
650.92	0.690
651.11	0.684
651.30	0.681
651.49	0.686
651.68	0.687
651.87	0.683
652.06	0.673
652.25	0.677
652.44	0.676
652.63	0.669
652.82	0.666
653.01	0.666
653.20	0.663
653.39	0.650
653.58	0.647
653.77	0.647
653.96	0.642
654.15	0.634
654.34	0.632
654.53	0.629
654.72	0.626
654.91	0.618
655.10	0.615
655.29	0.614
655.48	0.612
655.67	0.608
655.86	0.605
656.05	0.605
656.24	0.605
656.43	0.600
656.62	0.599
656.81	0.601
657.00	0.601
657.19	0.600
657.38	0.601
657.57	0.602
657.76	0.605
657.95	0.603
658.14	0.607
658.33	0.611
658.51	0.618
658.70	0.618
658.89	0.619
659.08	0.626
659.27	0.632
659.46	0.631
659.65	0.636
659.84	0.640
660.03	0.643
660.22	0.644
660.41	0.648
660.60	0.648
660.79	0.649
660.98	0.654
661.17	0.654
661.36	0.654
661.55	0.654
661.74	0.651
661.92	0.654
662.11	0.656
662.30	0.654
662.49	0.647
662.68	0.647
662.87	0.651
663.06	0.646
663.25	0.646
663.44	0.646
663.63	0.648
663.82	0.646
664.01	0.640
664.20	0.638
664.38	0.641
664.57	0.641
664.76	0.640
664.95	0.640
665.14	0.645
665.33	0.640
665.52	0.647
665.71	0.651
665.90	0.652
666.09	0.655
666.28	0.652
666.46	0.651
666.65	0.653
666.84	0.651
667.03	0.645
667.22	0.643
667.41	0.646
667.60	0.636
667.79	0.628
667.98	0.629
668.16	0.630
668.35	0.630
668.54	0.625
668.73	0.624
668.92	0.626
669.11	0.624
669.30	0.617
669.49	0.614
669.67	0.616
669.86	0.618
670.05	0.615
670.24	0.612
670.43	0.611
670.62	0.610
670.81	0.605
671.00	0.605
671.18	0.606
671.37	0.605
671.56	0.603
671.75	0.602
671.94	0.599
672.13	0.597
672.32	0.592
672.50	0.591
672.69	0.593
672.88	0.593
673.07	0.588
673.26	0.590
673.45	0.593
673.63	0.593
673.82	0.589
674.01	0.590
674.20	0.590
674.39	0.590
674.58	0.587
674.76	0.587
674.95	0.586
675.14	0.585
675.33	0.580
675.52	0.578
675.71	0.579
675.89	0.577
676.08	0.573
676.27	0.573
676.46	0.575
676.65	0.575
676.84	0.574
677.02	0.575
677.21	0.578
677.40	0.577
677.59	0.575
677.78	0.576
677.96	0.579
678.15	0.578
678.34	0.576
678.53	0.576
678.72	0.577
678.90	0.574
679.09	0.569
679.28	0.566
679.47	0.567
679.66	0.567
679.84	0.563
680.03	0.561
680.22	0.561
680.41	0.563
680.60	0.559
680.78	0.559
680.97	0.562
681.16	0.562
681.35	0.560
681.53	0.559
681.72	0.560
681.91	0.562
682.10	0.560
682.29	0.562
682.47	0.560
682.66	0.560
682.85	0.557
683.04	0.555
683.22	0.555
683.41	0.557
683.60	0.556
683.79	0.556
683.97	0.556
684.16	0.555
684.35	0.551
684.54	0.552
684.72	0.552
684.91	0.553
685.10	0.551
685.29	0.553
685.47	0.551
685.66	0.550
685.85	0.546
686.04	0.546
686.22	0.549
686.41	0.551
686.60	0.548
686.79	0.551
686.97	0.553
687.16	0.554
687.35	0.551
687.54	0.555
687.72	0.559
687.91	0.558
688.10	0.559
688.29	0.558
688.47	0.558
688.66	0.557
688.85	0.552
689.03	0.550
689.22	0.555
689.41	0.555
689.60	0.549
689.78	0.547
689.97	0.548
690.16	0.544
690.34	0.540
690.53	0.540
690.72	0.541
690.91	0.539
691.09	0.537
691.28	0.530
691.47	0.529
691.65	0.529
691.84	0.526
692.03	0.525
692.21	0.525
692.40	0.525
692.59	0.522
692.77	0.521
692.96	0.524
693.15	0.525
693.34	0.522
693.52	0.523
693.71	0.523
693.90	0.525
694.08	0.525
694.27	0.525
694.46	0.535
694.64	0.535
694.83	0.534
695.02	0.532
695.20	0.531
695.39	0.531
695.58	0.530
695.76	0.530
695.95	0.530
696.14	0.529
696.32	0.527
696.51	0.518
696.70	0.518
696.88	0.520
697.07	0.519
697.26	0.521
697.44	0.522
697.63	0.521
697.81	0.518
698.00	0.518
698.19	0.519
698.37	0.519
698.56	0.518
698.75	0.518
698.93	0.519
699.12	0.518
699.31	0.517
699.49	0.517
699.68	0.518
699.87	0.521
700.05	0.520
700.24	0.519
700.42	0.520
700.61	0.520
700.80	0.517
700.98	0.517
701.17	0.520
701.36	0.518
701.54	0.517
701.73	0.518
701.91	0.516
702.10	0.516
702.29	0.514
702.47	0.513
702.66	0.516
702.84	0.517
703.03	0.515
703.22	0.516
703.40	0.517
703.59	0.518
703.77	0.518
703.96	0.518
704.15	0.518
704.33	0.519
704.52	0.517
704.70	0.516
704.89	0.516
705.08	0.514
705.26	0.509
705.45	0.509
705.63	0.510
705.82	0.506
706.00	0.504
706.19	0.504
706.38	0.504
706.56	0.503
706.75	0.501
706.93	0.500
707.12	0.502
707.30	0.503
707.49	0.500
707.68	0.498
707.86	0.498
708.05	0.498
708.23	0.495
708.42	0.496
708.60	0.499
708.79	0.499
708.98	0.497
709.16	0.496
709.35	0.499
709.53	0.503
709.72	0.501
709.90	0.503
710.09	0.506
710.27	0.507
710.46	0.510
710.64	0.509
710.83	0.511
711.02	0.512
711.20	0.510
711.39	0.508
711.57	0.506
711.76	0.507
711.94	0.504
712.13	0.504
712.31	0.504
712.50	0.499
712.68	0.496
712.87	0.496
713.05	0.497
713.24	0.498
713.42	0.497
713.61	0.497
713.79	0.498
713.98	0.498
714.16	0.499
714.35	0.498
714.54	0.500
714.72	0.500
714.91	0.497
715.09	0.503
715.28	0.508
715.46	0.507
715.65	0.504
715.83	0.504
716.02	0.507
716.20	0.504
716.39	0.503
716.57	0.504
716.76	0.507
716.94	0.507
717.12	0.499
717.31	0.500
717.49	0.504
717.68	0.506
717.86	0.505
718.05	0.507
718.23	0.510
718.42	0.512
718.60	0.512
718.79	0.520
718.97	0.524
719.16	0.524
719.34	0.522
719.53	0.522
719.71	0.523
719.90	0.524
720.08	0.521
720.27	0.521
720.45	0.522
720.63	0.522
720.82	0.516
721.00	0.518
721.19	0.522
721.37	0.522
721.56	0.520
721.74	0.523
721.93	0.533
722.11	0.539
722.30	0.538
722.48	0.542
722.66	0.544
722.85	0.543
723.03	0.541
723.22	0.539
723.40	0.543
723.59	0.542
723.77	0.545
723.95	0.538
724.14	0.541
724.32	0.542
724.51	0.540
724.69	0.541
724.88	0.542
725.06	0.540
725.24	0.540
725.43	0.541
725.61	0.545
725.80	0.538
725.98	0.535
726.16	0.532
726.35	0.540
726.53	0.539
726.72	0.536
726.90	0.548
727.09	0.548
727.27	0.554
727.45	0.549
727.64	0.558
727.82	0.569
728.01	0.573
728.19	0.569
728.37	0.574
728.56	0.578
728.74	0.584
728.92	0.570
729.11	0.574
729.29	0.573
729.48	0.576
729.66	0.565
729.84	0.565
730.03	0.569
730.21	0.571
730.40	0.560
730.58	0.563
730.76	0.564
730.95	0.567
731.13	0.565
731.31	0.579
731.50	0.589
731.68	0.592
731.86	0.586
732.05	0.600
732.23	0.604
732.42	0.606
732.60	0.607
732.78	0.612
732.97	0.632
733.15	0.639
733.33	0.626
733.52	0.633
733.70	0.646
733.88	0.656
734.07	0.639
734.25	0.664
734.43	0.676
734.62	0.679
734.80	0.670
734.98	0.659
735.17	0.669
735.35	0.674
735.53	0.659
735.72	0.661
735.90	0.685
736.08	0.705
736.27	0.681
736.45	0.689
736.63	0.705
736.82	0.716
737.00	0.716
737.18	0.728
737.37	0.763
737.55	0.788
737.73	0.780
737.92	0.781
738.10	0.780
738.28	0.801
738.46	0.787
738.65	0.800
738.83	0.825
739.01	0.879
739.20	0.863
739.38	0.846
739.56	0.841
739.75	0.846
739.93	0.808
740.11	0.836
740.29	0.842
740.48	0.846
740.66	0.819
740.84	0.812
741.03	0.781
741.21	0.793
741.39	0.771
741.57	0.785
741.76	0.807
741.94	0.814
742.12	0.773
742.31	0.777
742.49	0.805
742.67	0.830
742.85	0.844
743.04	0.848
743.22	0.862
743.40	0.916
743.58	0.894
743.77	0.912
743.95	0.959
744.13	1.013
744.31	0.985
744.50	0.982
744.68	0.990
744.86	0.958
745.04	0.968
745.23	1.034
745.41	1.027
745.59	1.031
745.77	0.985
745.96	0.969
746.14	0.988
746.32	0.988
746.50	0.972
746.69	0.953
746.87	0.981
747.05	0.962
747.23	0.877
747.42	0.864
747.60	0.905
747.78	0.911
747.96	0.937
748.14	0.887
748.33	0.922
748.51	0.910
748.69	0.896
748.87	0.921
749.06	0.926
749.24	0.924
749.42	0.902
749.60	0.872
749.78	0.889
749.97	0.844
750.15	0.831
750.33	0.834
750.51	0.868
750.69	0.872
750.88	0.869
751.06	0.880
751.24	0.917
751.42	0.906
751.60	0.896
751.79	0.972
751.97	1.027
752.15	1.034
752.33	0.990
752.51	1.058
752.69	1.088
752.88	1.046
753.06	1.087
753.24	1.060
753.42	1.106
753.60	1.291
753.78	1.109
753.97	1.127
754.15	1.160
754.33	1.194
754.51	1.046
754.69	1.030
754.87	1.074
755.06	0.993
755.24	0.986
755.42	0.996
755.60	0.905
755.78	0.911
755.96	0.847
756.15	0.845
756.33	0.854
756.51	0.873
756.69	0.851
756.87	0.817
757.05	0.843
757.23	0.822
757.42	0.782
757.60	0.777
757.78	0.770
757.96	0.772
758.14	0.750
758.32	0.735
758.50	0.750
758.69	0.751
758.87	0.739
759.05	0.743
759.23	0.759
759.41	0.763
759.59	0.755
759.77	0.777
759.95	0.811
760.13	0.861
760.32	0.854
760.50	0.855
760.68	0.886
760.86	0.886
761.04	0.850
761.22	0.854
761.40	0.908
761.58	0.910
761.76	0.876
761.95	0.855
762.13	0.814
762.31	0.814
762.49	0.775
762.67	0.791
762.85	0.810
763.03	0.803
763.21	0.782
763.39	0.766
763.57	0.772
763.75	0.768
763.94	0.747
764.12	0.748
764.30	0.778
764.48	0.781
764.66	0.740
764.84	0.737
765.02	0.781
765.20	0.785
765.38	0.757
765.56	0.764
765.74	0.808
765.92	0.811
766.10	0.815
766.28	0.809
766.46	0.843
766.65	0.847
766.83	0.831
767.01	0.817
767.19	0.830
767.37	0.830
767.55	0.811
767.73	0.791
767.91	0.799
768.09	0.786
768.27	0.769
768.45	0.758
768.63	0.767
768.81	0.770
768.99	0.740
769.17	0.765
769.35	0.785
769.53	0.784
769.71	0.759
769.89	0.771
770.07	0.782
770.25	0.764
770.43	0.738
770.61	0.762
770.79	0.770
770.97	0.781
771.15	0.743
771.33	0.748
771.51	0.753
771.69	0.766
771.87	0.767
772.05	0.775
772.24	0.790
772.42	0.801
772.60	0.776
772.78	0.839
772.96	0.875
773.14	0.874
773.32	0.843
773.49	0.854
773.67	0.855
773.85	0.835
774.03	0.817
774.21	0.853
774.39	0.872
774.57	0.894
774.75	0.812
774.93	0.808
775.11	0.835
775.29	0.841
775.47	0.834
775.65	0.846
775.83	0.870
776.01	0.893
776.19	0.834
776.37	0.833
776.55	0.837
776.73	0.834
776.91	0.821
777.09	0.808
777.27	0.811
777.45	0.802
777.63	0.774
777.81	0.769
777.99	0.760
778.17	0.760
778.35	0.735
778.53	0.725
778.71	0.737
778.89	0.724
779.07	0.708
779.24	0.716
779.42	0.719
779.60	0.740
779.78	0.736
779.96	0.741
780.14	0.753
780.32	0.776
780.50	0.752
780.68	0.749
780.86	0.745
781.04	0.763
781.22	0.762
781.40	0.776
781.58	0.767
781.75	0.757
781.93	0.736
782.11	0.737
782.29	0.726
782.47	0.727
782.65	0.712
782.83	0.738
783.01	0.735
783.19	0.726
783.37	0.707
783.55	0.708
783.72	0.731
783.90	0.742
784.08	0.729
784.26	0.739
784.44	0.761
784.62	0.763
784.80	0.727
784.98	0.731
785.16	0.739
785.33	0.754
785.51	0.736
785.69	0.720
785.87	0.721
786.05	0.731
786.23	0.725
786.41	0.722
786.59	0.731
786.77	0.732
786.94	0.716
787.12	0.720
787.30	0.723
787.48	0.721
787.66	0.705
787.84	0.705
788.02	0.697
788.19	0.693
788.37	0.676
788.55	0.677
788.73	0.679
788.91	0.674
789.09	0.656
789.27	0.646
789.44	0.661
789.62	0.669
789.80	0.677
789.98	0.705
790.16	0.693
790.34	0.690
790.51	0.677
790.69	0.697
790.87	0.705
791.05	0.703
791.23	0.691
791.41	0.690
791.58	0.701
791.76	0.677
791.94	0.643
792.12	0.653
792.30	0.659
792.48	0.655
792.65	0.644
792.83	0.653
793.01	0.664
793.19	0.663
793.37	0.645
793.54	0.639
793.72	0.655
793.90	0.654
794.08	0.642
794.26	0.642
794.43	0.654
794.61	0.639
794.79	0.625
794.97	0.623
795.15	0.631
795.32	0.636
795.50	0.625
795.68	0.620
795.86	0.627
796.04	0.629
796.21	0.621
796.39	0.618
796.57	0.637
796.75	0.646
796.92	0.646
797.10	0.650
797.28	0.654
797.46	0.656
797.64	0.653
797.81	0.662
797.99	0.670
798.17	0.674
798.35	0.665
798.52	0.666
798.70	0.663
798.88	0.672
799.06	0.668
799.23	0.673
799.41	0.684
799.59	0.677
799.77	0.663
799.94	0.672
800.12	0.685
800.30	0.706
800.48	0.703
800.65	0.701
800.83	0.692
801.01	0.684
801.19	0.682
801.36	0.680
801.54	0.687
801.72	0.697
801.90	0.681
802.07	0.674
802.25	0.661
802.43	0.644
802.60	0.640
802.78	0.648
802.96	0.655
803.14	0.647
803.31	0.642
803.49	0.641
803.67	0.638
803.84	0.642
804.02	0.631
804.20	0.634
804.38	0.641
804.55	0.639
804.73	0.621
804.91	0.622
805.08	0.637
805.26	0.632
805.44	0.689
805.61	0.693
805.79	0.695
805.97	0.695
806.15	0.684
806.32	0.680
806.50	0.690
806.68	0.690
806.85	0.680
807.03	0.670
807.21	0.692
807.38	0.629
807.56	0.616
807.74	0.626
807.91	0.634
808.09	0.634
808.27	0.651
808.44	0.677
808.62	0.689
808.80	0.691
808.97	0.684
809.15	0.678
809.33	0.698
809.50	0.706
809.68	0.689
809.86	0.698
810.03	0.736
810.21	0.714
810.39	0.692
810.56	0.698
810.74	0.726
810.91	0.802
811.09	0.784
811.27	0.808
811.44	0.819
811.62	0.819
811.80	0.798
811.97	0.766
812.15	0.769
812.33	0.767
812.50	0.747
812.68	0.736
812.85	0.680
813.03	0.683
813.21	0.647
813.38	0.640
813.56	0.645
813.74	0.656
813.91	0.660
814.09	0.694
814.26	0.689
814.44	0.692
814.62	0.679
814.79	0.681
814.97	0.690
815.14	0.693
815.32	0.694
815.50	0.713
815.67	0.720
815.85	0.711
816.02	0.695
816.20	0.705
816.38	0.726
816.55	0.732
816.73	0.730
816.90	0.745
817.08	0.784
817.26	0.793
817.43	0.767
817.61	0.794
817.78	0.822
817.96	0.799
818.13	0.779
818.31	0.780
818.49	0.798
818.66	0.787
818.84	0.765
819.01	0.741
819.19	0.751
819.36	0.752
819.54	0.715
819.71	0.757
819.89	0.776
820.07	0.789
820.24	0.777
820.42	0.775
820.59	0.800
820.77	0.823
820.94	0.807
821.12	0.825
821.29	0.847
821.47	0.851
821.64	0.782
821.82	0.799
822.00	0.800
822.17	0.795
822.35	0.785
822.52	0.787
822.70	0.780
822.87	0.790
823.05	0.763
823.22	0.775
823.40	0.807
823.57	0.828
823.75	0.800
823.92	0.834
824.10	0.861
824.27	0.905
824.45	0.888
824.62	0.959
824.80	0.987
824.97	1.007
825.15	0.994
825.32	1.011
825.50	1.020
825.67	1.038
825.85	1.000
826.02	1.029
826.20	1.069
826.37	1.238
826.55	1.117
826.72	1.409
826.90	1.618
827.07	1.744
827.25	1.553
827.42	2.141
827.60	-0.000
827.77	-0.000
827.95	-0.000
828.12	-0.000
828.30	-0.000
828.47	-0.000
828.65	1.664
828.82	1.842
829.00	2.616
829.17	-0.000
829.34	-0.000
829.52	-0.000
829.69	-0.000
829.87	-0.000
830.04	-0.000
830.22	-0.000
830.39	-0.000
830.57	-0.000
830.74	-0.000
830.92	-0.000
831.09	-0.000
831.26	-0.000
831.44	-0.000
831.61	-0.000
831.79	-0.000
831.96	-0.000
832.14	-0.000
832.31	-0.000
832.49	-0.000
832.66	-0.000
832.83	-0.000
833.01	-0.000
833.18	-0.000
833.36	-0.000
833.53	-0.000
833.70	-0.000
833.88	-0.000
834.05	-0.000
834.23	-0.000
834.40	-0.000
834.58	-0.000
834.75	-0.000
834.92	-0.000
835.10	-0.000
835.27	-0.000
835.45	-0.000
835.62	-0.000
835.79	-0.000
835.97	-0.000
836.14	-0.000
836.32	-0.000
836.49	-0.000
836.66	-0.000
836.84	-0.000
837.01	-0.000
837.18	-0.000
837.36	-0.000
837.53	-0.000
837.71	-0.000
837.88	-0.000
838.05	-0.000
838.23	-0.000
838.40	-0.000
838.58	-0.000
838.75	-0.000
838.92	-0.000
839.10	-0.000
839.27	-0.000
839.44	-0.000
839.62	-0.000
839.79	-0.000
839.96	-0.000
840.14	-0.000
840.31	-0.000
840.48	-0.000
840.66	-0.000
840.83	-0.000
841.01	-0.000
841.18	-0.000
841.35	-0.000
841.53	-0.000
841.70	-0.000
841.87	-0.000
842.05	-0.000
842.22	-0.000
842.39	-0.000
842.57	-0.000
842.74	-0.000
842.91	-0.000
843.09	-0.000
843.26	-0.000
843.43	-0.000
843.60	-0.000
843.78	-0.000
843.95	-0.000
844.12	-0.000
844.30	-0.000
844.47	-0.000
844.64	-0.000
844.82	-0.000
844.99	-0.000
845.16	-0.000
845.34	-0.000
845.51	-0.000
845.68	-0.000
845.85	-0.000
846.03	-0.000
846.20	-0.000
846.37	-0.000
846.55	-0.000
846.72	-0.000
846.89	-0.000
847.06	-0.000
847.24	-0.000
847.41	-0.000
847.58	-0.000
847.76	-0.000
847.93	-0.000
848.10	-0.000
848.27	-0.000
848.45	-0.000
848.62	-0.000
848.79	-0.000
848.97	-0.000
849.14	-0.000
849.31	-0.000
849.48	-0.000
849.66	-0.000
849.83	-0.000
850.00	-0.000
850.17	-0.000
850.35	-0.000
850.52	-0.000
850.69	-0.000
850.86	-0.000
851.04	-0.000
851.21	-0.000
851.38	-0.000
851.55	-0.000
851.72	-0.000
851.90	-0.000
852.07	-0.000
852.24	-0.000
852.41	-0.000
852.59	-0.000
852.76	-0.000
852.93	-0.000
853.10	-0.000
853.28	-0.000
853.45	-0.000
853.62	-0.000
853.79	-0.000
853.96	-0.000
854.14	-0.000
854.31	-0.000
854.48	-0.000
854.65	-0.000
854.82	-0.000
855.00	-0.000
855.17	-0.000
855.34	-0.000
855.51	-0.000
855.68	-0.000
855.86	-0.000
856.03	-0.000
856.20	-0.000
856.37	-0.000
856.54	-0.000
856.72	-0.000
856.89	-0.000
857.06	-0.000
857.23	-0.000
857.40	-0.000
857.57	-0.000
857.75	-0.000
857.92	-0.000
858.09	-0.000
858.26	-0.000
858.43	-0.000
858.60	-0.000
858.78	-0.000
858.95	-0.000
859.12	-0.000
859.29	-0.000
859.46	-0.000
859.63	-0.000
859.81	-0.000
859.98	-0.000
860.15	-0.000
860.32	-0.000
860.49	-0.000
860.66	-0.000
860.83	-0.000
861.01	-0.000
861.18	-0.000
861.35	-0.000
861.52	-0.000
861.69	-0.000
861.86	-0.000
862.03	-0.000
862.21	-0.000
862.38	-0.000
862.55	-0.000
862.72	-0.000
862.89	-0.000
863.06	-0.000
863.23	-0.000
863.40	-0.000
863.58	-0.000
863.75	-0.000
863.92	-0.000
864.09	-0.000
864.26	-0.000
864.43	-0.000
864.60	-0.000
864.77	-0.000
864.94	-0.000
865.11	-0.000
865.29	-0.000
865.46	-0.000
865.63	-0.000
865.80	-0.000
865.97	-0.000
866.14	-0.000
866.31	-0.000
866.48	-0.000
866.65	-0.000
866.82	-0.000
866.99	-0.000
867.16	-0.000
867.34	-0.000
867.51	-0.000
867.68	-0.000
867.85	-0.000
868.02	-0.000
868.19	-0.000
868.36	-0.000
868.53	-0.000
868.70	-0.000
868.87	-0.000
869.04	-0.000
869.21	-0.000
869.38	-0.000
869.55	-0.000
869.72	-0.000
869.89	-0.000
870.06	-0.000
870.24	-0.000
870.41	-0.000
870.58	-0.000
870.75	-0.000
870.92	-0.000
871.09	-0.000
871.26	-0.000
871.43	-0.000
871.60	-0.000
871.77	-0.000
871.94	-0.000
872.11	-0.000
872.28	-0.000
872.45	-0.000
872.62	-0.000
872.79	-0.000
872.96	-0.000
873.13	-0.000
873.30	-0.000
873.47	-0.000
873.64	-0.000
873.81	-0.000
873.98	-0.000
874.15	-0.000
874.32	-0.000
874.49	-0.000
874.66	-0.000
874.83	-0.000
875.00	-0.000
875.17	-0.000
875.34	-0.000
875.51	-0.000
875.68	-0.000
875.85	-0.000
876.02	-0.000
876.19	-0.000
876.36	-0.000
876.53	-0.000
876.70	-0.000
876.87	-0.000
877.04	-0.000
877.21	-0.000
877.38	-0.000
877.55	-0.000
877.72	-0.000
877.89	-0.000
878.06	-0.000
878.23	-0.000
878.39	-0.000
878.56	-0.000
878.73	-0.000
878.90	-0.000
879.07	-0.000
879.24	-0.000
879.41	-0.000
879.58	-0.000
879.75	-0.000
879.92	-0.000
880.09	-0.000
880.26	-0.000
880.43	-0.000
880.60	-0.000
880.77	-0.000
880.94	-0.000
881.11	-0.000
881.27	-0.000
881.44	-0.000
881.61	-0.000
881.78	-0.000
881.95	-0.000
882.12	-0.000
882.29	-0.000
882.46	-0.000
882.63	-0.000
882.80	-0.000
882.97	-0.000
883.14	-0.000
883.30	-0.000
883.47	-0.000
883.64	-0.000
883.81	-0.000
883.98	-0.000
884.15	-0.000
884.32	-0.000
884.49	-0.000
884.66	-0.000
884.82	-0.000
884.99	-0.000
885.16	-0.000
885.33	-0.000
885.50	-0.000
885.67	-0.000
885.84	-0.000
886.01	-0.000
886.17	-0.000
886.34	-0.000
886.51	-0.000
886.68	-0.000
886.85	-0.000
887.02	-0.000
887.19	-0.000
887.36	-0.000
887.52	-0.000
887.69	-0.000
887.86	-0.000
888.03	-0.000
888.20	-0.000
888.37	-0.000
888.54	-0.000
888.70	-0.000
888.87	-0.000
889.04	-0.000
889.21	-0.000
889.38	-0.000
889.55	-0.000
889.71	-0.000
889.88	-0.000
890.05	-0.000
890.22	-0.000
890.39	-0.000
>>>>>End Processed Spectral Data<<<<<
