SpectraSuite Data File
++++++++++++++++++++++++++++++++++++
Date: Fri Jun 19 15:40:11 CEST 2015
User: introlabs
Dark Spectrum Present: Yes
Reference Spectrum Present: Yes
Number of Sampled Component Spectra: 1
Spectrometers: USB4H08886
Integration Time (usec): 745692 (USB4H08886)
Spectra Averaged: 5 (USB4H08886)
Boxcar Smoothing: 5 (USB4H08886)
Correct for Electrical Dark: Yes (USB4H08886)
Strobe/Lamp Enabled: No (USB4H08886)
Correct for Detector Non-linearity: Yes (USB4H08886)
Correct for Stray Light: Yes (USB4H08886)
Number of Pixels in Processed Spectrum: 3648
>>>>>Begin Processed Spectral Data<<<<<
178.14	-0.000
178.36	-0.000
178.57	-0.000
178.79	-0.000
179.01	-0.000
179.22	-0.000
179.44	-0.000
179.65	-0.000
179.87	-0.000
180.08	-0.000
180.30	-0.000
180.52	-0.000
180.73	-0.000
180.95	-0.000
181.16	-0.000
181.38	-0.000
181.59	-0.000
181.81	-0.000
182.03	-0.000
182.24	-0.000
182.46	-0.000
182.67	-0.000
182.89	-0.000
183.10	-0.000
183.32	-0.000
183.54	-0.000
183.75	-0.000
183.97	-0.000
184.18	-0.000
184.40	-0.000
184.61	-0.000
184.83	-0.000
185.04	-0.000
185.26	-0.000
185.48	-0.000
185.69	-0.000
185.91	-0.000
186.12	-0.000
186.34	-0.000
186.55	-0.000
186.77	-0.000
186.98	-0.000
187.20	-0.000
187.42	-0.000
187.63	-0.000
187.85	-0.000
188.06	-0.000
188.28	-0.000
188.49	-0.000
188.71	-0.000
188.92	-0.000
189.14	-0.000
189.36	-0.000
189.57	-0.000
189.79	-0.000
190.00	-0.000
190.22	-0.000
190.43	-0.000
190.65	-0.000
190.86	-0.000
191.08	-0.000
191.29	-0.000
191.51	-0.000
191.72	-0.000
191.94	-0.000
192.16	-0.000
192.37	-0.000
192.59	-0.000
192.80	-0.000
193.02	-0.000
193.23	-0.000
193.45	-0.000
193.66	-0.000
193.88	-0.000
194.09	-0.000
194.31	-0.000
194.52	-0.000
194.74	-0.000
194.95	-0.000
195.17	-0.000
195.38	-0.000
195.60	-0.000
195.81	-0.000
196.03	-0.000
196.25	-0.000
196.46	-0.000
196.68	-0.000
196.89	-0.000
197.11	-0.000
197.32	-0.000
197.54	-0.000
197.75	-0.000
197.97	-0.000
198.18	-0.000
198.40	-0.000
198.61	-0.000
198.83	-0.000
199.04	-0.000
199.26	-0.000
199.47	-0.000
199.69	-0.000
199.90	-0.000
200.12	-0.000
200.33	-0.000
200.55	-0.000
200.76	-0.000
200.98	-0.000
201.19	-0.000
201.41	-0.000
201.62	-0.000
201.84	-0.000
202.05	-0.000
202.27	-0.000
202.48	-0.000
202.70	-0.000
202.91	-0.000
203.13	-0.000
203.34	-0.000
203.56	-0.000
203.77	-0.000
203.99	-0.000
204.20	-0.000
204.42	-0.000
204.63	-0.000
204.85	-0.000
205.06	-0.000
205.28	-0.000
205.49	-0.000
205.71	-0.000
205.92	-0.000
206.14	-0.000
206.35	-0.000
206.56	-0.000
206.78	-0.000
206.99	-0.000
207.21	-0.000
207.42	-0.000
207.64	-0.000
207.85	-0.000
208.07	-0.000
208.28	-0.000
208.50	-0.000
208.71	-0.000
208.93	-0.000
209.14	-0.000
209.36	-0.000
209.57	-0.000
209.79	-0.000
210.00	-0.000
210.22	-0.000
210.43	-0.000
210.64	-0.000
210.86	-0.000
211.07	-0.000
211.29	-0.000
211.50	-0.000
211.72	-0.000
211.93	-0.000
212.15	-0.000
212.36	-0.000
212.58	-0.000
212.79	-0.000
213.01	-0.000
213.22	-0.000
213.43	-0.000
213.65	-0.000
213.86	-0.000
214.08	-0.000
214.29	-0.000
214.51	-0.000
214.72	-0.000
214.94	-0.000
215.15	-0.000
215.36	-0.000
215.58	-0.000
215.79	-0.000
216.01	-0.000
216.22	-0.000
216.44	-0.000
216.65	-0.000
216.87	-0.000
217.08	-0.000
217.29	-0.000
217.51	-0.000
217.72	-0.000
217.94	-0.000
218.15	-0.000
218.37	-0.000
218.58	-0.000
218.80	-0.000
219.01	-0.000
219.22	-0.000
219.44	-0.000
219.65	-0.000
219.87	-0.000
220.08	-0.000
220.30	-0.000
220.51	-0.000
220.72	-0.000
220.94	-0.000
221.15	-0.000
221.37	-0.000
221.58	-0.000
221.79	-0.000
222.01	-0.000
222.22	-0.000
222.44	-0.000
222.65	-0.000
222.87	-0.000
223.08	-0.000
223.29	-0.000
223.51	-0.000
223.72	-0.000
223.94	-0.000
224.15	-0.000
224.36	-0.000
224.58	-0.000
224.79	-0.000
225.01	-0.000
225.22	-0.000
225.44	-0.000
225.65	-0.000
225.86	-0.000
226.08	-0.000
226.29	-0.000
226.51	-0.000
226.72	-0.000
226.93	-0.000
227.15	-0.000
227.36	-0.000
227.58	-0.000
227.79	-0.000
228.00	-0.000
228.22	-0.000
228.43	-0.000
228.65	-0.000
228.86	-0.000
229.07	-0.000
229.29	-0.000
229.50	-0.000
229.72	-0.000
229.93	-0.000
230.14	-0.000
230.36	-0.000
230.57	-0.000
230.78	-0.000
231.00	-0.000
231.21	-0.000
231.43	-0.000
231.64	-0.000
231.85	-0.000
232.07	-0.000
232.28	-0.000
232.50	-0.000
232.71	-0.000
232.92	-0.000
233.14	-0.000
233.35	-0.000
233.56	-0.000
233.78	-0.000
233.99	-0.000
234.21	-0.000
234.42	-0.000
234.63	-0.000
234.85	-0.000
235.06	-0.000
235.27	-0.000
235.49	-0.000
235.70	-0.000
235.91	-0.000
236.13	-0.000
236.34	-0.000
236.56	-0.000
236.77	-0.000
236.98	-0.000
237.20	-0.000
237.41	-0.000
237.62	-0.000
237.84	-0.000
238.05	-0.000
238.26	-0.000
238.48	-0.000
238.69	-0.000
238.91	-0.000
239.12	-0.000
239.33	-0.000
239.55	-0.000
239.76	-0.000
239.97	-0.000
240.19	-0.000
240.40	-0.000
240.61	-0.000
240.83	-0.000
241.04	-0.000
241.25	-0.000
241.47	-0.000
241.68	-0.000
241.89	-0.000
242.11	-0.000
242.32	-0.000
242.53	-0.000
242.75	-0.000
242.96	-0.000
243.17	-0.000
243.39	-0.000
243.60	-0.000
243.81	-0.000
244.03	-0.000
244.24	-0.000
244.45	-0.000
244.67	-0.000
244.88	-0.000
245.09	-0.000
245.31	-0.000
245.52	-0.000
245.73	-0.000
245.95	-0.000
246.16	-0.000
246.37	-0.000
246.59	-0.000
246.80	-0.000
247.01	-0.000
247.23	-0.000
247.44	-0.000
247.65	-0.000
247.87	-0.000
248.08	-0.000
248.29	-0.000
248.51	-0.000
248.72	-0.000
248.93	-0.000
249.15	-0.000
249.36	-0.000
249.57	-0.000
249.78	-0.000
250.00	-0.000
250.21	-0.000
250.42	-0.000
250.64	-0.000
250.85	-0.000
251.06	-0.000
251.28	-0.000
251.49	-0.000
251.70	-0.000
251.92	-0.000
252.13	-0.000
252.34	-0.000
252.55	-0.000
252.77	-0.000
252.98	-0.000
253.19	-0.000
253.41	-0.000
253.62	-0.000
253.83	-0.000
254.05	-0.000
254.26	-0.000
254.47	-0.000
254.68	-0.000
254.90	-0.000
255.11	-0.000
255.32	-0.000
255.54	-0.000
255.75	-0.000
255.96	-0.000
256.17	-0.000
256.39	-0.000
256.60	-0.000
256.81	-0.000
257.03	-0.000
257.24	-0.000
257.45	-0.000
257.66	-0.000
257.88	-0.000
258.09	-0.000
258.30	-0.000
258.51	-0.000
258.73	-0.000
258.94	-0.000
259.15	-0.000
259.37	-0.000
259.58	-0.000
259.79	-0.000
260.00	-0.000
260.22	-0.000
260.43	-0.000
260.64	-0.000
260.85	-0.000
261.07	-0.000
261.28	-0.000
261.49	-0.000
261.71	-0.000
261.92	-0.000
262.13	-0.000
262.34	-0.000
262.56	-0.000
262.77	-0.000
262.98	-0.000
263.19	-0.000
263.41	-0.000
263.62	-0.000
263.83	-0.000
264.04	-0.000
264.26	-0.000
264.47	-0.000
264.68	-0.000
264.89	-0.000
265.11	-0.000
265.32	-0.000
265.53	-0.000
265.74	-0.000
265.96	-0.000
266.17	-0.000
266.38	-0.000
266.59	-0.000
266.81	-0.000
267.02	-0.000
267.23	-0.000
267.44	-0.000
267.65	-0.000
267.87	-0.000
268.08	-0.000
268.29	-0.000
268.50	-0.000
268.72	-0.000
268.93	-0.000
269.14	-0.000
269.35	-0.000
269.57	-0.000
269.78	-0.000
269.99	-0.000
270.20	-0.000
270.41	-0.000
270.63	-0.000
270.84	-0.000
271.05	-0.000
271.26	-0.000
271.48	-0.000
271.69	-0.000
271.90	-0.000
272.11	-0.000
272.32	-0.000
272.54	-0.000
272.75	-0.000
272.96	-0.000
273.17	-0.000
273.39	-0.000
273.60	-0.000
273.81	-0.000
274.02	-0.000
274.23	-0.000
274.45	-0.000
274.66	-0.000
274.87	-0.000
275.08	-0.000
275.29	-0.000
275.51	-0.000
275.72	-0.000
275.93	-0.000
276.14	-0.000
276.35	-0.000
276.57	-0.000
276.78	-0.000
276.99	-0.000
277.20	-0.000
277.41	-0.000
277.63	-0.000
277.84	-0.000
278.05	-0.000
278.26	-0.000
278.47	-0.000
278.69	-0.000
278.90	-0.000
279.11	-0.000
279.32	-0.000
279.53	-0.000
279.74	-0.000
279.96	-0.000
280.17	-0.000
280.38	-0.000
280.59	-0.000
280.80	-0.000
281.02	-0.000
281.23	-0.000
281.44	-0.000
281.65	-0.000
281.86	-0.000
282.07	-0.000
282.29	-0.000
282.50	-0.000
282.71	-0.000
282.92	-0.000
283.13	-0.000
283.35	-0.000
283.56	-0.000
283.77	-0.000
283.98	-0.000
284.19	-0.000
284.40	-0.000
284.62	-0.000
284.83	-0.000
285.04	-0.000
285.25	-0.000
285.46	-0.000
285.67	-0.000
285.88	-0.000
286.10	-0.000
286.31	-0.000
286.52	-0.000
286.73	-0.000
286.94	-0.000
287.15	-0.000
287.37	-0.000
287.58	-0.000
287.79	-0.000
288.00	-0.000
288.21	-0.000
288.42	-0.000
288.63	-0.000
288.85	-0.000
289.06	-0.000
289.27	-0.000
289.48	-0.000
289.69	-0.000
289.90	-0.000
290.11	-0.000
290.33	-0.000
290.54	-0.000
290.75	-0.000
290.96	-0.000
291.17	-0.000
291.38	-0.000
291.59	-0.000
291.81	-0.000
292.02	-0.000
292.23	-0.000
292.44	-0.000
292.65	-0.000
292.86	-0.000
293.07	-0.000
293.28	2.671
293.50	-0.000
293.71	-0.000
293.92	-0.000
294.13	-0.000
294.34	-0.000
294.55	-0.000
294.76	-0.000
294.97	-0.000
295.19	-0.000
295.40	-0.000
295.61	-0.000
295.82	3.596
296.03	2.361
296.24	2.497
296.45	1.875
296.66	1.664
296.87	1.682
297.09	1.725
297.30	1.857
297.51	1.614
297.72	1.602
297.93	1.673
298.14	1.640
298.35	1.619
298.56	1.588
298.77	1.676
298.99	1.650
299.20	1.626
299.41	1.616
299.62	1.576
299.83	1.560
300.04	1.517
300.25	1.509
300.46	1.550
300.67	1.519
300.88	1.484
301.10	1.487
301.31	1.546
301.52	1.492
301.73	1.446
301.94	1.444
302.15	1.452
302.36	1.405
302.57	1.357
302.78	1.357
302.99	1.394
303.20	1.409
303.41	1.334
303.63	1.320
303.84	1.329
304.05	1.326
304.26	1.281
304.47	1.289
304.68	1.288
304.89	1.277
305.10	1.247
305.31	1.234
305.52	1.277
305.73	1.273
305.94	1.239
306.15	1.232
306.37	1.252
306.58	1.256
306.79	1.230
307.00	1.252
307.21	1.285
307.42	1.277
307.63	1.247
307.84	1.213
308.05	1.246
308.26	1.248
308.47	1.230
308.68	1.222
308.89	1.220
309.10	1.218
309.31	1.184
309.52	1.177
309.73	1.190
309.95	1.183
310.16	1.161
310.37	1.148
310.58	1.162
310.79	1.161
311.00	1.162
311.21	1.164
311.42	1.164
311.63	1.159
311.84	1.144
312.05	1.143
312.26	1.165
312.47	1.175
312.68	1.157
312.89	1.140
313.10	1.142
313.31	1.116
313.52	1.120
313.73	1.121
313.94	1.123
314.15	1.107
314.36	1.088
314.57	1.080
314.78	1.067
314.99	1.061
315.21	1.052
315.42	1.057
315.63	1.067
315.84	1.047
316.05	1.037
316.26	1.044
316.47	1.059
316.68	1.055
316.89	1.038
317.10	1.056
317.31	1.061
317.52	1.063
317.73	1.045
317.94	1.045
318.15	1.082
318.36	1.080
318.57	1.066
318.78	1.056
318.99	1.088
319.20	1.087
319.41	1.056
319.62	1.056
319.83	1.068
320.04	1.063
320.25	1.052
320.46	1.020
320.67	1.023
320.88	1.018
321.09	1.006
321.30	0.992
321.51	1.004
321.72	1.002
321.93	0.989
322.14	0.980
322.35	1.004
322.56	1.006
322.77	0.996
322.98	1.006
323.19	1.014
323.40	1.021
323.61	1.002
323.82	0.997
324.03	1.003
324.24	1.002
324.45	0.991
324.66	0.973
324.87	0.969
325.08	0.969
325.29	0.952
325.50	0.943
325.71	0.946
325.92	0.952
326.13	0.941
326.34	0.940
326.55	0.946
326.76	0.945
326.97	0.937
327.18	0.931
327.39	0.954
327.60	0.955
327.80	0.958
328.01	0.957
328.22	0.956
328.43	0.960
328.64	0.949
328.85	0.954
329.06	0.957
329.27	0.957
329.48	0.954
329.69	0.935
329.90	0.944
330.11	0.938
330.32	0.932
330.53	0.926
330.74	0.924
330.95	0.924
331.16	0.910
331.37	0.916
331.58	0.915
331.79	0.913
332.00	0.905
332.21	0.899
332.42	0.901
332.63	0.893
332.83	0.890
333.04	0.892
333.25	0.903
333.46	0.903
333.67	0.890
333.88	0.892
334.09	0.903
334.30	0.901
334.51	0.894
334.72	0.889
334.93	0.891
335.14	0.891
335.35	0.884
335.56	0.879
335.77	0.885
335.98	0.884
336.18	0.879
336.39	0.870
336.60	0.874
336.81	0.871
337.02	0.872
337.23	0.876
337.44	0.878
337.65	0.881
337.86	0.873
338.07	0.868
338.28	0.871
338.49	0.868
338.70	0.863
338.91	0.869
339.11	0.877
339.32	0.874
339.53	0.864
339.74	0.862
339.95	0.857
340.16	0.855
340.37	0.849
340.58	0.847
340.79	0.850
341.00	0.850
341.21	0.841
341.41	0.840
341.62	0.841
341.83	0.842
342.04	0.837
342.25	0.847
342.46	0.851
342.67	0.850
342.88	0.843
343.09	0.842
343.30	0.849
343.50	0.851
343.71	0.842
343.92	0.841
344.13	0.844
344.34	0.844
344.55	0.828
344.76	0.827
344.97	0.830
345.18	0.829
345.38	0.828
345.59	0.823
345.80	0.822
346.01	0.820
346.22	0.816
346.43	0.810
346.64	0.818
346.85	0.819
347.06	0.813
347.26	0.813
347.47	0.815
347.68	0.810
347.89	0.806
348.10	0.801
348.31	0.807
348.52	0.807
348.73	0.805
348.93	0.802
349.14	0.803
349.35	0.803
349.56	0.798
349.77	0.794
349.98	0.799
350.19	0.797
350.39	0.793
350.60	0.788
350.81	0.802
351.02	0.800
351.23	0.796
351.44	0.798
351.65	0.800
351.86	0.798
352.06	0.798
352.27	0.798
352.48	0.799
352.69	0.799
352.90	0.795
353.11	0.781
353.31	0.789
353.52	0.785
353.73	0.777
353.94	0.779
354.15	0.784
354.36	0.783
354.57	0.775
354.77	0.777
354.98	0.776
355.19	0.775
355.40	0.776
355.61	0.781
355.82	0.785
356.02	0.784
356.23	0.777
356.44	0.779
356.65	0.782
356.86	0.783
357.07	0.777
357.27	0.780
357.48	0.781
357.69	0.776
357.90	0.762
358.11	0.758
358.32	0.762
358.52	0.766
358.73	0.756
358.94	0.758
359.15	0.762
359.36	0.763
359.56	0.759
359.77	0.757
359.98	0.763
360.19	0.762
360.40	0.760
360.61	0.761
360.81	0.758
361.02	0.758
361.23	0.751
361.44	0.749
361.65	0.749
361.85	0.749
362.06	0.748
362.27	0.749
362.48	0.750
362.69	0.752
362.89	0.746
363.10	0.748
363.31	0.752
363.52	0.756
363.73	0.751
363.93	0.751
364.14	0.752
364.35	0.752
364.56	0.744
364.77	0.745
364.97	0.746
365.18	0.747
365.39	0.743
365.60	0.739
365.81	0.739
366.01	0.739
366.22	0.736
366.43	0.735
366.64	0.737
366.84	0.742
367.05	0.739
367.26	0.739
367.47	0.740
367.68	0.740
367.88	0.738
368.09	0.736
368.30	0.738
368.51	0.738
368.71	0.737
368.92	0.742
369.13	0.739
369.34	0.738
369.55	0.737
369.75	0.737
369.96	0.743
370.17	0.743
370.38	0.740
370.58	0.740
370.79	0.745
371.00	0.744
371.21	0.736
371.41	0.742
371.62	0.746
371.83	0.741
372.04	0.740
372.24	0.734
372.45	0.734
372.66	0.735
372.87	0.732
373.07	0.728
373.28	0.729
373.49	0.732
373.70	0.723
373.90	0.722
374.11	0.732
374.32	0.731
374.53	0.730
374.73	0.731
374.94	0.733
375.15	0.734
375.36	0.732
375.56	0.740
375.77	0.740
375.98	0.740
376.19	0.738
376.39	0.731
376.60	0.735
376.81	0.735
377.02	0.734
377.22	0.734
377.43	0.733
377.64	0.733
377.84	0.724
378.05	0.729
378.26	0.736
378.47	0.735
378.67	0.733
378.88	0.730
379.09	0.730
379.30	0.729
379.50	0.727
379.71	0.730
379.92	0.732
380.12	0.732
380.33	0.724
380.54	0.719
380.75	0.725
380.95	0.725
381.16	0.723
381.37	0.723
381.57	0.725
381.78	0.725
381.99	0.725
382.20	0.724
382.40	0.727
382.61	0.728
382.82	0.725
383.02	0.719
383.23	0.722
383.44	0.722
383.64	0.722
383.85	0.724
384.06	0.727
384.27	0.725
384.47	0.723
384.68	0.723
384.89	0.728
385.09	0.728
385.30	0.728
385.51	0.726
385.71	0.730
385.92	0.729
386.13	0.728
386.33	0.730
386.54	0.730
386.75	0.730
386.95	0.727
387.16	0.722
387.37	0.724
387.58	0.725
387.78	0.723
387.99	0.721
388.20	0.722
388.40	0.720
388.61	0.717
388.82	0.720
389.02	0.722
389.23	0.722
389.44	0.721
389.64	0.722
389.85	0.732
390.06	0.733
390.26	0.733
390.47	0.732
390.68	0.734
390.88	0.732
391.09	0.729
391.30	0.728
391.50	0.728
391.71	0.727
391.92	0.725
392.12	0.717
392.33	0.718
392.53	0.718
392.74	0.719
392.95	0.719
393.15	0.720
393.36	0.722
393.57	0.720
393.77	0.723
393.98	0.725
394.19	0.724
394.39	0.724
394.60	0.725
394.81	0.728
395.01	0.725
395.22	0.724
395.43	0.726
395.63	0.730
395.84	0.732
396.04	0.728
396.25	0.730
396.46	0.733
396.66	0.732
396.87	0.730
397.08	0.727
397.28	0.729
397.49	0.730
397.69	0.726
397.90	0.721
398.11	0.722
398.31	0.723
398.52	0.720
398.73	0.720
398.93	0.719
399.14	0.717
399.34	0.716
399.55	0.717
399.76	0.718
399.96	0.718
400.17	0.717
400.37	0.715
400.58	0.722
400.79	0.723
400.99	0.722
401.20	0.728
401.41	0.730
401.61	0.731
401.82	0.736
402.02	0.735
402.23	0.737
402.44	0.736
402.64	0.737
402.85	0.732
403.05	0.731
403.26	0.729
403.47	0.723
403.67	0.723
403.88	0.724
404.08	0.718
404.29	0.716
404.50	0.716
404.70	0.717
404.91	0.715
405.11	0.712
405.32	0.713
405.52	0.714
405.73	0.714
405.94	0.712
406.14	0.714
406.35	0.716
406.55	0.716
406.76	0.714
406.97	0.715
407.17	0.717
407.38	0.718
407.58	0.716
407.79	0.719
407.99	0.721
408.20	0.721
408.41	0.717
408.61	0.715
408.82	0.716
409.02	0.716
409.23	0.714
409.43	0.712
409.64	0.713
409.84	0.713
410.05	0.710
410.26	0.708
410.46	0.708
410.67	0.708
410.87	0.710
411.08	0.711
411.28	0.713
411.49	0.714
411.69	0.712
411.90	0.714
412.11	0.714
412.31	0.715
412.52	0.714
412.72	0.714
412.93	0.716
413.13	0.715
413.34	0.712
413.54	0.713
413.75	0.715
413.95	0.715
414.16	0.711
414.37	0.715
414.57	0.715
414.78	0.717
414.98	0.716
415.19	0.716
415.39	0.714
415.60	0.716
415.80	0.715
416.01	0.713
416.21	0.715
416.42	0.715
416.62	0.711
416.83	0.710
417.03	0.710
417.24	0.710
417.44	0.708
417.65	0.706
417.86	0.707
418.06	0.705
418.27	0.703
418.47	0.705
418.68	0.705
418.88	0.705
419.09	0.703
419.29	0.704
419.50	0.704
419.70	0.704
419.91	0.704
420.11	0.701
420.32	0.703
420.52	0.703
420.73	0.702
420.93	0.703
421.14	0.704
421.34	0.703
421.55	0.700
421.75	0.700
421.96	0.701
422.16	0.701
422.37	0.700
422.57	0.697
422.78	0.699
422.98	0.695
423.19	0.693
423.39	0.691
423.60	0.695
423.80	0.696
424.01	0.694
424.21	0.696
424.42	0.697
424.62	0.697
424.83	0.696
425.03	0.696
425.23	0.698
425.44	0.699
425.64	0.699
425.85	0.697
426.05	0.698
426.26	0.698
426.46	0.695
426.67	0.694
426.87	0.699
427.08	0.699
427.28	0.698
427.49	0.699
427.69	0.699
427.90	0.699
428.10	0.697
428.31	0.696
428.51	0.698
428.71	0.697
428.92	0.699
429.12	0.696
429.33	0.696
429.53	0.700
429.74	0.705
429.94	0.705
430.15	0.704
430.35	0.704
430.56	0.701
430.76	0.700
430.96	0.701
431.17	0.698
431.37	0.695
431.58	0.693
431.78	0.690
431.99	0.682
432.19	0.685
432.40	0.686
432.60	0.686
432.80	0.688
433.01	0.686
433.21	0.687
433.42	0.688
433.62	0.688
433.83	0.687
434.03	0.690
434.23	0.693
434.44	0.692
434.64	0.690
434.85	0.695
435.05	0.696
435.26	0.696
435.46	0.694
435.66	0.694
435.87	0.695
436.07	0.695
436.28	0.690
436.48	0.687
436.69	0.687
436.89	0.687
437.09	0.681
437.30	0.679
437.50	0.679
437.71	0.691
437.91	0.690
438.11	0.691
438.32	0.695
438.52	0.696
438.73	0.695
438.93	0.693
439.13	0.692
439.34	0.696
439.54	0.693
439.75	0.693
439.95	0.683
440.15	0.687
440.36	0.686
440.56	0.683
440.77	0.684
440.97	0.684
441.17	0.684
441.38	0.685
441.58	0.682
441.79	0.682
441.99	0.681
442.19	0.680
442.40	0.678
442.60	0.678
442.81	0.675
443.01	0.675
443.21	0.676
443.42	0.675
443.62	0.673
443.82	0.673
444.03	0.674
444.23	0.673
444.44	0.673
444.64	0.672
444.84	0.673
445.05	0.673
445.25	0.671
445.45	0.671
445.66	0.673
445.86	0.672
446.06	0.673
446.27	0.673
446.47	0.677
446.68	0.675
446.88	0.674
447.08	0.673
447.29	0.675
447.49	0.675
447.69	0.675
447.90	0.674
448.10	0.677
448.30	0.675
448.51	0.676
448.71	0.673
448.91	0.674
449.12	0.673
449.32	0.675
449.52	0.673
449.73	0.676
449.93	0.675
450.14	0.676
450.34	0.675
450.54	0.677
450.75	0.674
450.95	0.673
451.15	0.672
451.36	0.675
451.56	0.672
451.76	0.671
451.97	0.669
452.17	0.669
452.37	0.667
452.58	0.664
452.78	0.664
452.98	0.666
453.19	0.665
453.39	0.666
453.59	0.664
453.79	0.665
454.00	0.665
454.20	0.664
454.40	0.665
454.61	0.667
454.81	0.667
455.01	0.666
455.22	0.667
455.42	0.669
455.62	0.666
455.83	0.666
456.03	0.669
456.23	0.670
456.44	0.671
456.64	0.669
456.84	0.669
457.04	0.669
457.25	0.669
457.45	0.665
457.65	0.664
457.86	0.666
458.06	0.665
458.26	0.661
458.47	0.661
458.67	0.661
458.87	0.662
459.07	0.660
459.28	0.661
459.48	0.663
459.68	0.663
459.89	0.662
460.09	0.661
460.29	0.662
460.49	0.662
460.70	0.661
460.90	0.661
461.10	0.661
461.31	0.660
461.51	0.658
461.71	0.660
461.91	0.661
462.12	0.661
462.32	0.660
462.52	0.661
462.72	0.663
462.93	0.664
463.13	0.663
463.33	0.664
463.53	0.665
463.74	0.665
463.94	0.661
464.14	0.661
464.35	0.662
464.55	0.662
464.75	0.660
464.95	0.658
465.16	0.660
465.36	0.658
465.56	0.657
465.76	0.657
465.97	0.657
466.17	0.657
466.37	0.655
466.57	0.656
466.78	0.657
466.98	0.657
467.18	0.655
467.38	0.653
467.59	0.655
467.79	0.657
467.99	0.656
468.19	0.657
468.39	0.660
468.60	0.660
468.80	0.659
469.00	0.660
469.20	0.661
469.41	0.661
469.61	0.661
469.81	0.661
470.01	0.660
470.22	0.660
470.42	0.659
470.62	0.656
470.82	0.657
471.02	0.657
471.23	0.655
471.43	0.655
471.63	0.658
471.83	0.657
472.04	0.656
472.24	0.654
472.44	0.659
472.64	0.659
472.84	0.658
473.05	0.657
473.25	0.660
473.45	0.659
473.65	0.658
473.85	0.658
474.06	0.659
474.26	0.659
474.46	0.660
474.66	0.656
474.86	0.657
475.07	0.657
475.27	0.656
475.47	0.653
475.67	0.654
475.87	0.656
476.08	0.653
476.28	0.654
476.48	0.655
476.68	0.654
476.88	0.652
477.09	0.653
477.29	0.654
477.49	0.654
477.69	0.654
477.89	0.654
478.09	0.653
478.30	0.655
478.50	0.652
478.70	0.652
478.90	0.652
479.10	0.655
479.31	0.655
479.51	0.654
479.71	0.654
479.91	0.655
480.11	0.653
480.31	0.654
480.52	0.652
480.72	0.652
480.92	0.651
481.12	0.651
481.32	0.648
481.52	0.647
481.72	0.647
481.93	0.650
482.13	0.651
482.33	0.651
482.53	0.649
482.73	0.650
482.93	0.651
483.14	0.650
483.34	0.649
483.54	0.650
483.74	0.649
483.94	0.648
484.14	0.644
484.34	0.643
484.55	0.644
484.75	0.643
484.95	0.642
485.15	0.642
485.35	0.642
485.55	0.642
485.75	0.640
485.96	0.640
486.16	0.641
486.36	0.640
486.56	0.638
486.76	0.638
486.96	0.639
487.16	0.637
487.36	0.636
487.57	0.635
487.77	0.635
487.97	0.636
488.17	0.634
488.37	0.633
488.57	0.634
488.77	0.635
488.97	0.634
489.18	0.633
489.38	0.636
489.58	0.636
489.78	0.636
489.98	0.635
490.18	0.635
490.38	0.636
490.58	0.635
490.78	0.636
490.98	0.638
491.19	0.638
491.39	0.637
491.59	0.636
491.79	0.639
491.99	0.639
492.19	0.639
492.39	0.642
492.59	0.642
492.79	0.644
492.99	0.644
493.20	0.644
493.40	0.644
493.60	0.646
493.80	0.644
494.00	0.642
494.20	0.642
494.40	0.642
494.60	0.639
494.80	0.643
495.00	0.642
495.20	0.640
495.40	0.639
495.61	0.641
495.81	0.640
496.01	0.644
496.21	0.645
496.41	0.644
496.61	0.644
496.81	0.643
497.01	0.638
497.21	0.637
497.41	0.638
497.61	0.637
497.81	0.635
498.01	0.635
498.21	0.633
498.41	0.631
498.61	0.631
498.82	0.632
499.02	0.634
499.22	0.635
499.42	0.635
499.62	0.636
499.82	0.637
500.02	0.638
500.22	0.637
500.42	0.640
500.62	0.640
500.82	0.640
501.02	0.638
501.22	0.638
501.42	0.638
501.62	0.640
501.82	0.639
502.02	0.639
502.22	0.639
502.42	0.640
502.62	0.637
502.82	0.638
503.02	0.638
503.22	0.638
503.42	0.636
503.63	0.636
503.83	0.634
504.03	0.633
504.23	0.632
504.43	0.632
504.63	0.633
504.83	0.633
505.03	0.632
505.23	0.634
505.43	0.636
505.63	0.637
505.83	0.636
506.03	0.638
506.23	0.639
506.43	0.640
506.63	0.639
506.83	0.638
507.03	0.640
507.23	0.640
507.43	0.638
507.63	0.638
507.83	0.638
508.03	0.638
508.23	0.638
508.43	0.636
508.63	0.638
508.83	0.639
509.03	0.640
509.23	0.639
509.43	0.640
509.63	0.640
509.83	0.639
510.03	0.641
510.23	0.642
510.43	0.643
510.63	0.643
510.83	0.643
511.03	0.644
511.23	0.642
511.43	0.641
511.63	0.642
511.83	0.645
512.03	0.645
512.22	0.642
512.42	0.641
512.62	0.642
512.82	0.641
513.02	0.640
513.22	0.640
513.42	0.642
513.62	0.645
513.82	0.643
514.02	0.642
514.22	0.644
514.42	0.644
514.62	0.645
514.82	0.644
515.02	0.647
515.22	0.650
515.42	0.648
515.62	0.651
515.82	0.650
516.02	0.651
516.22	0.651
516.42	0.652
516.62	0.654
516.82	0.656
517.01	0.655
517.21	0.654
517.41	0.657
517.61	0.657
517.81	0.654
518.01	0.653
518.21	0.653
518.41	0.652
518.61	0.650
518.81	0.650
519.01	0.650
519.21	0.649
519.41	0.649
519.61	0.643
519.81	0.645
520.00	0.645
520.20	0.646
520.40	0.648
520.60	0.649
520.80	0.649
521.00	0.650
521.20	0.651
521.40	0.656
521.60	0.657
521.80	0.656
522.00	0.657
522.20	0.659
522.39	0.658
522.59	0.655
522.79	0.656
522.99	0.658
523.19	0.656
523.39	0.654
523.59	0.652
523.79	0.654
523.99	0.656
524.19	0.656
524.38	0.654
524.58	0.656
524.78	0.656
524.98	0.654
525.18	0.657
525.38	0.658
525.58	0.658
525.78	0.657
525.98	0.655
526.18	0.656
526.37	0.655
526.57	0.657
526.77	0.657
526.97	0.658
527.17	0.658
527.37	0.654
527.57	0.656
527.77	0.658
527.96	0.658
528.16	0.657
528.36	0.657
528.56	0.659
528.76	0.657
528.96	0.655
529.16	0.657
529.36	0.659
529.55	0.659
529.75	0.656
529.95	0.656
530.15	0.657
530.35	0.660
530.55	0.657
530.75	0.658
530.94	0.659
531.14	0.660
531.34	0.658
531.54	0.656
531.74	0.659
531.94	0.662
532.13	0.661
532.33	0.662
532.53	0.661
532.73	0.661
532.93	0.659
533.13	0.661
533.33	0.661
533.52	0.661
533.72	0.665
533.92	0.663
534.12	0.661
534.32	0.661
534.52	0.660
534.71	0.661
534.91	0.664
535.11	0.666
535.31	0.665
535.51	0.667
535.71	0.668
535.90	0.665
536.10	0.667
536.30	0.669
536.50	0.670
536.70	0.669
536.89	0.667
537.09	0.667
537.29	0.668
537.49	0.668
537.69	0.666
537.89	0.667
538.08	0.667
538.28	0.665
538.48	0.665
538.68	0.667
538.88	0.668
539.07	0.668
539.27	0.666
539.47	0.665
539.67	0.665
539.87	0.666
540.06	0.664
540.26	0.665
540.46	0.666
540.66	0.664
540.86	0.662
541.05	0.662
541.25	0.663
541.45	0.663
541.65	0.662
541.84	0.664
542.04	0.665
542.24	0.666
542.44	0.664
542.64	0.666
542.83	0.669
543.03	0.669
543.23	0.668
543.43	0.669
543.62	0.670
543.82	0.670
544.02	0.669
544.22	0.669
544.42	0.671
544.61	0.672
544.81	0.669
545.01	0.668
545.21	0.669
545.40	0.670
545.60	0.668
545.80	0.671
546.00	0.671
546.19	0.670
546.39	0.670
546.59	0.667
546.79	0.669
546.98	0.669
547.18	0.669
547.38	0.669
547.58	0.672
547.77	0.672
547.97	0.668
548.17	0.670
548.37	0.670
548.56	0.670
548.76	0.670
548.96	0.671
549.16	0.673
549.35	0.673
549.55	0.671
549.75	0.671
549.95	0.674
550.14	0.674
550.34	0.672
550.54	0.677
550.73	0.681
550.93	0.681
551.13	0.678
551.33	0.677
551.52	0.678
551.72	0.678
551.92	0.677
552.12	0.677
552.31	0.678
552.51	0.678
552.71	0.674
552.90	0.674
553.10	0.675
553.30	0.675
553.50	0.674
553.69	0.675
553.89	0.676
554.09	0.676
554.28	0.673
554.48	0.675
554.68	0.676
554.87	0.676
555.07	0.672
555.27	0.672
555.47	0.673
555.66	0.675
555.86	0.673
556.06	0.675
556.25	0.676
556.45	0.684
556.65	0.682
556.84	0.685
557.04	0.689
557.24	0.690
557.43	0.690
557.63	0.693
557.83	0.694
558.02	0.695
558.22	0.699
558.42	0.699
558.61	0.692
558.81	0.692
559.01	0.688
559.21	0.688
559.40	0.690
559.60	0.689
559.80	0.686
559.99	0.687
560.19	0.689
560.39	0.683
560.58	0.681
560.78	0.681
560.97	0.685
561.17	0.683
561.37	0.681
561.56	0.682
561.76	0.684
561.96	0.684
562.15	0.681
562.35	0.683
562.55	0.684
562.74	0.684
562.94	0.683
563.14	0.681
563.33	0.682
563.53	0.682
563.73	0.679
563.92	0.681
564.12	0.683
564.31	0.685
564.51	0.685
564.71	0.686
564.90	0.689
565.10	0.690
565.30	0.693
565.49	0.694
565.69	0.697
565.89	0.697
566.08	0.695
566.28	0.696
566.47	0.697
566.67	0.695
566.87	0.693
567.06	0.695
567.26	0.700
567.46	0.696
567.65	0.696
567.85	0.697
568.04	0.700
568.24	0.698
568.44	0.695
568.63	0.694
568.83	0.695
569.02	0.694
569.22	0.689
569.42	0.686
569.61	0.688
569.81	0.687
570.00	0.685
570.20	0.686
570.40	0.687
570.59	0.687
570.79	0.685
570.98	0.683
571.18	0.685
571.38	0.685
571.57	0.682
571.77	0.679
571.96	0.682
572.16	0.680
572.35	0.675
572.55	0.676
572.75	0.674
572.94	0.674
573.14	0.673
573.33	0.672
573.53	0.673
573.73	0.673
573.92	0.671
574.12	0.669
574.31	0.672
574.51	0.673
574.70	0.670
574.90	0.672
575.09	0.674
575.29	0.674
575.49	0.672
575.68	0.672
575.88	0.673
576.07	0.674
576.27	0.671
576.46	0.670
576.66	0.669
576.86	0.668
577.05	0.666
577.25	0.664
577.44	0.666
577.64	0.665
577.83	0.664
578.03	0.666
578.22	0.665
578.42	0.665
578.61	0.663
578.81	0.664
579.00	0.664
579.20	0.663
579.40	0.662
579.59	0.660
579.79	0.660
579.98	0.660
580.18	0.659
580.37	0.659
580.57	0.661
580.76	0.665
580.96	0.664
581.15	0.665
581.35	0.667
581.54	0.667
581.74	0.667
581.93	0.669
582.13	0.670
582.32	0.667
582.52	0.665
582.71	0.664
582.91	0.660
583.10	0.659
583.30	0.658
583.49	0.657
583.69	0.661
583.88	0.662
584.08	0.660
584.27	0.663
584.47	0.666
584.66	0.667
584.86	0.667
585.05	0.670
585.25	0.672
585.44	0.671
585.64	0.671
585.83	0.667
586.03	0.668
586.22	0.666
586.42	0.662
586.61	0.663
586.81	0.664
587.00	0.664
587.20	0.661
587.39	0.661
587.59	0.662
587.78	0.663
587.98	0.664
588.17	0.665
588.37	0.667
588.56	0.669
588.76	0.665
588.95	0.665
589.15	0.669
589.34	0.672
589.54	0.671
589.73	0.672
589.92	0.675
590.12	0.675
590.31	0.673
590.51	0.679
590.70	0.681
590.90	0.682
591.09	0.680
591.29	0.678
591.48	0.678
591.68	0.679
591.87	0.678
592.06	0.678
592.26	0.680
592.45	0.679
592.65	0.673
592.84	0.672
593.04	0.674
593.23	0.676
593.43	0.674
593.62	0.673
593.81	0.673
594.01	0.672
594.20	0.669
594.40	0.668
594.59	0.670
594.79	0.670
594.98	0.669
595.17	0.668
595.37	0.669
595.56	0.671
595.76	0.671
595.95	0.673
596.14	0.676
596.34	0.677
596.53	0.677
596.73	0.679
596.92	0.680
597.12	0.683
597.31	0.683
597.50	0.682
597.70	0.684
597.89	0.684
598.09	0.680
598.28	0.681
598.47	0.683
598.67	0.682
598.86	0.679
599.06	0.680
599.25	0.681
599.44	0.678
599.64	0.676
599.83	0.673
600.03	0.675
600.22	0.675
600.41	0.675
600.61	0.673
600.80	0.674
601.00	0.674
601.19	0.670
601.38	0.669
601.58	0.671
601.77	0.673
601.96	0.675
602.16	0.675
602.35	0.684
602.55	0.681
602.74	0.683
602.93	0.686
603.13	0.691
603.32	0.693
603.51	0.693
603.71	0.696
603.90	0.697
604.09	0.698
604.29	0.696
604.48	0.690
604.68	0.692
604.87	0.690
605.06	0.686
605.26	0.683
605.45	0.683
605.64	0.682
605.84	0.678
606.03	0.677
606.22	0.675
606.42	0.674
606.61	0.671
606.80	0.671
607.00	0.672
607.19	0.672
607.38	0.671
607.58	0.672
607.77	0.674
607.96	0.673
608.16	0.671
608.35	0.676
608.54	0.678
608.74	0.681
608.93	0.687
609.12	0.689
609.32	0.691
609.51	0.694
609.70	0.693
609.90	0.696
610.09	0.700
610.28	0.706
610.48	0.700
610.67	0.702
610.86	0.702
611.06	0.697
611.25	0.695
611.44	0.696
611.64	0.696
611.83	0.700
612.02	0.696
612.21	0.695
612.41	0.693
612.60	0.692
612.79	0.688
612.99	0.688
613.18	0.690
613.37	0.687
613.57	0.685
613.76	0.686
613.95	0.683
614.14	0.683
614.34	0.680
614.53	0.681
614.72	0.684
614.92	0.684
615.11	0.681
615.30	0.678
615.49	0.679
615.69	0.681
615.88	0.678
616.07	0.679
616.26	0.680
616.46	0.682
616.65	0.679
616.84	0.677
617.04	0.677
617.23	0.681
617.42	0.682
617.61	0.686
617.81	0.686
618.00	0.688
618.19	0.686
618.38	0.690
618.58	0.693
618.77	0.695
618.96	0.696
619.15	0.698
619.35	0.699
619.54	0.700
619.73	0.696
619.92	0.698
620.12	0.703
620.31	0.703
620.50	0.698
620.69	0.699
620.89	0.701
621.08	0.701
621.27	0.702
621.46	0.701
621.66	0.704
621.85	0.704
622.04	0.700
622.23	0.701
622.43	0.701
622.62	0.701
622.81	0.701
623.00	0.700
623.19	0.703
623.39	0.702
623.58	0.699
623.77	0.699
623.96	0.701
624.16	0.700
624.35	0.696
624.54	0.699
624.73	0.703
624.92	0.700
625.12	0.698
625.31	0.698
625.50	0.701
625.69	0.702
625.88	0.698
626.08	0.698
626.27	0.699
626.46	0.699
626.65	0.696
626.84	0.695
627.04	0.700
627.23	0.699
627.42	0.696
627.61	0.697
627.80	0.701
628.00	0.702
628.19	0.700
628.38	0.703
628.57	0.706
628.76	0.705
628.96	0.703
629.15	0.703
629.34	0.707
629.53	0.708
629.72	0.703
629.91	0.704
630.11	0.707
630.30	0.707
630.49	0.710
630.68	0.710
630.87	0.713
631.06	0.716
631.26	0.711
631.45	0.712
631.64	0.719
631.83	0.721
632.02	0.718
632.21	0.718
632.41	0.725
632.60	0.719
632.79	0.718
632.98	0.718
633.17	0.717
633.36	0.719
633.55	0.715
633.75	0.711
633.94	0.711
634.13	0.711
634.32	0.708
634.51	0.702
634.70	0.704
634.89	0.704
635.09	0.700
635.28	0.701
635.47	0.701
635.66	0.704
635.85	0.701
636.04	0.702
636.23	0.706
636.43	0.707
636.62	0.707
636.81	0.706
637.00	0.708
637.19	0.711
637.38	0.708
637.57	0.708
637.76	0.710
637.95	0.710
638.15	0.708
638.34	0.705
638.53	0.707
638.72	0.709
638.91	0.707
639.10	0.706
639.29	0.706
639.48	0.708
639.67	0.708
639.87	0.708
640.06	0.713
640.25	0.714
640.44	0.714
640.63	0.716
640.82	0.718
641.01	0.717
641.20	0.716
641.39	0.717
641.58	0.718
641.78	0.717
641.97	0.713
642.16	0.726
642.35	0.725
642.54	0.724
642.73	0.717
642.92	0.716
643.11	0.719
643.30	0.718
643.49	0.714
643.68	0.717
643.87	0.717
644.06	0.717
644.25	0.698
644.45	0.702
644.64	0.703
644.83	0.704
645.02	0.702
645.21	0.701
645.40	0.703
645.59	0.702
645.78	0.698
645.97	0.701
646.16	0.702
646.35	0.701
646.54	0.699
646.73	0.700
646.92	0.701
647.11	0.701
647.30	0.698
647.49	0.699
647.68	0.698
647.88	0.696
648.07	0.689
648.26	0.692
648.45	0.694
648.64	0.691
648.83	0.689
649.02	0.692
649.21	0.700
649.40	0.699
649.59	0.695
649.78	0.697
649.97	0.711
650.16	0.711
650.35	0.706
650.54	0.709
650.73	0.717
650.92	0.714
651.11	0.707
651.30	0.706
651.49	0.710
651.68	0.710
651.87	0.706
652.06	0.696
652.25	0.698
652.44	0.701
652.63	0.700
652.82	0.702
653.01	0.702
653.20	0.702
653.39	0.691
653.58	0.689
653.77	0.688
653.96	0.684
654.15	0.677
654.34	0.675
654.53	0.670
654.72	0.663
654.91	0.653
655.10	0.648
655.29	0.645
655.48	0.643
655.67	0.638
655.86	0.635
656.05	0.633
656.24	0.632
656.43	0.627
656.62	0.625
656.81	0.625
657.00	0.621
657.19	0.618
657.38	0.616
657.57	0.615
657.76	0.616
657.95	0.613
658.14	0.616
658.33	0.618
658.51	0.622
658.70	0.622
658.89	0.624
659.08	0.634
659.27	0.643
659.46	0.646
659.65	0.653
659.84	0.656
660.03	0.660
660.22	0.662
660.41	0.666
660.60	0.665
660.79	0.667
660.98	0.672
661.17	0.670
661.36	0.670
661.55	0.670
661.74	0.668
661.92	0.670
662.11	0.672
662.30	0.670
662.49	0.665
662.68	0.664
662.87	0.667
663.06	0.662
663.25	0.663
663.44	0.664
663.63	0.665
663.82	0.664
664.01	0.659
664.20	0.657
664.38	0.659
664.57	0.659
664.76	0.660
664.95	0.660
665.14	0.664
665.33	0.659
665.52	0.666
665.71	0.669
665.90	0.668
666.09	0.670
666.28	0.668
666.46	0.667
666.65	0.667
666.84	0.665
667.03	0.659
667.22	0.657
667.41	0.660
667.60	0.650
667.79	0.644
667.98	0.645
668.16	0.645
668.35	0.645
668.54	0.642
668.73	0.643
668.92	0.643
669.11	0.643
669.30	0.638
669.49	0.635
669.67	0.637
669.86	0.639
670.05	0.637
670.24	0.635
670.43	0.633
670.62	0.632
670.81	0.627
671.00	0.628
671.18	0.628
671.37	0.626
671.56	0.625
671.75	0.624
671.94	0.620
672.13	0.618
672.32	0.613
672.50	0.612
672.69	0.613
672.88	0.612
673.07	0.608
673.26	0.610
673.45	0.611
673.63	0.610
673.82	0.607
674.01	0.608
674.20	0.608
674.39	0.608
674.58	0.608
674.76	0.608
674.95	0.607
675.14	0.607
675.33	0.603
675.52	0.602
675.71	0.602
675.89	0.602
676.08	0.598
676.27	0.599
676.46	0.599
676.65	0.599
676.84	0.598
677.02	0.600
677.21	0.601
677.40	0.600
677.59	0.598
677.78	0.598
677.96	0.600
678.15	0.600
678.34	0.597
678.53	0.599
678.72	0.598
678.90	0.594
679.09	0.590
679.28	0.587
679.47	0.587
679.66	0.586
679.84	0.583
680.03	0.581
680.22	0.580
680.41	0.581
680.60	0.578
680.78	0.577
680.97	0.579
681.16	0.579
681.35	0.578
681.53	0.577
681.72	0.578
681.91	0.580
682.10	0.579
682.29	0.581
682.47	0.578
682.66	0.576
682.85	0.575
683.04	0.573
683.22	0.573
683.41	0.574
683.60	0.573
683.79	0.575
683.97	0.574
684.16	0.571
684.35	0.568
684.54	0.569
684.72	0.571
684.91	0.571
685.10	0.569
685.29	0.571
685.47	0.568
685.66	0.567
685.85	0.564
686.04	0.563
686.22	0.566
686.41	0.569
686.60	0.566
686.79	0.569
686.97	0.570
687.16	0.571
687.35	0.569
687.54	0.572
687.72	0.575
687.91	0.575
688.10	0.578
688.29	0.577
688.47	0.575
688.66	0.574
688.85	0.571
689.03	0.569
689.22	0.573
689.41	0.573
689.60	0.569
689.78	0.567
689.97	0.567
690.16	0.564
690.34	0.561
690.53	0.561
690.72	0.561
690.91	0.559
691.09	0.557
691.28	0.551
691.47	0.549
691.65	0.548
691.84	0.546
692.03	0.545
692.21	0.543
692.40	0.542
692.59	0.539
692.77	0.538
692.96	0.539
693.15	0.540
693.34	0.537
693.52	0.537
693.71	0.537
693.90	0.539
694.08	0.539
694.27	0.540
694.46	0.550
694.64	0.551
694.83	0.551
695.02	0.550
695.20	0.549
695.39	0.549
695.58	0.550
695.76	0.551
695.95	0.549
696.14	0.548
696.32	0.546
696.51	0.536
696.70	0.536
696.88	0.536
697.07	0.535
697.26	0.537
697.44	0.538
697.63	0.537
697.81	0.535
698.00	0.535
698.19	0.534
698.37	0.534
698.56	0.534
698.75	0.533
698.93	0.533
699.12	0.533
699.31	0.531
699.49	0.531
699.68	0.531
699.87	0.533
700.05	0.534
700.24	0.534
700.42	0.535
700.61	0.535
700.80	0.533
700.98	0.534
701.17	0.535
701.36	0.534
701.54	0.533
701.73	0.533
701.91	0.531
702.10	0.529
702.29	0.528
702.47	0.527
702.66	0.528
702.84	0.530
703.03	0.528
703.22	0.529
703.40	0.529
703.59	0.530
703.77	0.530
703.96	0.531
704.15	0.532
704.33	0.532
704.52	0.532
704.70	0.531
704.89	0.531
705.08	0.529
705.26	0.526
705.45	0.526
705.63	0.525
705.82	0.522
706.00	0.521
706.19	0.520
706.38	0.520
706.56	0.519
706.75	0.517
706.93	0.516
707.12	0.518
707.30	0.518
707.49	0.515
707.68	0.513
707.86	0.513
708.05	0.513
708.23	0.510
708.42	0.511
708.60	0.513
708.79	0.513
708.98	0.511
709.16	0.510
709.35	0.512
709.53	0.516
709.72	0.515
709.90	0.516
710.09	0.518
710.27	0.520
710.46	0.523
710.64	0.521
710.83	0.524
711.02	0.526
711.20	0.525
711.39	0.523
711.57	0.520
711.76	0.521
711.94	0.520
712.13	0.521
712.31	0.521
712.50	0.516
712.68	0.514
712.87	0.515
713.05	0.515
713.24	0.516
713.42	0.516
713.61	0.517
713.79	0.516
713.98	0.516
714.16	0.516
714.35	0.515
714.54	0.516
714.72	0.516
714.91	0.514
715.09	0.520
715.28	0.523
715.46	0.522
715.65	0.520
715.83	0.520
716.02	0.523
716.20	0.520
716.39	0.520
716.57	0.521
716.76	0.522
716.94	0.523
717.12	0.516
717.31	0.517
717.49	0.520
717.68	0.523
717.86	0.522
718.05	0.524
718.23	0.525
718.42	0.527
718.60	0.528
718.79	0.536
718.97	0.538
719.16	0.538
719.34	0.536
719.53	0.535
719.71	0.535
719.90	0.536
720.08	0.534
720.27	0.534
720.45	0.535
720.63	0.534
720.82	0.528
721.00	0.530
721.19	0.533
721.37	0.532
721.56	0.532
721.74	0.534
721.93	0.543
722.11	0.548
722.30	0.548
722.48	0.551
722.66	0.552
722.85	0.552
723.03	0.553
723.22	0.552
723.40	0.555
723.59	0.555
723.77	0.560
723.95	0.554
724.14	0.557
724.32	0.559
724.51	0.558
724.69	0.559
724.88	0.559
725.06	0.558
725.24	0.560
725.43	0.561
725.61	0.562
725.80	0.557
725.98	0.555
726.16	0.551
726.35	0.556
726.53	0.556
726.72	0.555
726.90	0.565
727.09	0.566
727.27	0.571
727.45	0.569
727.64	0.578
727.82	0.585
728.01	0.589
728.19	0.587
728.37	0.592
728.56	0.595
728.74	0.602
728.92	0.591
729.11	0.592
729.29	0.590
729.48	0.592
729.66	0.582
729.84	0.582
730.03	0.585
730.21	0.586
730.40	0.577
730.58	0.578
730.76	0.576
730.95	0.579
731.13	0.579
731.31	0.592
731.50	0.600
731.68	0.604
731.86	0.600
732.05	0.613
732.23	0.617
732.42	0.621
732.60	0.626
732.78	0.631
732.97	0.648
733.15	0.654
733.33	0.643
733.52	0.650
733.70	0.660
733.88	0.669
734.07	0.657
734.25	0.681
734.43	0.687
734.62	0.690
734.80	0.686
734.98	0.678
735.17	0.684
735.35	0.690
735.53	0.679
735.72	0.681
735.90	0.699
736.08	0.718
736.27	0.697
736.45	0.706
736.63	0.715
736.82	0.724
737.00	0.725
737.18	0.736
737.37	0.762
737.55	0.787
737.73	0.782
737.92	0.783
738.10	0.779
738.28	0.797
738.46	0.788
738.65	0.801
738.83	0.820
739.01	0.871
739.20	0.863
739.38	0.844
739.56	0.832
739.75	0.836
739.93	0.808
740.11	0.830
740.29	0.826
740.48	0.831
740.66	0.812
740.84	0.807
741.03	0.770
741.21	0.779
741.39	0.765
741.57	0.776
741.76	0.789
741.94	0.795
742.12	0.763
742.31	0.771
742.49	0.785
742.67	0.808
742.85	0.821
743.04	0.828
743.22	0.838
743.40	0.887
743.58	0.878
743.77	0.895
743.95	0.925
744.13	0.975
744.31	0.960
744.50	0.955
744.68	0.949
744.86	0.925
745.04	0.937
745.23	0.993
745.41	0.973
745.59	0.975
745.77	0.950
745.96	0.935
746.14	0.941
746.32	0.938
746.50	0.935
746.69	0.918
746.87	0.925
747.05	0.909
747.23	0.845
747.42	0.830
747.60	0.852
747.78	0.850
747.96	0.879
748.14	0.839
748.33	0.861
748.51	0.852
748.69	0.849
748.87	0.873
749.06	0.871
749.24	0.864
749.42	0.855
749.60	0.836
749.78	0.845
749.97	0.804
750.15	0.801
750.33	0.801
750.51	0.821
750.69	0.825
750.88	0.829
751.06	0.832
751.24	0.858
751.42	0.851
751.60	0.846
751.79	0.907
751.97	0.948
752.15	0.946
752.33	0.921
752.51	0.977
752.69	0.986
752.88	0.961
753.06	1.010
753.24	0.989
753.42	1.017
753.60	1.163
753.78	1.044
753.97	1.055
754.15	1.066
754.33	1.089
754.51	0.986
754.69	0.973
754.87	0.995
755.06	0.932
755.24	0.936
755.42	0.944
755.60	0.853
755.78	0.861
755.96	0.814
756.15	0.816
756.33	0.819
756.51	0.836
756.69	0.827
756.87	0.796
757.05	0.810
757.23	0.792
757.42	0.763
757.60	0.761
757.78	0.749
757.96	0.749
758.14	0.734
758.32	0.721
758.50	0.731
758.69	0.729
758.87	0.723
759.05	0.727
759.23	0.735
759.41	0.735
759.59	0.731
759.77	0.749
759.95	0.773
760.13	0.819
760.32	0.819
760.50	0.815
760.68	0.834
760.86	0.836
761.04	0.814
761.22	0.816
761.40	0.859
761.58	0.861
761.76	0.840
761.95	0.825
762.13	0.782
762.31	0.785
762.49	0.757
762.67	0.775
762.85	0.783
763.03	0.778
763.21	0.764
763.39	0.745
763.57	0.744
763.75	0.739
763.94	0.725
764.12	0.727
764.30	0.747
764.48	0.753
764.66	0.718
764.84	0.718
765.02	0.753
765.20	0.761
765.38	0.745
765.56	0.751
765.74	0.784
765.92	0.784
766.10	0.793
766.28	0.786
766.46	0.810
766.65	0.815
766.83	0.805
767.01	0.788
767.19	0.789
767.37	0.789
767.55	0.777
767.73	0.760
767.91	0.761
768.09	0.750
768.27	0.739
768.45	0.730
768.63	0.733
768.81	0.734
768.99	0.712
769.17	0.735
769.35	0.746
769.53	0.747
769.71	0.732
769.89	0.739
770.07	0.742
770.25	0.727
770.43	0.707
770.61	0.728
770.79	0.734
770.97	0.742
771.15	0.715
771.33	0.716
771.51	0.717
771.69	0.726
771.87	0.735
772.05	0.740
772.24	0.747
772.42	0.756
772.60	0.738
772.78	0.789
772.96	0.813
773.14	0.810
773.32	0.793
773.49	0.799
773.67	0.797
773.85	0.779
774.03	0.769
774.21	0.796
774.39	0.805
774.57	0.825
774.75	0.763
774.93	0.757
775.11	0.775
775.29	0.780
775.47	0.785
775.65	0.792
775.83	0.805
776.01	0.825
776.19	0.786
776.37	0.788
776.55	0.787
776.73	0.782
776.91	0.781
777.09	0.765
777.27	0.764
777.45	0.752
777.63	0.732
777.81	0.730
777.99	0.716
778.17	0.714
778.35	0.695
778.53	0.682
778.71	0.688
778.89	0.676
779.07	0.667
779.24	0.669
779.42	0.672
779.60	0.689
779.78	0.688
779.96	0.693
780.14	0.700
780.32	0.721
780.50	0.708
780.68	0.706
780.86	0.698
781.04	0.713
781.22	0.718
781.40	0.725
781.58	0.712
781.75	0.702
781.93	0.687
782.11	0.686
782.29	0.670
782.47	0.669
782.65	0.660
782.83	0.683
783.01	0.677
783.19	0.673
783.37	0.662
783.55	0.667
783.72	0.683
783.90	0.691
784.08	0.683
784.26	0.694
784.44	0.712
784.62	0.713
784.80	0.686
784.98	0.692
785.16	0.696
785.33	0.708
785.51	0.695
785.69	0.684
785.87	0.685
786.05	0.698
786.23	0.695
786.41	0.691
786.59	0.697
786.77	0.698
786.94	0.686
787.12	0.690
787.30	0.689
787.48	0.687
787.66	0.679
787.84	0.680
788.02	0.670
788.19	0.671
788.37	0.660
788.55	0.662
788.73	0.660
788.91	0.656
789.09	0.641
789.27	0.629
789.44	0.639
789.62	0.643
789.80	0.652
789.98	0.673
790.16	0.657
790.34	0.653
790.51	0.643
790.69	0.662
790.87	0.666
791.05	0.664
791.23	0.662
791.41	0.663
791.58	0.669
791.76	0.648
791.94	0.624
792.12	0.634
792.30	0.636
792.48	0.634
792.65	0.630
792.83	0.636
793.01	0.642
793.19	0.641
793.37	0.627
793.54	0.623
793.72	0.635
793.90	0.633
794.08	0.623
794.26	0.622
794.43	0.628
794.61	0.611
794.79	0.599
794.97	0.597
795.15	0.602
795.32	0.605
795.50	0.596
795.68	0.590
795.86	0.593
796.04	0.593
796.21	0.590
796.39	0.588
796.57	0.602
796.75	0.609
796.92	0.611
797.10	0.614
797.28	0.615
797.46	0.617
797.64	0.619
797.81	0.625
797.99	0.630
798.17	0.633
798.35	0.631
798.52	0.633
798.70	0.629
798.88	0.639
799.06	0.640
799.23	0.642
799.41	0.648
799.59	0.642
799.77	0.633
799.94	0.638
800.12	0.646
800.30	0.661
800.48	0.660
800.65	0.659
800.83	0.646
801.01	0.638
801.19	0.641
801.36	0.637
801.54	0.641
801.72	0.650
801.90	0.640
802.07	0.636
802.25	0.621
802.43	0.606
802.60	0.605
802.78	0.612
802.96	0.615
803.14	0.610
803.31	0.611
803.49	0.612
803.67	0.607
803.84	0.611
804.02	0.605
804.20	0.607
804.38	0.610
804.55	0.610
804.73	0.598
804.91	0.599
805.08	0.609
805.26	0.605
805.44	0.666
805.61	0.671
805.79	0.669
805.97	0.667
806.15	0.660
806.32	0.659
806.50	0.664
806.68	0.663
806.85	0.655
807.03	0.646
807.21	0.658
807.38	0.594
807.56	0.584
807.74	0.593
807.91	0.599
808.09	0.602
808.27	0.619
808.44	0.642
808.62	0.649
808.80	0.652
808.97	0.649
809.15	0.645
809.33	0.660
809.50	0.668
809.68	0.658
809.86	0.663
810.03	0.691
810.21	0.672
810.39	0.657
810.56	0.661
810.74	0.683
810.91	0.749
811.09	0.740
811.27	0.758
811.44	0.759
811.62	0.759
811.80	0.746
811.97	0.718
812.15	0.718
812.33	0.713
812.50	0.704
812.68	0.690
812.85	0.637
813.03	0.639
813.21	0.613
813.38	0.610
813.56	0.612
813.74	0.620
813.91	0.627
814.09	0.653
814.26	0.646
814.44	0.650
814.62	0.644
814.79	0.648
814.97	0.653
815.14	0.656
815.32	0.662
815.50	0.680
815.67	0.681
815.85	0.675
816.02	0.663
816.20	0.669
816.38	0.678
816.55	0.682
816.73	0.684
816.90	0.692
817.08	0.716
817.26	0.717
817.43	0.699
817.61	0.721
817.78	0.736
817.96	0.720
818.13	0.712
818.31	0.714
818.49	0.724
818.66	0.715
818.84	0.703
819.01	0.683
819.19	0.689
819.36	0.692
819.54	0.667
819.71	0.706
819.89	0.715
820.07	0.731
820.24	0.726
820.42	0.728
820.59	0.744
820.77	0.766
820.94	0.762
821.12	0.776
821.29	0.785
821.47	0.786
821.64	0.729
821.82	0.745
822.00	0.738
822.17	0.735
822.35	0.728
822.52	0.729
822.70	0.719
822.87	0.728
823.05	0.710
823.22	0.720
823.40	0.744
823.57	0.765
823.75	0.748
823.92	0.770
824.10	0.786
824.27	0.823
824.45	0.817
824.62	0.874
824.80	0.886
824.97	0.900
825.15	0.893
825.32	0.907
825.50	0.905
825.67	0.911
825.85	0.896
826.02	0.912
826.20	0.929
826.37	1.037
826.55	0.964
826.72	1.133
826.90	1.184
827.07	1.230
827.25	1.174
827.42	1.303
827.60	1.420
827.77	1.552
827.95	1.565
828.12	1.646
828.30	1.359
828.47	1.468
828.65	1.152
828.82	1.190
829.00	1.223
829.17	1.304
829.34	1.310
829.52	1.337
829.69	-0.000
829.87	-0.000
830.04	-0.000
830.22	-0.000
830.39	-0.000
830.57	-0.000
830.74	-0.000
830.92	-0.000
831.09	-0.000
831.26	-0.000
831.44	-0.000
831.61	-0.000
831.79	-0.000
831.96	-0.000
832.14	-0.000
832.31	-0.000
832.49	-0.000
832.66	-0.000
832.83	-0.000
833.01	-0.000
833.18	-0.000
833.36	-0.000
833.53	-0.000
833.70	-0.000
833.88	-0.000
834.05	-0.000
834.23	-0.000
834.40	-0.000
834.58	-0.000
834.75	-0.000
834.92	-0.000
835.10	-0.000
835.27	-0.000
835.45	-0.000
835.62	-0.000
835.79	-0.000
835.97	-0.000
836.14	-0.000
836.32	-0.000
836.49	-0.000
836.66	-0.000
836.84	-0.000
837.01	-0.000
837.18	-0.000
837.36	-0.000
837.53	-0.000
837.71	-0.000
837.88	-0.000
838.05	-0.000
838.23	-0.000
838.40	-0.000
838.58	-0.000
838.75	-0.000
838.92	-0.000
839.10	-0.000
839.27	-0.000
839.44	-0.000
839.62	-0.000
839.79	-0.000
839.96	-0.000
840.14	-0.000
840.31	-0.000
840.48	-0.000
840.66	-0.000
840.83	-0.000
841.01	-0.000
841.18	-0.000
841.35	-0.000
841.53	-0.000
841.70	-0.000
841.87	-0.000
842.05	-0.000
842.22	-0.000
842.39	-0.000
842.57	-0.000
842.74	-0.000
842.91	-0.000
843.09	-0.000
843.26	-0.000
843.43	-0.000
843.60	-0.000
843.78	-0.000
843.95	-0.000
844.12	-0.000
844.30	-0.000
844.47	-0.000
844.64	-0.000
844.82	-0.000
844.99	-0.000
845.16	-0.000
845.34	-0.000
845.51	-0.000
845.68	-0.000
845.85	-0.000
846.03	-0.000
846.20	-0.000
846.37	-0.000
846.55	-0.000
846.72	-0.000
846.89	-0.000
847.06	-0.000
847.24	-0.000
847.41	-0.000
847.58	-0.000
847.76	-0.000
847.93	-0.000
848.10	-0.000
848.27	-0.000
848.45	-0.000
848.62	-0.000
848.79	-0.000
848.97	-0.000
849.14	-0.000
849.31	-0.000
849.48	-0.000
849.66	-0.000
849.83	-0.000
850.00	-0.000
850.17	-0.000
850.35	-0.000
850.52	-0.000
850.69	-0.000
850.86	-0.000
851.04	-0.000
851.21	-0.000
851.38	-0.000
851.55	-0.000
851.72	-0.000
851.90	-0.000
852.07	-0.000
852.24	-0.000
852.41	-0.000
852.59	-0.000
852.76	-0.000
852.93	-0.000
853.10	-0.000
853.28	-0.000
853.45	-0.000
853.62	-0.000
853.79	-0.000
853.96	-0.000
854.14	-0.000
854.31	-0.000
854.48	-0.000
854.65	-0.000
854.82	-0.000
855.00	-0.000
855.17	-0.000
855.34	-0.000
855.51	-0.000
855.68	-0.000
855.86	-0.000
856.03	-0.000
856.20	-0.000
856.37	-0.000
856.54	-0.000
856.72	-0.000
856.89	-0.000
857.06	-0.000
857.23	-0.000
857.40	-0.000
857.57	-0.000
857.75	-0.000
857.92	-0.000
858.09	-0.000
858.26	-0.000
858.43	-0.000
858.60	-0.000
858.78	-0.000
858.95	-0.000
859.12	-0.000
859.29	-0.000
859.46	-0.000
859.63	-0.000
859.81	-0.000
859.98	-0.000
860.15	-0.000
860.32	-0.000
860.49	-0.000
860.66	-0.000
860.83	-0.000
861.01	-0.000
861.18	-0.000
861.35	-0.000
861.52	-0.000
861.69	-0.000
861.86	-0.000
862.03	-0.000
862.21	-0.000
862.38	-0.000
862.55	-0.000
862.72	-0.000
862.89	-0.000
863.06	-0.000
863.23	-0.000
863.40	-0.000
863.58	-0.000
863.75	-0.000
863.92	-0.000
864.09	-0.000
864.26	-0.000
864.43	-0.000
864.60	-0.000
864.77	-0.000
864.94	-0.000
865.11	-0.000
865.29	-0.000
865.46	-0.000
865.63	-0.000
865.80	-0.000
865.97	-0.000
866.14	-0.000
866.31	-0.000
866.48	-0.000
866.65	-0.000
866.82	-0.000
866.99	-0.000
867.16	-0.000
867.34	-0.000
867.51	-0.000
867.68	-0.000
867.85	-0.000
868.02	-0.000
868.19	-0.000
868.36	-0.000
868.53	-0.000
868.70	-0.000
868.87	-0.000
869.04	-0.000
869.21	-0.000
869.38	-0.000
869.55	-0.000
869.72	-0.000
869.89	-0.000
870.06	-0.000
870.24	-0.000
870.41	-0.000
870.58	-0.000
870.75	-0.000
870.92	-0.000
871.09	-0.000
871.26	-0.000
871.43	-0.000
871.60	-0.000
871.77	-0.000
871.94	-0.000
872.11	-0.000
872.28	-0.000
872.45	-0.000
872.62	-0.000
872.79	-0.000
872.96	-0.000
873.13	-0.000
873.30	-0.000
873.47	-0.000
873.64	-0.000
873.81	-0.000
873.98	-0.000
874.15	-0.000
874.32	-0.000
874.49	-0.000
874.66	-0.000
874.83	-0.000
875.00	-0.000
875.17	-0.000
875.34	-0.000
875.51	-0.000
875.68	-0.000
875.85	-0.000
876.02	-0.000
876.19	-0.000
876.36	-0.000
876.53	-0.000
876.70	-0.000
876.87	-0.000
877.04	-0.000
877.21	-0.000
877.38	-0.000
877.55	-0.000
877.72	-0.000
877.89	-0.000
878.06	-0.000
878.23	-0.000
878.39	-0.000
878.56	-0.000
878.73	-0.000
878.90	-0.000
879.07	-0.000
879.24	-0.000
879.41	-0.000
879.58	-0.000
879.75	-0.000
879.92	-0.000
880.09	-0.000
880.26	-0.000
880.43	-0.000
880.60	-0.000
880.77	-0.000
880.94	-0.000
881.11	-0.000
881.27	-0.000
881.44	-0.000
881.61	-0.000
881.78	-0.000
881.95	-0.000
882.12	-0.000
882.29	-0.000
882.46	-0.000
882.63	-0.000
882.80	-0.000
882.97	-0.000
883.14	-0.000
883.30	-0.000
883.47	-0.000
883.64	-0.000
883.81	-0.000
883.98	-0.000
884.15	-0.000
884.32	-0.000
884.49	-0.000
884.66	-0.000
884.82	-0.000
884.99	-0.000
885.16	-0.000
885.33	-0.000
885.50	-0.000
885.67	-0.000
885.84	-0.000
886.01	-0.000
886.17	-0.000
886.34	-0.000
886.51	-0.000
886.68	-0.000
886.85	-0.000
887.02	-0.000
887.19	-0.000
887.36	-0.000
887.52	-0.000
887.69	-0.000
887.86	-0.000
888.03	-0.000
888.20	-0.000
888.37	-0.000
888.54	-0.000
888.70	-0.000
888.87	-0.000
889.04	-0.000
889.21	-0.000
889.38	-0.000
889.55	-0.000
889.71	-0.000
889.88	-0.000
890.05	-0.000
890.22	-0.000
890.39	-0.000
>>>>>End Processed Spectral Data<<<<<
