SpectraSuite Data File
++++++++++++++++++++++++++++++++++++
Date: Fri Jun 19 13:21:18 CEST 2015
User: introlabs
Dark Spectrum Present: Yes
Reference Spectrum Present: Yes
Number of Sampled Component Spectra: 1
Spectrometers: USB4H08886
Integration Time (usec): 745692 (USB4H08886)
Spectra Averaged: 5 (USB4H08886)
Boxcar Smoothing: 5 (USB4H08886)
Correct for Electrical Dark: Yes (USB4H08886)
Strobe/Lamp Enabled: No (USB4H08886)
Correct for Detector Non-linearity: Yes (USB4H08886)
Correct for Stray Light: Yes (USB4H08886)
Number of Pixels in Processed Spectrum: 3648
>>>>>Begin Processed Spectral Data<<<<<
178.14	-0.000
178.36	-0.000
178.57	-0.000
178.79	-0.000
179.01	-0.000
179.22	-0.000
179.44	-0.000
179.65	-0.000
179.87	-0.000
180.08	-0.000
180.30	-0.000
180.52	-0.000
180.73	-0.000
180.95	-0.000
181.16	-0.000
181.38	-0.000
181.59	-0.000
181.81	-0.000
182.03	-0.000
182.24	-0.000
182.46	-0.000
182.67	-0.000
182.89	-0.000
183.10	-0.000
183.32	-0.000
183.54	-0.000
183.75	-0.000
183.97	-0.000
184.18	-0.000
184.40	-0.000
184.61	-0.000
184.83	-0.000
185.04	-0.000
185.26	-0.000
185.48	-0.000
185.69	-0.000
185.91	-0.000
186.12	-0.000
186.34	-0.000
186.55	-0.000
186.77	-0.000
186.98	-0.000
187.20	-0.000
187.42	-0.000
187.63	-0.000
187.85	-0.000
188.06	-0.000
188.28	-0.000
188.49	-0.000
188.71	-0.000
188.92	-0.000
189.14	-0.000
189.36	-0.000
189.57	-0.000
189.79	-0.000
190.00	-0.000
190.22	-0.000
190.43	-0.000
190.65	-0.000
190.86	-0.000
191.08	-0.000
191.29	-0.000
191.51	-0.000
191.72	-0.000
191.94	-0.000
192.16	-0.000
192.37	-0.000
192.59	-0.000
192.80	-0.000
193.02	-0.000
193.23	-0.000
193.45	-0.000
193.66	-0.000
193.88	-0.000
194.09	-0.000
194.31	-0.000
194.52	-0.000
194.74	-0.000
194.95	-0.000
195.17	-0.000
195.38	-0.000
195.60	-0.000
195.81	-0.000
196.03	-0.000
196.25	-0.000
196.46	-0.000
196.68	-0.000
196.89	-0.000
197.11	-0.000
197.32	-0.000
197.54	-0.000
197.75	-0.000
197.97	-0.000
198.18	-0.000
198.40	-0.000
198.61	-0.000
198.83	-0.000
199.04	-0.000
199.26	-0.000
199.47	-0.000
199.69	-0.000
199.90	-0.000
200.12	-0.000
200.33	-0.000
200.55	-0.000
200.76	-0.000
200.98	-0.000
201.19	-0.000
201.41	-0.000
201.62	-0.000
201.84	-0.000
202.05	-0.000
202.27	-0.000
202.48	-0.000
202.70	-0.000
202.91	-0.000
203.13	-0.000
203.34	-0.000
203.56	-0.000
203.77	-0.000
203.99	-0.000
204.20	-0.000
204.42	-0.000
204.63	-0.000
204.85	-0.000
205.06	-0.000
205.28	-0.000
205.49	-0.000
205.71	-0.000
205.92	-0.000
206.14	-0.000
206.35	-0.000
206.56	-0.000
206.78	-0.000
206.99	-0.000
207.21	-0.000
207.42	-0.000
207.64	-0.000
207.85	-0.000
208.07	-0.000
208.28	-0.000
208.50	-0.000
208.71	-0.000
208.93	-0.000
209.14	-0.000
209.36	-0.000
209.57	-0.000
209.79	-0.000
210.00	-0.000
210.22	-0.000
210.43	-0.000
210.64	-0.000
210.86	-0.000
211.07	-0.000
211.29	-0.000
211.50	-0.000
211.72	-0.000
211.93	-0.000
212.15	-0.000
212.36	-0.000
212.58	-0.000
212.79	-0.000
213.01	-0.000
213.22	-0.000
213.43	-0.000
213.65	-0.000
213.86	-0.000
214.08	-0.000
214.29	-0.000
214.51	-0.000
214.72	-0.000
214.94	-0.000
215.15	-0.000
215.36	-0.000
215.58	-0.000
215.79	-0.000
216.01	-0.000
216.22	-0.000
216.44	-0.000
216.65	-0.000
216.87	-0.000
217.08	-0.000
217.29	-0.000
217.51	-0.000
217.72	-0.000
217.94	-0.000
218.15	-0.000
218.37	-0.000
218.58	-0.000
218.80	-0.000
219.01	-0.000
219.22	-0.000
219.44	-0.000
219.65	-0.000
219.87	-0.000
220.08	-0.000
220.30	-0.000
220.51	-0.000
220.72	-0.000
220.94	-0.000
221.15	-0.000
221.37	-0.000
221.58	-0.000
221.79	-0.000
222.01	-0.000
222.22	-0.000
222.44	-0.000
222.65	-0.000
222.87	-0.000
223.08	-0.000
223.29	-0.000
223.51	-0.000
223.72	-0.000
223.94	-0.000
224.15	-0.000
224.36	-0.000
224.58	-0.000
224.79	-0.000
225.01	-0.000
225.22	-0.000
225.44	-0.000
225.65	-0.000
225.86	-0.000
226.08	-0.000
226.29	-0.000
226.51	-0.000
226.72	-0.000
226.93	-0.000
227.15	-0.000
227.36	-0.000
227.58	-0.000
227.79	-0.000
228.00	-0.000
228.22	-0.000
228.43	-0.000
228.65	-0.000
228.86	-0.000
229.07	-0.000
229.29	-0.000
229.50	-0.000
229.72	-0.000
229.93	-0.000
230.14	-0.000
230.36	-0.000
230.57	-0.000
230.78	-0.000
231.00	-0.000
231.21	-0.000
231.43	-0.000
231.64	-0.000
231.85	-0.000
232.07	-0.000
232.28	-0.000
232.50	-0.000
232.71	-0.000
232.92	-0.000
233.14	-0.000
233.35	-0.000
233.56	-0.000
233.78	-0.000
233.99	-0.000
234.21	-0.000
234.42	-0.000
234.63	-0.000
234.85	-0.000
235.06	-0.000
235.27	-0.000
235.49	-0.000
235.70	-0.000
235.91	-0.000
236.13	-0.000
236.34	-0.000
236.56	-0.000
236.77	-0.000
236.98	-0.000
237.20	-0.000
237.41	-0.000
237.62	-0.000
237.84	-0.000
238.05	-0.000
238.26	-0.000
238.48	-0.000
238.69	-0.000
238.91	-0.000
239.12	-0.000
239.33	-0.000
239.55	-0.000
239.76	-0.000
239.97	-0.000
240.19	-0.000
240.40	-0.000
240.61	-0.000
240.83	-0.000
241.04	-0.000
241.25	-0.000
241.47	-0.000
241.68	-0.000
241.89	-0.000
242.11	-0.000
242.32	-0.000
242.53	-0.000
242.75	-0.000
242.96	-0.000
243.17	-0.000
243.39	-0.000
243.60	-0.000
243.81	-0.000
244.03	-0.000
244.24	-0.000
244.45	-0.000
244.67	-0.000
244.88	-0.000
245.09	-0.000
245.31	-0.000
245.52	-0.000
245.73	-0.000
245.95	-0.000
246.16	-0.000
246.37	-0.000
246.59	-0.000
246.80	-0.000
247.01	-0.000
247.23	-0.000
247.44	-0.000
247.65	-0.000
247.87	-0.000
248.08	-0.000
248.29	-0.000
248.51	-0.000
248.72	-0.000
248.93	-0.000
249.15	-0.000
249.36	-0.000
249.57	-0.000
249.78	-0.000
250.00	-0.000
250.21	-0.000
250.42	-0.000
250.64	-0.000
250.85	-0.000
251.06	-0.000
251.28	-0.000
251.49	-0.000
251.70	-0.000
251.92	-0.000
252.13	-0.000
252.34	-0.000
252.55	-0.000
252.77	-0.000
252.98	-0.000
253.19	-0.000
253.41	-0.000
253.62	-0.000
253.83	-0.000
254.05	-0.000
254.26	-0.000
254.47	-0.000
254.68	-0.000
254.90	-0.000
255.11	-0.000
255.32	-0.000
255.54	-0.000
255.75	-0.000
255.96	-0.000
256.17	-0.000
256.39	-0.000
256.60	-0.000
256.81	-0.000
257.03	-0.000
257.24	-0.000
257.45	-0.000
257.66	-0.000
257.88	-0.000
258.09	-0.000
258.30	-0.000
258.51	-0.000
258.73	-0.000
258.94	-0.000
259.15	-0.000
259.37	-0.000
259.58	-0.000
259.79	-0.000
260.00	-0.000
260.22	-0.000
260.43	-0.000
260.64	-0.000
260.85	-0.000
261.07	-0.000
261.28	-0.000
261.49	-0.000
261.71	-0.000
261.92	-0.000
262.13	-0.000
262.34	-0.000
262.56	-0.000
262.77	-0.000
262.98	-0.000
263.19	-0.000
263.41	-0.000
263.62	-0.000
263.83	-0.000
264.04	-0.000
264.26	-0.000
264.47	-0.000
264.68	-0.000
264.89	-0.000
265.11	-0.000
265.32	-0.000
265.53	-0.000
265.74	-0.000
265.96	-0.000
266.17	-0.000
266.38	-0.000
266.59	-0.000
266.81	-0.000
267.02	-0.000
267.23	-0.000
267.44	-0.000
267.65	-0.000
267.87	-0.000
268.08	-0.000
268.29	-0.000
268.50	-0.000
268.72	-0.000
268.93	-0.000
269.14	-0.000
269.35	-0.000
269.57	-0.000
269.78	-0.000
269.99	-0.000
270.20	-0.000
270.41	-0.000
270.63	-0.000
270.84	-0.000
271.05	-0.000
271.26	-0.000
271.48	-0.000
271.69	-0.000
271.90	-0.000
272.11	-0.000
272.32	-0.000
272.54	-0.000
272.75	-0.000
272.96	-0.000
273.17	-0.000
273.39	-0.000
273.60	-0.000
273.81	-0.000
274.02	-0.000
274.23	-0.000
274.45	-0.000
274.66	-0.000
274.87	-0.000
275.08	-0.000
275.29	-0.000
275.51	-0.000
275.72	-0.000
275.93	-0.000
276.14	-0.000
276.35	-0.000
276.57	-0.000
276.78	-0.000
276.99	-0.000
277.20	-0.000
277.41	-0.000
277.63	-0.000
277.84	-0.000
278.05	-0.000
278.26	-0.000
278.47	-0.000
278.69	-0.000
278.90	-0.000
279.11	-0.000
279.32	-0.000
279.53	-0.000
279.74	-0.000
279.96	-0.000
280.17	-0.000
280.38	-0.000
280.59	-0.000
280.80	-0.000
281.02	-0.000
281.23	-0.000
281.44	-0.000
281.65	-0.000
281.86	-0.000
282.07	-0.000
282.29	-0.000
282.50	-0.000
282.71	-0.000
282.92	-0.000
283.13	-0.000
283.35	-0.000
283.56	-0.000
283.77	-0.000
283.98	-0.000
284.19	-0.000
284.40	-0.000
284.62	-0.000
284.83	-0.000
285.04	-0.000
285.25	-0.000
285.46	-0.000
285.67	-0.000
285.88	-0.000
286.10	-0.000
286.31	-0.000
286.52	-0.000
286.73	-0.000
286.94	-0.000
287.15	-0.000
287.37	-0.000
287.58	-0.000
287.79	-0.000
288.00	-0.000
288.21	-0.000
288.42	-0.000
288.63	-0.000
288.85	-0.000
289.06	-0.000
289.27	-0.000
289.48	-0.000
289.69	-0.000
289.90	-0.000
290.11	-0.000
290.33	-0.000
290.54	-0.000
290.75	-0.000
290.96	-0.000
291.17	-0.000
291.38	-0.000
291.59	-0.000
291.81	-0.000
292.02	-0.000
292.23	-0.000
292.44	-0.000
292.65	-0.000
292.86	-0.000
293.07	-0.000
293.28	-0.000
293.50	-0.000
293.71	-0.000
293.92	-0.000
294.13	-0.000
294.34	-0.000
294.55	-0.000
294.76	-0.000
294.97	-0.000
295.19	-0.000
295.40	-0.000
295.61	-0.000
295.82	-0.000
296.03	-0.000
296.24	-0.000
296.45	-0.000
296.66	-0.000
296.87	-0.000
297.09	-0.000
297.30	-0.000
297.51	2.562
297.72	2.294
297.93	2.969
298.14	2.547
298.35	2.284
298.56	2.221
298.77	-0.000
298.99	3.095
299.20	2.632
299.41	2.402
299.62	2.246
299.83	2.194
300.04	2.017
300.25	1.993
300.46	2.123
300.67	2.045
300.88	1.866
301.10	1.844
301.31	2.032
301.52	1.889
301.73	1.774
301.94	1.772
302.15	1.812
302.36	1.718
302.57	1.613
302.78	1.622
302.99	1.702
303.20	1.744
303.41	1.586
303.63	1.550
303.84	1.563
304.05	1.554
304.26	1.460
304.47	1.475
304.68	1.479
304.89	1.465
305.10	1.405
305.31	1.380
305.52	1.433
305.73	1.423
305.94	1.367
306.15	1.355
306.37	1.386
306.58	1.396
306.79	1.348
307.00	1.375
307.21	1.423
307.42	1.414
307.63	1.371
307.84	1.333
308.05	1.381
308.26	1.382
308.47	1.352
308.68	1.343
308.89	1.348
309.10	1.344
309.31	1.295
309.52	1.284
309.73	1.306
309.95	1.295
310.16	1.259
310.37	1.247
310.58	1.269
310.79	1.265
311.00	1.259
311.21	1.260
311.42	1.266
311.63	1.259
311.84	1.237
312.05	1.231
312.26	1.260
312.47	1.272
312.68	1.239
312.89	1.220
313.10	1.228
313.31	1.197
313.52	1.196
313.73	1.194
313.94	1.198
314.15	1.178
314.36	1.156
314.57	1.148
314.78	1.132
314.99	1.126
315.21	1.110
315.42	1.116
315.63	1.132
315.84	1.106
316.05	1.090
316.26	1.099
316.47	1.120
316.68	1.114
316.89	1.090
317.10	1.115
317.31	1.123
317.52	1.123
317.73	1.098
317.94	1.096
318.15	1.144
318.36	1.143
318.57	1.120
318.78	1.105
318.99	1.144
319.20	1.142
319.41	1.104
319.62	1.103
319.83	1.119
320.04	1.115
320.25	1.100
320.46	1.064
320.67	1.066
320.88	1.061
321.09	1.045
321.30	1.029
321.51	1.045
321.72	1.044
321.93	1.027
322.14	1.019
322.35	1.047
322.56	1.049
322.77	1.034
322.98	1.046
323.19	1.056
323.40	1.064
323.61	1.040
323.82	1.035
324.03	1.041
324.24	1.038
324.45	1.022
324.66	1.001
324.87	0.998
325.08	1.000
325.29	0.979
325.50	0.972
325.71	0.978
325.92	0.986
326.13	0.969
326.34	0.969
326.55	0.978
326.76	0.978
326.97	0.967
327.18	0.959
327.39	0.984
327.60	0.987
327.80	0.985
328.01	0.983
328.22	0.984
328.43	0.989
328.64	0.976
328.85	0.980
329.06	0.982
329.27	0.981
329.48	0.977
329.69	0.958
329.90	0.968
330.11	0.961
330.32	0.953
330.53	0.944
330.74	0.945
330.95	0.942
331.16	0.926
331.37	0.936
331.58	0.936
331.79	0.935
332.00	0.926
332.21	0.919
332.42	0.924
332.63	0.914
332.83	0.910
333.04	0.913
333.25	0.928
333.46	0.926
333.67	0.909
333.88	0.912
334.09	0.922
334.30	0.918
334.51	0.908
334.72	0.902
334.93	0.906
335.14	0.904
335.35	0.895
335.56	0.889
335.77	0.899
335.98	0.897
336.18	0.890
336.39	0.883
336.60	0.889
336.81	0.887
337.02	0.887
337.23	0.891
337.44	0.896
337.65	0.896
337.86	0.885
338.07	0.879
338.28	0.885
338.49	0.883
338.70	0.875
338.91	0.881
339.11	0.888
339.32	0.884
339.53	0.872
339.74	0.869
339.95	0.866
340.16	0.865
340.37	0.857
340.58	0.855
340.79	0.859
341.00	0.858
341.21	0.846
341.41	0.847
341.62	0.849
341.83	0.851
342.04	0.846
342.25	0.856
342.46	0.861
342.67	0.859
342.88	0.852
343.09	0.851
343.30	0.859
343.50	0.863
343.71	0.852
343.92	0.851
344.13	0.855
344.34	0.855
344.55	0.839
344.76	0.839
344.97	0.843
345.18	0.843
345.38	0.839
345.59	0.833
345.80	0.833
346.01	0.831
346.22	0.826
346.43	0.818
346.64	0.827
346.85	0.826
347.06	0.819
347.26	0.820
347.47	0.823
347.68	0.818
347.89	0.815
348.10	0.809
348.31	0.816
348.52	0.816
348.73	0.815
348.93	0.811
349.14	0.813
349.35	0.813
349.56	0.806
349.77	0.801
349.98	0.808
350.19	0.805
350.39	0.800
350.60	0.797
350.81	0.812
351.02	0.811
351.23	0.805
351.44	0.808
351.65	0.811
351.86	0.809
352.06	0.807
352.27	0.806
352.48	0.809
352.69	0.807
352.90	0.802
353.11	0.788
353.31	0.796
353.52	0.794
353.73	0.785
353.94	0.786
354.15	0.791
354.36	0.791
354.57	0.782
354.77	0.784
354.98	0.785
355.19	0.783
355.40	0.782
355.61	0.788
355.82	0.792
356.02	0.792
356.23	0.785
356.44	0.786
356.65	0.790
356.86	0.791
357.07	0.784
357.27	0.787
357.48	0.790
357.69	0.786
357.90	0.769
358.11	0.766
358.32	0.769
358.52	0.772
358.73	0.763
358.94	0.765
359.15	0.770
359.36	0.771
359.56	0.766
359.77	0.763
359.98	0.770
360.19	0.770
360.40	0.767
360.61	0.768
360.81	0.767
361.02	0.768
361.23	0.759
361.44	0.757
361.65	0.757
361.85	0.757
362.06	0.755
362.27	0.757
362.48	0.757
362.69	0.759
362.89	0.752
363.10	0.754
363.31	0.758
363.52	0.761
363.73	0.757
363.93	0.757
364.14	0.758
364.35	0.761
364.56	0.750
364.77	0.751
364.97	0.754
365.18	0.755
365.39	0.749
365.60	0.746
365.81	0.747
366.01	0.748
366.22	0.744
366.43	0.744
366.64	0.746
366.84	0.752
367.05	0.749
367.26	0.748
367.47	0.750
367.68	0.750
367.88	0.747
368.09	0.746
368.30	0.749
368.51	0.748
368.71	0.746
368.92	0.750
369.13	0.748
369.34	0.748
369.55	0.746
369.75	0.747
369.96	0.754
370.17	0.753
370.38	0.749
370.58	0.748
370.79	0.754
371.00	0.752
371.21	0.743
371.41	0.749
371.62	0.753
371.83	0.749
372.04	0.746
372.24	0.739
372.45	0.741
372.66	0.741
372.87	0.737
373.07	0.733
373.28	0.735
373.49	0.738
373.70	0.729
373.90	0.727
374.11	0.737
374.32	0.736
374.53	0.735
374.73	0.735
374.94	0.738
375.15	0.738
375.36	0.736
375.56	0.744
375.77	0.743
375.98	0.744
376.19	0.742
376.39	0.735
376.60	0.738
376.81	0.739
377.02	0.736
377.22	0.735
377.43	0.735
377.64	0.735
377.84	0.725
378.05	0.731
378.26	0.736
378.47	0.734
378.67	0.730
378.88	0.728
379.09	0.728
379.30	0.728
379.50	0.725
379.71	0.728
379.92	0.730
380.12	0.729
380.33	0.720
380.54	0.716
380.75	0.725
380.95	0.726
381.16	0.724
381.37	0.724
381.57	0.726
381.78	0.727
381.99	0.726
382.20	0.726
382.40	0.730
382.61	0.730
382.82	0.727
383.02	0.719
383.23	0.722
383.44	0.722
383.64	0.720
383.85	0.723
384.06	0.725
384.27	0.723
384.47	0.721
384.68	0.721
384.89	0.727
385.09	0.726
385.30	0.725
385.51	0.724
385.71	0.727
385.92	0.728
386.13	0.726
386.33	0.728
386.54	0.728
386.75	0.728
386.95	0.723
387.16	0.718
387.37	0.720
387.58	0.720
387.78	0.718
387.99	0.715
388.20	0.717
388.40	0.715
388.61	0.710
388.82	0.713
389.02	0.715
389.23	0.716
389.44	0.714
389.64	0.715
389.85	0.727
390.06	0.727
390.26	0.727
390.47	0.726
390.68	0.728
390.88	0.726
391.09	0.722
391.30	0.722
391.50	0.721
391.71	0.720
391.92	0.717
392.12	0.708
392.33	0.709
392.53	0.708
392.74	0.707
392.95	0.707
393.15	0.710
393.36	0.712
393.57	0.710
393.77	0.714
393.98	0.716
394.19	0.716
394.39	0.715
394.60	0.717
394.81	0.719
395.01	0.718
395.22	0.715
395.43	0.716
395.63	0.720
395.84	0.720
396.04	0.716
396.25	0.718
396.46	0.719
396.66	0.717
396.87	0.714
397.08	0.710
397.28	0.712
397.49	0.713
397.69	0.709
397.90	0.704
398.11	0.706
398.31	0.707
398.52	0.702
398.73	0.703
398.93	0.703
399.14	0.702
399.34	0.701
399.55	0.702
399.76	0.702
399.96	0.703
400.17	0.701
400.37	0.699
400.58	0.706
400.79	0.707
400.99	0.705
401.20	0.711
401.41	0.714
401.61	0.715
401.82	0.719
402.02	0.719
402.23	0.720
402.44	0.720
402.64	0.720
402.85	0.714
403.05	0.713
403.26	0.712
403.47	0.705
403.67	0.704
403.88	0.705
404.08	0.699
404.29	0.697
404.50	0.697
404.70	0.697
404.91	0.696
405.11	0.693
405.32	0.694
405.52	0.694
405.73	0.694
405.94	0.692
406.14	0.694
406.35	0.696
406.55	0.696
406.76	0.693
406.97	0.694
407.17	0.697
407.38	0.697
407.58	0.695
407.79	0.697
407.99	0.699
408.20	0.700
408.41	0.695
408.61	0.693
408.82	0.694
409.02	0.694
409.23	0.692
409.43	0.690
409.64	0.691
409.84	0.691
410.05	0.688
410.26	0.686
410.46	0.686
410.67	0.686
410.87	0.687
411.08	0.689
411.28	0.691
411.49	0.692
411.69	0.690
411.90	0.691
412.11	0.693
412.31	0.694
412.52	0.691
412.72	0.693
412.93	0.694
413.13	0.693
413.34	0.689
413.54	0.690
413.75	0.692
413.95	0.691
414.16	0.688
414.37	0.691
414.57	0.691
414.78	0.694
414.98	0.691
415.19	0.692
415.39	0.690
415.60	0.691
415.80	0.691
416.01	0.689
416.21	0.691
416.42	0.691
416.62	0.687
416.83	0.687
417.03	0.686
417.24	0.687
417.44	0.685
417.65	0.684
417.86	0.685
418.06	0.683
418.27	0.681
418.47	0.683
418.68	0.683
418.88	0.684
419.09	0.681
419.29	0.682
419.50	0.682
419.70	0.682
419.91	0.680
420.11	0.678
420.32	0.680
420.52	0.680
420.73	0.679
420.93	0.680
421.14	0.681
421.34	0.680
421.55	0.677
421.75	0.677
421.96	0.679
422.16	0.679
422.37	0.678
422.57	0.675
422.78	0.677
422.98	0.674
423.19	0.672
423.39	0.670
423.60	0.674
423.80	0.675
424.01	0.674
424.21	0.675
424.42	0.677
424.62	0.677
424.83	0.676
425.03	0.676
425.23	0.678
425.44	0.678
425.64	0.678
425.85	0.677
426.05	0.678
426.26	0.679
426.46	0.676
426.67	0.675
426.87	0.680
427.08	0.681
427.28	0.678
427.49	0.680
427.69	0.681
427.90	0.680
428.10	0.676
428.31	0.675
428.51	0.677
428.71	0.677
428.92	0.678
429.12	0.675
429.33	0.676
429.53	0.679
429.74	0.683
429.94	0.682
430.15	0.683
430.35	0.683
430.56	0.680
430.76	0.679
430.96	0.680
431.17	0.677
431.37	0.675
431.58	0.673
431.78	0.670
431.99	0.664
432.19	0.666
432.40	0.668
432.60	0.669
432.80	0.671
433.01	0.669
433.21	0.669
433.42	0.671
433.62	0.672
433.83	0.671
434.03	0.674
434.23	0.676
434.44	0.676
434.64	0.673
434.85	0.679
435.05	0.680
435.26	0.680
435.46	0.679
435.66	0.679
435.87	0.679
436.07	0.678
436.28	0.674
436.48	0.671
436.69	0.671
436.89	0.671
437.09	0.664
437.30	0.663
437.50	0.663
437.71	0.675
437.91	0.674
438.11	0.675
438.32	0.680
438.52	0.681
438.73	0.680
438.93	0.678
439.13	0.679
439.34	0.682
439.54	0.680
439.75	0.679
439.95	0.669
440.15	0.673
440.36	0.672
440.56	0.670
440.77	0.671
440.97	0.671
441.17	0.670
441.38	0.672
441.58	0.670
441.79	0.669
441.99	0.668
442.19	0.667
442.40	0.665
442.60	0.665
442.81	0.662
443.01	0.663
443.21	0.663
443.42	0.663
443.62	0.661
443.82	0.660
444.03	0.662
444.23	0.663
444.44	0.663
444.64	0.662
444.84	0.663
445.05	0.662
445.25	0.660
445.45	0.661
445.66	0.664
445.86	0.663
446.06	0.664
446.27	0.664
446.47	0.666
446.68	0.664
446.88	0.663
447.08	0.662
447.29	0.665
447.49	0.665
447.69	0.665
447.90	0.663
448.10	0.667
448.30	0.664
448.51	0.665
448.71	0.663
448.91	0.666
449.12	0.664
449.32	0.666
449.52	0.665
449.73	0.669
449.93	0.668
450.14	0.668
450.34	0.668
450.54	0.671
450.75	0.668
450.95	0.666
451.15	0.666
451.36	0.668
451.56	0.665
451.76	0.664
451.97	0.661
452.17	0.661
452.37	0.660
452.58	0.656
452.78	0.656
452.98	0.658
453.19	0.658
453.39	0.659
453.59	0.657
453.79	0.659
454.00	0.659
454.20	0.658
454.40	0.659
454.61	0.662
454.81	0.663
455.01	0.661
455.22	0.661
455.42	0.664
455.62	0.661
455.83	0.661
456.03	0.664
456.23	0.665
456.44	0.666
456.64	0.665
456.84	0.664
457.04	0.665
457.25	0.664
457.45	0.661
457.65	0.659
457.86	0.660
458.06	0.659
458.26	0.654
458.47	0.654
458.67	0.655
458.87	0.656
459.07	0.654
459.28	0.656
459.48	0.658
459.68	0.658
459.89	0.658
460.09	0.657
460.29	0.658
460.49	0.660
460.70	0.659
460.90	0.658
461.10	0.659
461.31	0.659
461.51	0.656
461.71	0.657
461.91	0.659
462.12	0.659
462.32	0.657
462.52	0.659
462.72	0.662
462.93	0.662
463.13	0.660
463.33	0.661
463.53	0.663
463.74	0.662
463.94	0.658
464.14	0.658
464.35	0.659
464.55	0.659
464.75	0.656
464.95	0.654
465.16	0.656
465.36	0.655
465.56	0.654
465.76	0.653
465.97	0.653
466.17	0.655
466.37	0.653
466.57	0.654
466.78	0.655
466.98	0.655
467.18	0.653
467.38	0.651
467.59	0.653
467.79	0.654
467.99	0.653
468.19	0.655
468.39	0.658
468.60	0.658
468.80	0.656
469.00	0.658
469.20	0.659
469.41	0.659
469.61	0.658
469.81	0.659
470.01	0.659
470.22	0.659
470.42	0.658
470.62	0.655
470.82	0.657
471.02	0.656
471.23	0.654
471.43	0.654
471.63	0.657
471.83	0.656
472.04	0.654
472.24	0.652
472.44	0.658
472.64	0.657
472.84	0.655
473.05	0.655
473.25	0.658
473.45	0.657
473.65	0.655
473.85	0.656
474.06	0.657
474.26	0.658
474.46	0.659
474.66	0.655
474.86	0.657
475.07	0.657
475.27	0.655
475.47	0.652
475.67	0.653
475.87	0.655
476.08	0.652
476.28	0.653
476.48	0.654
476.68	0.653
476.88	0.650
477.09	0.651
477.29	0.653
477.49	0.653
477.69	0.652
477.89	0.652
478.09	0.652
478.30	0.654
478.50	0.650
478.70	0.650
478.90	0.650
479.10	0.653
479.31	0.654
479.51	0.653
479.71	0.654
479.91	0.654
480.11	0.653
480.31	0.653
480.52	0.651
480.72	0.652
480.92	0.651
481.12	0.650
481.32	0.647
481.52	0.645
481.72	0.645
481.93	0.648
482.13	0.649
482.33	0.649
482.53	0.646
482.73	0.647
482.93	0.648
483.14	0.647
483.34	0.646
483.54	0.647
483.74	0.647
483.94	0.646
484.14	0.641
484.34	0.641
484.55	0.641
484.75	0.641
484.95	0.639
485.15	0.639
485.35	0.640
485.55	0.639
485.75	0.637
485.96	0.638
486.16	0.639
486.36	0.639
486.56	0.638
486.76	0.637
486.96	0.638
487.16	0.637
487.36	0.635
487.57	0.635
487.77	0.636
487.97	0.636
488.17	0.634
488.37	0.633
488.57	0.633
488.77	0.634
488.97	0.633
489.18	0.632
489.38	0.635
489.58	0.636
489.78	0.635
489.98	0.634
490.18	0.634
490.38	0.635
490.58	0.634
490.78	0.635
490.98	0.636
491.19	0.636
491.39	0.635
491.59	0.634
491.79	0.637
491.99	0.637
492.19	0.636
492.39	0.640
492.59	0.640
492.79	0.641
492.99	0.641
493.20	0.642
493.40	0.642
493.60	0.644
493.80	0.642
494.00	0.640
494.20	0.641
494.40	0.641
494.60	0.638
494.80	0.643
495.00	0.643
495.20	0.641
495.40	0.640
495.61	0.642
495.81	0.642
496.01	0.646
496.21	0.647
496.41	0.646
496.61	0.647
496.81	0.646
497.01	0.641
497.21	0.640
497.41	0.640
497.61	0.640
497.81	0.637
498.01	0.637
498.21	0.635
498.41	0.633
498.61	0.633
498.82	0.634
499.02	0.636
499.22	0.637
499.42	0.636
499.62	0.637
499.82	0.639
500.02	0.640
500.22	0.638
500.42	0.641
500.62	0.641
500.82	0.642
501.02	0.640
501.22	0.640
501.42	0.640
501.62	0.642
501.82	0.641
502.02	0.641
502.22	0.641
502.42	0.642
502.62	0.639
502.82	0.639
503.02	0.640
503.22	0.639
503.42	0.637
503.63	0.637
503.83	0.635
504.03	0.634
504.23	0.633
504.43	0.634
504.63	0.634
504.83	0.635
505.03	0.634
505.23	0.636
505.43	0.638
505.63	0.638
505.83	0.638
506.03	0.640
506.23	0.642
506.43	0.642
506.63	0.641
506.83	0.640
507.03	0.642
507.23	0.642
507.43	0.639
507.63	0.640
507.83	0.641
508.03	0.641
508.23	0.640
508.43	0.638
508.63	0.640
508.83	0.640
509.03	0.641
509.23	0.639
509.43	0.641
509.63	0.641
509.83	0.639
510.03	0.642
510.23	0.644
510.43	0.644
510.63	0.644
510.83	0.645
511.03	0.646
511.23	0.644
511.43	0.643
511.63	0.645
511.83	0.647
512.03	0.648
512.22	0.644
512.42	0.643
512.62	0.644
512.82	0.644
513.02	0.643
513.22	0.643
513.42	0.645
513.62	0.648
513.82	0.646
514.02	0.645
514.22	0.646
514.42	0.646
514.62	0.646
514.82	0.647
515.02	0.650
515.22	0.653
515.42	0.651
515.62	0.654
515.82	0.653
516.02	0.654
516.22	0.654
516.42	0.655
516.62	0.658
516.82	0.659
517.01	0.657
517.21	0.656
517.41	0.659
517.61	0.661
517.81	0.656
518.01	0.656
518.21	0.656
518.41	0.654
518.61	0.653
518.81	0.654
519.01	0.654
519.21	0.654
519.41	0.653
519.61	0.648
519.81	0.650
520.00	0.650
520.20	0.650
520.40	0.653
520.60	0.654
520.80	0.654
521.00	0.654
521.20	0.655
521.40	0.661
521.60	0.661
521.80	0.661
522.00	0.661
522.20	0.664
522.39	0.664
522.59	0.660
522.79	0.662
522.99	0.663
523.19	0.661
523.39	0.659
523.59	0.656
523.79	0.659
523.99	0.662
524.19	0.660
524.38	0.659
524.58	0.661
524.78	0.661
524.98	0.659
525.18	0.661
525.38	0.662
525.58	0.662
525.78	0.660
525.98	0.658
526.18	0.658
526.37	0.658
526.57	0.659
526.77	0.659
526.97	0.660
527.17	0.661
527.37	0.657
527.57	0.660
527.77	0.662
527.96	0.662
528.16	0.661
528.36	0.662
528.56	0.664
528.76	0.661
528.96	0.661
529.16	0.662
529.36	0.665
529.55	0.664
529.75	0.661
529.95	0.661
530.15	0.663
530.35	0.665
530.55	0.663
530.75	0.664
530.94	0.665
531.14	0.665
531.34	0.664
531.54	0.662
531.74	0.665
531.94	0.669
532.13	0.667
532.33	0.668
532.53	0.667
532.73	0.666
532.93	0.664
533.13	0.665
533.33	0.666
533.52	0.665
533.72	0.668
533.92	0.666
534.12	0.664
534.32	0.664
534.52	0.663
534.71	0.664
534.91	0.668
535.11	0.670
535.31	0.668
535.51	0.670
535.71	0.672
535.90	0.669
536.10	0.670
536.30	0.672
536.50	0.673
536.70	0.673
536.89	0.670
537.09	0.668
537.29	0.670
537.49	0.671
537.69	0.668
537.89	0.670
538.08	0.669
538.28	0.667
538.48	0.667
538.68	0.669
538.88	0.671
539.07	0.672
539.27	0.671
539.47	0.670
539.67	0.670
539.87	0.671
540.06	0.669
540.26	0.670
540.46	0.672
540.66	0.670
540.86	0.667
541.05	0.667
541.25	0.669
541.45	0.669
541.65	0.667
541.84	0.669
542.04	0.670
542.24	0.671
542.44	0.669
542.64	0.670
542.83	0.674
543.03	0.673
543.23	0.671
543.43	0.671
543.62	0.673
543.82	0.674
544.02	0.672
544.22	0.673
544.42	0.676
544.61	0.677
544.81	0.673
545.01	0.672
545.21	0.674
545.40	0.675
545.60	0.673
545.80	0.676
546.00	0.676
546.19	0.676
546.39	0.674
546.59	0.671
546.79	0.674
546.98	0.674
547.18	0.673
547.38	0.674
547.58	0.677
547.77	0.677
547.97	0.673
548.17	0.675
548.37	0.675
548.56	0.675
548.76	0.675
548.96	0.677
549.16	0.680
549.35	0.679
549.55	0.677
549.75	0.677
549.95	0.681
550.14	0.681
550.34	0.679
550.54	0.684
550.73	0.688
550.93	0.689
551.13	0.685
551.33	0.683
551.52	0.684
551.72	0.684
551.92	0.682
552.12	0.682
552.31	0.683
552.51	0.683
552.71	0.678
552.90	0.678
553.10	0.680
553.30	0.680
553.50	0.680
553.69	0.681
553.89	0.682
554.09	0.682
554.28	0.679
554.48	0.681
554.68	0.682
554.87	0.682
555.07	0.679
555.27	0.678
555.47	0.680
555.66	0.680
555.86	0.678
556.06	0.680
556.25	0.682
556.45	0.690
556.65	0.687
556.84	0.691
557.04	0.694
557.24	0.695
557.43	0.695
557.63	0.697
557.83	0.700
558.02	0.700
558.22	0.704
558.42	0.704
558.61	0.697
558.81	0.698
559.01	0.694
559.21	0.694
559.40	0.696
559.60	0.695
559.80	0.691
559.99	0.692
560.19	0.695
560.39	0.689
560.58	0.686
560.78	0.687
560.97	0.691
561.17	0.689
561.37	0.686
561.56	0.687
561.76	0.689
561.96	0.690
562.15	0.687
562.35	0.689
562.55	0.691
562.74	0.691
562.94	0.690
563.14	0.687
563.33	0.689
563.53	0.689
563.73	0.686
563.92	0.688
564.12	0.691
564.31	0.692
564.51	0.690
564.71	0.691
564.90	0.694
565.10	0.695
565.30	0.697
565.49	0.698
565.69	0.700
565.89	0.700
566.08	0.697
566.28	0.699
566.47	0.701
566.67	0.699
566.87	0.696
567.06	0.698
567.26	0.705
567.46	0.700
567.65	0.699
567.85	0.701
568.04	0.705
568.24	0.704
568.44	0.700
568.63	0.698
568.83	0.699
569.02	0.698
569.22	0.693
569.42	0.689
569.61	0.692
569.81	0.690
570.00	0.688
570.20	0.689
570.40	0.691
570.59	0.690
570.79	0.688
570.98	0.686
571.18	0.687
571.38	0.687
571.57	0.683
571.77	0.681
571.96	0.684
572.16	0.681
572.35	0.676
572.55	0.677
572.75	0.675
572.94	0.675
573.14	0.673
573.33	0.674
573.53	0.675
573.73	0.674
573.92	0.672
574.12	0.670
574.31	0.673
574.51	0.674
574.70	0.671
574.90	0.672
575.09	0.675
575.29	0.675
575.49	0.672
575.68	0.673
575.88	0.674
576.07	0.675
576.27	0.673
576.46	0.672
576.66	0.671
576.86	0.670
577.05	0.668
577.25	0.666
577.44	0.668
577.64	0.668
577.83	0.665
578.03	0.667
578.22	0.666
578.42	0.666
578.61	0.664
578.81	0.665
579.00	0.666
579.20	0.665
579.40	0.664
579.59	0.663
579.79	0.664
579.98	0.664
580.18	0.663
580.37	0.664
580.57	0.665
580.76	0.670
580.96	0.668
581.15	0.669
581.35	0.671
581.54	0.671
581.74	0.670
581.93	0.671
582.13	0.672
582.32	0.670
582.52	0.668
582.71	0.667
582.91	0.663
583.10	0.663
583.30	0.662
583.49	0.661
583.69	0.665
583.88	0.666
584.08	0.665
584.27	0.667
584.47	0.670
584.66	0.671
584.86	0.669
585.05	0.672
585.25	0.674
585.44	0.674
585.64	0.672
585.83	0.669
586.03	0.670
586.22	0.669
586.42	0.665
586.61	0.667
586.81	0.669
587.00	0.669
587.20	0.666
587.39	0.668
587.59	0.670
587.78	0.671
587.98	0.672
588.17	0.673
588.37	0.675
588.56	0.677
588.76	0.672
588.95	0.672
589.15	0.676
589.34	0.679
589.54	0.677
589.73	0.678
589.92	0.681
590.12	0.681
590.31	0.678
590.51	0.683
590.70	0.685
590.90	0.685
591.09	0.683
591.29	0.682
591.48	0.682
591.68	0.683
591.87	0.681
592.06	0.680
592.26	0.682
592.45	0.682
592.65	0.676
592.84	0.676
593.04	0.678
593.23	0.680
593.43	0.677
593.62	0.677
593.81	0.678
594.01	0.677
594.20	0.675
594.40	0.674
594.59	0.676
594.79	0.677
594.98	0.675
595.17	0.674
595.37	0.676
595.56	0.677
595.76	0.676
595.95	0.678
596.14	0.681
596.34	0.683
596.53	0.681
596.73	0.682
596.92	0.684
597.12	0.686
597.31	0.686
597.50	0.686
597.70	0.688
597.89	0.687
598.09	0.683
598.28	0.684
598.47	0.685
598.67	0.684
598.86	0.680
599.06	0.682
599.25	0.683
599.44	0.681
599.64	0.678
599.83	0.676
600.03	0.680
600.22	0.681
600.41	0.680
600.61	0.679
600.80	0.682
601.00	0.683
601.19	0.679
601.38	0.677
601.58	0.680
601.77	0.681
601.96	0.683
602.16	0.682
602.35	0.691
602.55	0.689
602.74	0.689
602.93	0.690
603.13	0.695
603.32	0.697
603.51	0.696
603.71	0.699
603.90	0.701
604.09	0.701
604.29	0.698
604.48	0.693
604.68	0.694
604.87	0.693
605.06	0.688
605.26	0.685
605.45	0.686
605.64	0.685
605.84	0.680
606.03	0.679
606.22	0.678
606.42	0.678
606.61	0.674
606.80	0.674
607.00	0.676
607.19	0.677
607.38	0.676
607.58	0.677
607.77	0.680
607.96	0.680
608.16	0.678
608.35	0.683
608.54	0.687
608.74	0.690
608.93	0.695
609.12	0.698
609.32	0.701
609.51	0.704
609.70	0.702
609.90	0.704
610.09	0.710
610.28	0.715
610.48	0.708
610.67	0.709
610.86	0.710
611.06	0.705
611.25	0.702
611.44	0.702
611.64	0.702
611.83	0.705
612.02	0.701
612.21	0.699
612.41	0.698
612.60	0.697
612.79	0.692
612.99	0.692
613.18	0.694
613.37	0.692
613.57	0.689
613.76	0.691
613.95	0.688
614.14	0.689
614.34	0.686
614.53	0.688
614.72	0.691
614.92	0.691
615.11	0.688
615.30	0.686
615.49	0.688
615.69	0.691
615.88	0.687
616.07	0.689
616.26	0.691
616.46	0.692
616.65	0.688
616.84	0.686
617.04	0.689
617.23	0.692
617.42	0.691
617.61	0.695
617.81	0.696
618.00	0.698
618.19	0.696
618.38	0.700
618.58	0.704
618.77	0.705
618.96	0.705
619.15	0.707
619.35	0.709
619.54	0.711
619.73	0.705
619.92	0.707
620.12	0.712
620.31	0.711
620.50	0.706
620.69	0.707
620.89	0.711
621.08	0.710
621.27	0.710
621.46	0.709
621.66	0.713
621.85	0.713
622.04	0.709
622.23	0.710
622.43	0.711
622.62	0.711
622.81	0.709
623.00	0.708
623.19	0.712
623.39	0.711
623.58	0.707
623.77	0.706
623.96	0.709
624.16	0.709
624.35	0.704
624.54	0.707
624.73	0.711
624.92	0.709
625.12	0.707
625.31	0.708
625.50	0.711
625.69	0.712
625.88	0.708
626.08	0.707
626.27	0.708
626.46	0.709
626.65	0.705
626.84	0.706
627.04	0.711
627.23	0.711
627.42	0.706
627.61	0.708
627.80	0.712
628.00	0.713
628.19	0.711
628.38	0.715
628.57	0.718
628.76	0.718
628.96	0.714
629.15	0.714
629.34	0.718
629.53	0.718
629.72	0.712
629.91	0.713
630.11	0.717
630.30	0.717
630.49	0.719
630.68	0.719
630.87	0.724
631.06	0.725
631.26	0.720
631.45	0.722
631.64	0.731
631.83	0.733
632.02	0.730
632.21	0.730
632.41	0.737
632.60	0.732
632.79	0.730
632.98	0.730
633.17	0.732
633.36	0.734
633.55	0.731
633.75	0.727
633.94	0.729
634.13	0.728
634.32	0.725
634.51	0.719
634.70	0.721
634.89	0.721
635.09	0.716
635.28	0.717
635.47	0.718
635.66	0.720
635.85	0.715
636.04	0.716
636.23	0.722
636.43	0.723
636.62	0.722
636.81	0.721
637.00	0.723
637.19	0.727
637.38	0.723
637.57	0.723
637.76	0.725
637.95	0.726
638.15	0.722
638.34	0.719
638.53	0.722
638.72	0.724
638.91	0.722
639.10	0.720
639.29	0.721
639.48	0.722
639.67	0.721
639.87	0.721
640.06	0.728
640.25	0.727
640.44	0.728
640.63	0.728
640.82	0.731
641.01	0.731
641.20	0.728
641.39	0.730
641.58	0.734
641.78	0.732
641.97	0.726
642.16	0.740
642.35	0.741
642.54	0.740
642.73	0.735
642.92	0.733
643.11	0.737
643.30	0.738
643.49	0.732
643.68	0.734
643.87	0.736
644.06	0.736
644.25	0.715
644.45	0.718
644.64	0.719
644.83	0.719
645.02	0.715
645.21	0.714
645.40	0.716
645.59	0.717
645.78	0.711
645.97	0.713
646.16	0.715
646.35	0.714
646.54	0.711
646.73	0.714
646.92	0.717
647.11	0.716
647.30	0.711
647.49	0.713
647.68	0.713
647.88	0.711
648.07	0.704
648.26	0.708
648.45	0.710
648.64	0.707
648.83	0.703
649.02	0.705
649.21	0.716
649.40	0.715
649.59	0.709
649.78	0.710
649.97	0.725
650.16	0.725
650.35	0.718
650.54	0.721
650.73	0.729
650.92	0.726
651.11	0.719
651.30	0.716
651.49	0.722
651.68	0.723
651.87	0.719
652.06	0.708
652.25	0.712
652.44	0.715
652.63	0.711
652.82	0.710
653.01	0.710
653.20	0.708
653.39	0.696
653.58	0.693
653.77	0.692
653.96	0.686
654.15	0.678
654.34	0.675
654.53	0.671
654.72	0.665
654.91	0.656
655.10	0.651
655.29	0.649
655.48	0.647
655.67	0.641
655.86	0.639
656.05	0.638
656.24	0.638
656.43	0.633
656.62	0.632
656.81	0.633
657.00	0.631
657.19	0.629
657.38	0.629
657.57	0.629
657.76	0.632
657.95	0.631
658.14	0.634
658.33	0.637
658.51	0.643
658.70	0.643
658.89	0.644
659.08	0.654
659.27	0.661
659.46	0.660
659.65	0.667
659.84	0.670
660.03	0.674
660.22	0.674
660.41	0.678
660.60	0.677
660.79	0.678
660.98	0.684
661.17	0.683
661.36	0.683
661.55	0.685
661.74	0.682
661.92	0.685
662.11	0.687
662.30	0.685
662.49	0.679
662.68	0.678
662.87	0.681
663.06	0.675
663.25	0.675
663.44	0.675
663.63	0.677
663.82	0.675
664.01	0.669
664.20	0.668
664.38	0.670
664.57	0.670
664.76	0.669
664.95	0.670
665.14	0.675
665.33	0.670
665.52	0.677
665.71	0.681
665.90	0.680
666.09	0.682
666.28	0.680
666.46	0.678
666.65	0.680
666.84	0.679
667.03	0.672
667.22	0.670
667.41	0.674
667.60	0.664
667.79	0.657
667.98	0.658
668.16	0.660
668.35	0.659
668.54	0.655
668.73	0.656
668.92	0.656
669.11	0.655
669.30	0.650
669.49	0.646
669.67	0.648
669.86	0.650
670.05	0.647
670.24	0.645
670.43	0.643
670.62	0.642
670.81	0.637
671.00	0.638
671.18	0.638
671.37	0.637
671.56	0.635
671.75	0.634
671.94	0.631
672.13	0.629
672.32	0.624
672.50	0.623
672.69	0.623
672.88	0.624
673.07	0.619
673.26	0.621
673.45	0.623
673.63	0.623
673.82	0.619
674.01	0.621
674.20	0.621
674.39	0.620
674.58	0.619
674.76	0.620
674.95	0.619
675.14	0.619
675.33	0.614
675.52	0.612
675.71	0.612
675.89	0.612
676.08	0.607
676.27	0.607
676.46	0.608
676.65	0.608
676.84	0.606
677.02	0.608
677.21	0.611
677.40	0.609
677.59	0.607
677.78	0.608
677.96	0.611
678.15	0.610
678.34	0.607
678.53	0.608
678.72	0.608
678.90	0.606
679.09	0.601
679.28	0.598
679.47	0.598
679.66	0.598
679.84	0.594
680.03	0.592
680.22	0.591
680.41	0.593
680.60	0.588
680.78	0.588
680.97	0.590
681.16	0.590
681.35	0.588
681.53	0.587
681.72	0.588
681.91	0.591
682.10	0.589
682.29	0.591
682.47	0.589
682.66	0.589
682.85	0.587
683.04	0.585
683.22	0.585
683.41	0.587
683.60	0.586
683.79	0.587
683.97	0.585
684.16	0.584
684.35	0.580
684.54	0.581
684.72	0.582
684.91	0.582
685.10	0.581
685.29	0.582
685.47	0.579
685.66	0.578
685.85	0.574
686.04	0.574
686.22	0.576
686.41	0.580
686.60	0.576
686.79	0.579
686.97	0.580
687.16	0.581
687.35	0.578
687.54	0.581
687.72	0.586
687.91	0.585
688.10	0.586
688.29	0.587
688.47	0.585
688.66	0.584
688.85	0.580
689.03	0.578
689.22	0.583
689.41	0.584
689.60	0.579
689.78	0.576
689.97	0.577
690.16	0.575
690.34	0.571
690.53	0.571
690.72	0.571
690.91	0.569
691.09	0.567
691.28	0.561
691.47	0.559
691.65	0.558
691.84	0.555
692.03	0.554
692.21	0.552
692.40	0.552
692.59	0.549
692.77	0.548
692.96	0.549
693.15	0.551
693.34	0.548
693.52	0.548
693.71	0.549
693.90	0.551
694.08	0.551
694.27	0.552
694.46	0.562
694.64	0.563
694.83	0.563
695.02	0.562
695.20	0.561
695.39	0.561
695.58	0.561
695.76	0.561
695.95	0.561
696.14	0.560
696.32	0.557
696.51	0.548
696.70	0.548
696.88	0.549
697.07	0.546
697.26	0.548
697.44	0.550
697.63	0.548
697.81	0.546
698.00	0.545
698.19	0.545
698.37	0.545
698.56	0.544
698.75	0.544
698.93	0.544
699.12	0.544
699.31	0.543
699.49	0.542
699.68	0.543
699.87	0.546
700.05	0.545
700.24	0.544
700.42	0.546
700.61	0.545
700.80	0.543
700.98	0.544
701.17	0.545
701.36	0.544
701.54	0.543
701.73	0.544
701.91	0.542
702.10	0.542
702.29	0.539
702.47	0.539
702.66	0.541
702.84	0.542
703.03	0.540
703.22	0.542
703.40	0.541
703.59	0.542
703.77	0.542
703.96	0.542
704.15	0.544
704.33	0.543
704.52	0.543
704.70	0.542
704.89	0.542
705.08	0.540
705.26	0.536
705.45	0.537
705.63	0.536
705.82	0.533
706.00	0.531
706.19	0.530
706.38	0.530
706.56	0.529
706.75	0.527
706.93	0.526
707.12	0.528
707.30	0.527
707.49	0.525
707.68	0.523
707.86	0.522
708.05	0.522
708.23	0.519
708.42	0.520
708.60	0.522
708.79	0.522
708.98	0.521
709.16	0.520
709.35	0.523
709.53	0.526
709.72	0.525
709.90	0.527
710.09	0.530
710.27	0.532
710.46	0.535
710.64	0.533
710.83	0.535
711.02	0.537
711.20	0.535
711.39	0.534
711.57	0.532
711.76	0.533
711.94	0.530
712.13	0.531
712.31	0.532
712.50	0.527
712.68	0.524
712.87	0.526
713.05	0.525
713.24	0.527
713.42	0.526
713.61	0.526
713.79	0.527
713.98	0.527
714.16	0.527
714.35	0.527
714.54	0.528
714.72	0.528
714.91	0.526
715.09	0.532
715.28	0.535
715.46	0.534
715.65	0.531
715.83	0.531
716.02	0.533
716.20	0.529
716.39	0.528
716.57	0.530
716.76	0.532
716.94	0.532
717.12	0.525
717.31	0.526
717.49	0.529
717.68	0.532
717.86	0.531
718.05	0.532
718.23	0.535
718.42	0.538
718.60	0.539
718.79	0.547
718.97	0.550
719.16	0.550
719.34	0.547
719.53	0.547
719.71	0.547
719.90	0.549
720.08	0.546
720.27	0.547
720.45	0.547
720.63	0.546
720.82	0.539
721.00	0.542
721.19	0.546
721.37	0.546
721.56	0.546
721.74	0.549
721.93	0.557
722.11	0.565
722.30	0.564
722.48	0.568
722.66	0.570
722.85	0.570
723.03	0.571
723.22	0.569
723.40	0.573
723.59	0.573
723.77	0.577
723.95	0.570
724.14	0.570
724.32	0.572
724.51	0.570
724.69	0.572
724.88	0.572
725.06	0.569
725.24	0.571
725.43	0.572
725.61	0.575
725.80	0.569
725.98	0.567
726.16	0.564
726.35	0.571
726.53	0.570
726.72	0.569
726.90	0.579
727.09	0.580
727.27	0.585
727.45	0.581
727.64	0.591
727.82	0.599
728.01	0.605
728.19	0.602
728.37	0.606
728.56	0.610
728.74	0.617
728.92	0.604
729.11	0.607
729.29	0.606
729.48	0.609
729.66	0.597
729.84	0.598
730.03	0.601
730.21	0.604
730.40	0.594
730.58	0.595
730.76	0.596
730.95	0.599
731.13	0.599
731.31	0.613
731.50	0.623
731.68	0.628
731.86	0.623
732.05	0.638
732.23	0.642
732.42	0.646
732.60	0.649
732.78	0.655
732.97	0.675
733.15	0.680
733.33	0.668
733.52	0.674
733.70	0.685
733.88	0.695
734.07	0.680
734.25	0.708
734.43	0.716
734.62	0.719
734.80	0.713
734.98	0.702
735.17	0.712
735.35	0.719
735.53	0.707
735.72	0.712
735.90	0.735
736.08	0.754
736.27	0.728
736.45	0.739
736.63	0.753
736.82	0.763
737.00	0.762
737.18	0.772
737.37	0.805
737.55	0.831
737.73	0.823
737.92	0.828
738.10	0.825
738.28	0.849
738.46	0.837
738.65	0.852
738.83	0.877
739.01	0.936
739.20	0.927
739.38	0.907
739.56	0.900
739.75	0.907
739.93	0.867
740.11	0.896
740.29	0.896
740.48	0.903
740.66	0.879
740.84	0.876
741.03	0.839
741.21	0.851
741.39	0.835
741.57	0.849
741.76	0.868
741.94	0.874
742.12	0.834
742.31	0.841
742.49	0.868
742.67	0.895
742.85	0.906
743.04	0.912
743.22	0.918
743.40	0.980
743.58	0.953
743.77	0.973
743.95	1.017
744.13	1.080
744.31	1.050
744.50	1.036
744.68	1.035
744.86	1.008
745.04	1.018
745.23	1.100
745.41	1.080
745.59	1.092
745.77	1.052
745.96	1.036
746.14	1.046
746.32	1.050
746.50	1.038
746.69	1.017
746.87	1.040
747.05	1.029
747.23	0.941
747.42	0.921
747.60	0.953
747.78	0.957
747.96	0.993
748.14	0.942
748.33	0.977
748.51	0.969
748.69	0.957
748.87	0.985
749.06	0.984
749.24	0.985
749.42	0.968
749.60	0.945
749.78	0.955
749.97	0.901
750.15	0.890
750.33	0.889
750.51	0.919
750.69	0.929
750.88	0.929
751.06	0.940
751.24	0.972
751.42	0.960
751.60	0.951
751.79	1.033
751.97	1.097
752.15	1.097
752.33	1.055
752.51	1.138
752.69	1.164
752.88	1.121
753.06	1.171
753.24	1.133
753.42	1.179
753.60	1.425
753.78	1.216
753.97	1.234
754.15	1.270
754.33	1.317
754.51	1.148
754.69	1.126
754.87	1.171
755.06	1.081
755.24	1.082
755.42	1.093
755.60	0.969
755.78	0.978
755.96	0.915
756.15	0.911
756.33	0.919
756.51	0.940
756.69	0.921
756.87	0.880
757.05	0.900
757.23	0.883
757.42	0.847
757.60	0.845
757.78	0.835
757.96	0.834
758.14	0.815
758.32	0.800
758.50	0.813
758.69	0.812
758.87	0.802
759.05	0.808
759.23	0.816
759.41	0.816
759.59	0.807
759.77	0.831
759.95	0.863
760.13	0.922
760.32	0.914
760.50	0.908
760.68	0.936
760.86	0.942
761.04	0.909
761.22	0.916
761.40	0.973
761.58	0.975
761.76	0.942
761.95	0.917
762.13	0.864
762.31	0.867
762.49	0.829
762.67	0.849
762.85	0.864
763.03	0.858
763.21	0.835
763.39	0.814
763.57	0.819
763.75	0.812
763.94	0.791
764.12	0.790
764.30	0.816
764.48	0.821
764.66	0.778
764.84	0.775
765.02	0.815
765.20	0.823
765.38	0.799
765.56	0.802
765.74	0.848
765.92	0.850
766.10	0.861
766.28	0.853
766.46	0.886
766.65	0.887
766.83	0.871
767.01	0.857
767.19	0.867
767.37	0.870
767.55	0.853
767.73	0.829
767.91	0.839
768.09	0.827
768.27	0.813
768.45	0.804
768.63	0.810
768.81	0.816
768.99	0.785
769.17	0.811
769.35	0.826
769.53	0.828
769.71	0.807
769.89	0.815
770.07	0.822
770.25	0.801
770.43	0.776
770.61	0.803
770.79	0.808
770.97	0.818
771.15	0.785
771.33	0.790
771.51	0.793
771.69	0.802
771.87	0.807
772.05	0.814
772.24	0.826
772.42	0.835
772.60	0.807
772.78	0.875
772.96	0.911
773.14	0.905
773.32	0.878
773.49	0.885
773.67	0.887
773.85	0.866
774.03	0.849
774.21	0.888
774.39	0.905
774.57	0.937
774.75	0.849
774.93	0.840
775.11	0.863
775.29	0.870
775.47	0.873
775.65	0.883
775.83	0.903
776.01	0.928
776.19	0.869
776.37	0.871
776.55	0.871
776.73	0.867
776.91	0.864
777.09	0.850
777.27	0.851
777.45	0.837
777.63	0.807
777.81	0.805
777.99	0.792
778.17	0.793
778.35	0.769
778.53	0.756
778.71	0.766
778.89	0.748
779.07	0.733
779.24	0.737
779.42	0.737
779.60	0.761
779.78	0.755
779.96	0.760
780.14	0.768
780.32	0.789
780.50	0.771
780.68	0.770
780.86	0.764
781.04	0.782
781.22	0.787
781.40	0.801
781.58	0.794
781.75	0.784
781.93	0.767
782.11	0.771
782.29	0.755
782.47	0.754
782.65	0.738
782.83	0.771
783.01	0.765
783.19	0.757
783.37	0.741
783.55	0.743
783.72	0.763
783.90	0.773
784.08	0.758
784.26	0.772
784.44	0.794
784.62	0.796
784.80	0.758
784.98	0.765
785.16	0.772
785.33	0.783
785.51	0.767
785.69	0.752
785.87	0.751
786.05	0.764
786.23	0.756
786.41	0.754
786.59	0.762
786.77	0.761
786.94	0.744
787.12	0.748
787.30	0.751
787.48	0.747
787.66	0.735
787.84	0.735
788.02	0.727
788.19	0.726
788.37	0.709
788.55	0.711
788.73	0.709
788.91	0.705
789.09	0.686
789.27	0.676
789.44	0.690
789.62	0.697
789.80	0.707
789.98	0.733
790.16	0.718
790.34	0.716
790.51	0.703
790.69	0.728
790.87	0.736
791.05	0.733
791.23	0.724
791.41	0.724
791.58	0.734
791.76	0.711
791.94	0.679
792.12	0.691
792.30	0.693
792.48	0.690
792.65	0.681
792.83	0.687
793.01	0.697
793.19	0.696
793.37	0.679
793.54	0.673
793.72	0.685
793.90	0.682
794.08	0.670
794.26	0.672
794.43	0.684
794.61	0.667
794.79	0.653
794.97	0.652
795.15	0.658
795.32	0.663
795.50	0.653
795.68	0.648
795.86	0.654
796.04	0.656
796.21	0.650
796.39	0.647
796.57	0.662
796.75	0.670
796.92	0.671
797.10	0.677
797.28	0.679
797.46	0.683
797.64	0.684
797.81	0.692
797.99	0.696
798.17	0.699
798.35	0.693
798.52	0.696
798.70	0.693
798.88	0.701
799.06	0.699
799.23	0.702
799.41	0.711
799.59	0.702
799.77	0.686
799.94	0.696
800.12	0.706
800.30	0.725
800.48	0.725
800.65	0.726
800.83	0.714
801.01	0.706
801.19	0.706
801.36	0.699
801.54	0.707
801.72	0.719
801.90	0.703
802.07	0.698
802.25	0.682
802.43	0.662
802.60	0.658
802.78	0.666
802.96	0.673
803.14	0.665
803.31	0.664
803.49	0.664
803.67	0.660
803.84	0.664
804.02	0.657
804.20	0.661
804.38	0.668
804.55	0.667
804.73	0.649
804.91	0.648
805.08	0.661
805.26	0.657
805.44	0.725
805.61	0.731
805.79	0.731
805.97	0.729
806.15	0.719
806.32	0.713
806.50	0.720
806.68	0.723
806.85	0.711
807.03	0.702
807.21	0.720
807.38	0.648
807.56	0.634
807.74	0.645
807.91	0.653
808.09	0.657
808.27	0.678
808.44	0.708
808.62	0.718
808.80	0.720
808.97	0.714
809.15	0.708
809.33	0.727
809.50	0.737
809.68	0.720
809.86	0.727
810.03	0.762
810.21	0.740
810.39	0.717
810.56	0.723
810.74	0.751
810.91	0.831
811.09	0.818
811.27	0.844
811.44	0.852
811.62	0.853
811.80	0.832
811.97	0.796
812.15	0.798
812.33	0.791
812.50	0.776
812.68	0.763
812.85	0.703
813.03	0.706
813.21	0.671
813.38	0.664
813.56	0.670
813.74	0.680
813.91	0.688
814.09	0.720
814.26	0.714
814.44	0.718
814.62	0.707
814.79	0.710
814.97	0.715
815.14	0.719
815.32	0.721
815.50	0.738
815.67	0.745
815.85	0.736
816.02	0.725
816.20	0.734
816.38	0.752
816.55	0.756
816.73	0.756
816.90	0.769
817.08	0.805
817.26	0.811
817.43	0.786
817.61	0.809
817.78	0.834
817.96	0.812
818.13	0.796
818.31	0.800
818.49	0.817
818.66	0.806
818.84	0.789
819.01	0.767
819.19	0.776
819.36	0.780
819.54	0.747
819.71	0.793
819.89	0.806
820.07	0.824
820.24	0.812
820.42	0.814
820.59	0.840
820.77	0.864
820.94	0.852
821.12	0.876
821.29	0.897
821.47	0.901
821.64	0.825
821.82	0.843
822.00	0.839
822.17	0.839
822.35	0.825
822.52	0.826
822.70	0.817
822.87	0.827
823.05	0.800
823.22	0.814
823.40	0.850
823.57	0.876
823.75	0.852
823.92	0.882
824.10	0.908
824.27	0.961
824.45	0.945
824.62	1.025
824.80	1.055
824.97	1.077
825.15	1.056
825.32	1.070
825.50	1.079
825.67	1.086
825.85	1.053
826.02	1.080
826.20	1.112
826.37	1.301
826.55	1.178
826.72	1.493
826.90	1.704
827.07	1.928
827.25	1.738
827.42	3.158
827.60	-0.000
827.77	-0.000
827.95	-0.000
828.12	-0.000
828.30	-0.000
828.47	-0.000
828.65	1.831
828.82	2.114
829.00	-0.000
829.17	-0.000
829.34	-0.000
829.52	-0.000
829.69	-0.000
829.87	-0.000
830.04	-0.000
830.22	-0.000
830.39	-0.000
830.57	-0.000
830.74	-0.000
830.92	-0.000
831.09	-0.000
831.26	-0.000
831.44	-0.000
831.61	-0.000
831.79	-0.000
831.96	-0.000
832.14	-0.000
832.31	-0.000
832.49	-0.000
832.66	-0.000
832.83	-0.000
833.01	-0.000
833.18	-0.000
833.36	-0.000
833.53	-0.000
833.70	-0.000
833.88	-0.000
834.05	-0.000
834.23	-0.000
834.40	-0.000
834.58	-0.000
834.75	-0.000
834.92	-0.000
835.10	-0.000
835.27	-0.000
835.45	-0.000
835.62	-0.000
835.79	-0.000
835.97	-0.000
836.14	-0.000
836.32	-0.000
836.49	-0.000
836.66	-0.000
836.84	-0.000
837.01	-0.000
837.18	-0.000
837.36	-0.000
837.53	-0.000
837.71	-0.000
837.88	-0.000
838.05	-0.000
838.23	-0.000
838.40	-0.000
838.58	-0.000
838.75	-0.000
838.92	-0.000
839.10	-0.000
839.27	-0.000
839.44	-0.000
839.62	-0.000
839.79	-0.000
839.96	-0.000
840.14	-0.000
840.31	-0.000
840.48	-0.000
840.66	-0.000
840.83	-0.000
841.01	-0.000
841.18	-0.000
841.35	-0.000
841.53	-0.000
841.70	-0.000
841.87	-0.000
842.05	-0.000
842.22	-0.000
842.39	-0.000
842.57	-0.000
842.74	-0.000
842.91	-0.000
843.09	-0.000
843.26	-0.000
843.43	-0.000
843.60	-0.000
843.78	-0.000
843.95	-0.000
844.12	-0.000
844.30	-0.000
844.47	-0.000
844.64	-0.000
844.82	-0.000
844.99	-0.000
845.16	-0.000
845.34	-0.000
845.51	-0.000
845.68	-0.000
845.85	-0.000
846.03	-0.000
846.20	-0.000
846.37	-0.000
846.55	-0.000
846.72	-0.000
846.89	-0.000
847.06	-0.000
847.24	-0.000
847.41	-0.000
847.58	-0.000
847.76	-0.000
847.93	-0.000
848.10	-0.000
848.27	-0.000
848.45	-0.000
848.62	-0.000
848.79	-0.000
848.97	-0.000
849.14	-0.000
849.31	-0.000
849.48	-0.000
849.66	-0.000
849.83	-0.000
850.00	-0.000
850.17	-0.000
850.35	-0.000
850.52	-0.000
850.69	-0.000
850.86	-0.000
851.04	-0.000
851.21	-0.000
851.38	-0.000
851.55	-0.000
851.72	-0.000
851.90	-0.000
852.07	-0.000
852.24	-0.000
852.41	-0.000
852.59	-0.000
852.76	-0.000
852.93	-0.000
853.10	-0.000
853.28	-0.000
853.45	-0.000
853.62	-0.000
853.79	-0.000
853.96	-0.000
854.14	-0.000
854.31	-0.000
854.48	-0.000
854.65	-0.000
854.82	-0.000
855.00	-0.000
855.17	-0.000
855.34	-0.000
855.51	-0.000
855.68	-0.000
855.86	-0.000
856.03	-0.000
856.20	-0.000
856.37	-0.000
856.54	-0.000
856.72	-0.000
856.89	-0.000
857.06	-0.000
857.23	-0.000
857.40	-0.000
857.57	-0.000
857.75	-0.000
857.92	-0.000
858.09	-0.000
858.26	-0.000
858.43	-0.000
858.60	-0.000
858.78	-0.000
858.95	-0.000
859.12	-0.000
859.29	-0.000
859.46	-0.000
859.63	-0.000
859.81	-0.000
859.98	-0.000
860.15	-0.000
860.32	-0.000
860.49	-0.000
860.66	-0.000
860.83	-0.000
861.01	-0.000
861.18	-0.000
861.35	-0.000
861.52	-0.000
861.69	-0.000
861.86	-0.000
862.03	-0.000
862.21	-0.000
862.38	-0.000
862.55	-0.000
862.72	-0.000
862.89	-0.000
863.06	-0.000
863.23	-0.000
863.40	-0.000
863.58	-0.000
863.75	-0.000
863.92	-0.000
864.09	-0.000
864.26	-0.000
864.43	-0.000
864.60	-0.000
864.77	-0.000
864.94	-0.000
865.11	-0.000
865.29	-0.000
865.46	-0.000
865.63	-0.000
865.80	-0.000
865.97	-0.000
866.14	-0.000
866.31	-0.000
866.48	-0.000
866.65	-0.000
866.82	-0.000
866.99	-0.000
867.16	-0.000
867.34	-0.000
867.51	-0.000
867.68	-0.000
867.85	-0.000
868.02	-0.000
868.19	-0.000
868.36	-0.000
868.53	-0.000
868.70	-0.000
868.87	-0.000
869.04	-0.000
869.21	-0.000
869.38	-0.000
869.55	-0.000
869.72	-0.000
869.89	-0.000
870.06	-0.000
870.24	-0.000
870.41	-0.000
870.58	-0.000
870.75	-0.000
870.92	-0.000
871.09	-0.000
871.26	-0.000
871.43	-0.000
871.60	-0.000
871.77	-0.000
871.94	-0.000
872.11	-0.000
872.28	-0.000
872.45	-0.000
872.62	-0.000
872.79	-0.000
872.96	-0.000
873.13	-0.000
873.30	-0.000
873.47	-0.000
873.64	-0.000
873.81	-0.000
873.98	-0.000
874.15	-0.000
874.32	-0.000
874.49	-0.000
874.66	-0.000
874.83	-0.000
875.00	-0.000
875.17	-0.000
875.34	-0.000
875.51	-0.000
875.68	-0.000
875.85	-0.000
876.02	-0.000
876.19	-0.000
876.36	-0.000
876.53	-0.000
876.70	-0.000
876.87	-0.000
877.04	-0.000
877.21	-0.000
877.38	-0.000
877.55	-0.000
877.72	-0.000
877.89	-0.000
878.06	-0.000
878.23	-0.000
878.39	-0.000
878.56	-0.000
878.73	-0.000
878.90	-0.000
879.07	-0.000
879.24	-0.000
879.41	-0.000
879.58	-0.000
879.75	-0.000
879.92	-0.000
880.09	-0.000
880.26	-0.000
880.43	-0.000
880.60	-0.000
880.77	-0.000
880.94	-0.000
881.11	-0.000
881.27	-0.000
881.44	-0.000
881.61	-0.000
881.78	-0.000
881.95	-0.000
882.12	-0.000
882.29	-0.000
882.46	-0.000
882.63	-0.000
882.80	-0.000
882.97	-0.000
883.14	-0.000
883.30	-0.000
883.47	-0.000
883.64	-0.000
883.81	-0.000
883.98	-0.000
884.15	-0.000
884.32	-0.000
884.49	-0.000
884.66	-0.000
884.82	-0.000
884.99	-0.000
885.16	-0.000
885.33	-0.000
885.50	-0.000
885.67	-0.000
885.84	-0.000
886.01	-0.000
886.17	-0.000
886.34	-0.000
886.51	-0.000
886.68	-0.000
886.85	-0.000
887.02	-0.000
887.19	-0.000
887.36	-0.000
887.52	-0.000
887.69	-0.000
887.86	-0.000
888.03	-0.000
888.20	-0.000
888.37	-0.000
888.54	-0.000
888.70	-0.000
888.87	-0.000
889.04	-0.000
889.21	-0.000
889.38	-0.000
889.55	-0.000
889.71	-0.000
889.88	-0.000
890.05	-0.000
890.22	-0.000
890.39	-0.000
>>>>>End Processed Spectral Data<<<<<
