SpectraSuite Data File
++++++++++++++++++++++++++++++++++++
Date: Fri Jun 19 15:27:59 CEST 2015
User: introlabs
Dark Spectrum Present: Yes
Reference Spectrum Present: Yes
Number of Sampled Component Spectra: 1
Spectrometers: USB4H08886
Integration Time (usec): 745692 (USB4H08886)
Spectra Averaged: 5 (USB4H08886)
Boxcar Smoothing: 5 (USB4H08886)
Correct for Electrical Dark: Yes (USB4H08886)
Strobe/Lamp Enabled: No (USB4H08886)
Correct for Detector Non-linearity: Yes (USB4H08886)
Correct for Stray Light: Yes (USB4H08886)
Number of Pixels in Processed Spectrum: 3648
>>>>>Begin Processed Spectral Data<<<<<
178.14	-0.000
178.36	-0.000
178.57	-0.000
178.79	-0.000
179.01	-0.000
179.22	-0.000
179.44	-0.000
179.65	-0.000
179.87	-0.000
180.08	-0.000
180.30	-0.000
180.52	-0.000
180.73	-0.000
180.95	-0.000
181.16	-0.000
181.38	-0.000
181.59	-0.000
181.81	-0.000
182.03	-0.000
182.24	-0.000
182.46	-0.000
182.67	-0.000
182.89	-0.000
183.10	-0.000
183.32	-0.000
183.54	-0.000
183.75	-0.000
183.97	-0.000
184.18	-0.000
184.40	-0.000
184.61	-0.000
184.83	-0.000
185.04	-0.000
185.26	-0.000
185.48	-0.000
185.69	-0.000
185.91	-0.000
186.12	-0.000
186.34	-0.000
186.55	-0.000
186.77	-0.000
186.98	-0.000
187.20	-0.000
187.42	-0.000
187.63	-0.000
187.85	-0.000
188.06	-0.000
188.28	-0.000
188.49	-0.000
188.71	-0.000
188.92	-0.000
189.14	-0.000
189.36	-0.000
189.57	-0.000
189.79	-0.000
190.00	-0.000
190.22	-0.000
190.43	-0.000
190.65	-0.000
190.86	-0.000
191.08	-0.000
191.29	-0.000
191.51	-0.000
191.72	-0.000
191.94	-0.000
192.16	-0.000
192.37	-0.000
192.59	-0.000
192.80	-0.000
193.02	-0.000
193.23	-0.000
193.45	-0.000
193.66	-0.000
193.88	-0.000
194.09	-0.000
194.31	-0.000
194.52	-0.000
194.74	-0.000
194.95	-0.000
195.17	-0.000
195.38	-0.000
195.60	-0.000
195.81	-0.000
196.03	-0.000
196.25	-0.000
196.46	-0.000
196.68	-0.000
196.89	-0.000
197.11	-0.000
197.32	-0.000
197.54	-0.000
197.75	-0.000
197.97	-0.000
198.18	-0.000
198.40	-0.000
198.61	-0.000
198.83	-0.000
199.04	-0.000
199.26	-0.000
199.47	-0.000
199.69	-0.000
199.90	-0.000
200.12	-0.000
200.33	-0.000
200.55	-0.000
200.76	-0.000
200.98	-0.000
201.19	-0.000
201.41	-0.000
201.62	-0.000
201.84	-0.000
202.05	-0.000
202.27	-0.000
202.48	-0.000
202.70	-0.000
202.91	-0.000
203.13	-0.000
203.34	-0.000
203.56	-0.000
203.77	-0.000
203.99	-0.000
204.20	-0.000
204.42	-0.000
204.63	-0.000
204.85	-0.000
205.06	-0.000
205.28	-0.000
205.49	-0.000
205.71	-0.000
205.92	-0.000
206.14	-0.000
206.35	-0.000
206.56	-0.000
206.78	-0.000
206.99	-0.000
207.21	-0.000
207.42	-0.000
207.64	-0.000
207.85	-0.000
208.07	-0.000
208.28	-0.000
208.50	-0.000
208.71	-0.000
208.93	-0.000
209.14	-0.000
209.36	-0.000
209.57	-0.000
209.79	-0.000
210.00	-0.000
210.22	-0.000
210.43	-0.000
210.64	-0.000
210.86	-0.000
211.07	-0.000
211.29	-0.000
211.50	-0.000
211.72	-0.000
211.93	-0.000
212.15	-0.000
212.36	-0.000
212.58	-0.000
212.79	-0.000
213.01	-0.000
213.22	-0.000
213.43	-0.000
213.65	-0.000
213.86	-0.000
214.08	-0.000
214.29	-0.000
214.51	-0.000
214.72	-0.000
214.94	-0.000
215.15	-0.000
215.36	-0.000
215.58	-0.000
215.79	-0.000
216.01	-0.000
216.22	-0.000
216.44	-0.000
216.65	-0.000
216.87	-0.000
217.08	-0.000
217.29	-0.000
217.51	-0.000
217.72	-0.000
217.94	-0.000
218.15	-0.000
218.37	-0.000
218.58	-0.000
218.80	-0.000
219.01	-0.000
219.22	-0.000
219.44	-0.000
219.65	-0.000
219.87	-0.000
220.08	-0.000
220.30	-0.000
220.51	-0.000
220.72	-0.000
220.94	-0.000
221.15	-0.000
221.37	-0.000
221.58	-0.000
221.79	-0.000
222.01	-0.000
222.22	-0.000
222.44	-0.000
222.65	-0.000
222.87	-0.000
223.08	-0.000
223.29	-0.000
223.51	-0.000
223.72	-0.000
223.94	-0.000
224.15	-0.000
224.36	-0.000
224.58	-0.000
224.79	-0.000
225.01	-0.000
225.22	-0.000
225.44	-0.000
225.65	-0.000
225.86	-0.000
226.08	-0.000
226.29	-0.000
226.51	-0.000
226.72	-0.000
226.93	-0.000
227.15	-0.000
227.36	-0.000
227.58	-0.000
227.79	-0.000
228.00	-0.000
228.22	-0.000
228.43	-0.000
228.65	-0.000
228.86	-0.000
229.07	-0.000
229.29	-0.000
229.50	-0.000
229.72	-0.000
229.93	-0.000
230.14	-0.000
230.36	-0.000
230.57	-0.000
230.78	-0.000
231.00	-0.000
231.21	-0.000
231.43	-0.000
231.64	-0.000
231.85	-0.000
232.07	-0.000
232.28	-0.000
232.50	-0.000
232.71	-0.000
232.92	-0.000
233.14	-0.000
233.35	-0.000
233.56	-0.000
233.78	-0.000
233.99	-0.000
234.21	-0.000
234.42	-0.000
234.63	-0.000
234.85	-0.000
235.06	-0.000
235.27	-0.000
235.49	-0.000
235.70	-0.000
235.91	-0.000
236.13	-0.000
236.34	-0.000
236.56	-0.000
236.77	-0.000
236.98	-0.000
237.20	-0.000
237.41	-0.000
237.62	-0.000
237.84	-0.000
238.05	-0.000
238.26	-0.000
238.48	-0.000
238.69	-0.000
238.91	-0.000
239.12	-0.000
239.33	-0.000
239.55	-0.000
239.76	-0.000
239.97	-0.000
240.19	-0.000
240.40	-0.000
240.61	-0.000
240.83	-0.000
241.04	-0.000
241.25	-0.000
241.47	-0.000
241.68	-0.000
241.89	-0.000
242.11	-0.000
242.32	-0.000
242.53	-0.000
242.75	-0.000
242.96	-0.000
243.17	-0.000
243.39	-0.000
243.60	-0.000
243.81	-0.000
244.03	-0.000
244.24	-0.000
244.45	-0.000
244.67	-0.000
244.88	-0.000
245.09	-0.000
245.31	-0.000
245.52	-0.000
245.73	-0.000
245.95	-0.000
246.16	-0.000
246.37	-0.000
246.59	-0.000
246.80	-0.000
247.01	-0.000
247.23	-0.000
247.44	-0.000
247.65	-0.000
247.87	-0.000
248.08	-0.000
248.29	-0.000
248.51	-0.000
248.72	-0.000
248.93	-0.000
249.15	-0.000
249.36	-0.000
249.57	-0.000
249.78	-0.000
250.00	-0.000
250.21	-0.000
250.42	-0.000
250.64	-0.000
250.85	-0.000
251.06	-0.000
251.28	-0.000
251.49	-0.000
251.70	-0.000
251.92	-0.000
252.13	-0.000
252.34	-0.000
252.55	-0.000
252.77	-0.000
252.98	-0.000
253.19	-0.000
253.41	-0.000
253.62	-0.000
253.83	-0.000
254.05	-0.000
254.26	-0.000
254.47	-0.000
254.68	-0.000
254.90	-0.000
255.11	-0.000
255.32	-0.000
255.54	-0.000
255.75	-0.000
255.96	-0.000
256.17	-0.000
256.39	-0.000
256.60	-0.000
256.81	-0.000
257.03	-0.000
257.24	-0.000
257.45	-0.000
257.66	-0.000
257.88	-0.000
258.09	-0.000
258.30	-0.000
258.51	-0.000
258.73	-0.000
258.94	-0.000
259.15	-0.000
259.37	-0.000
259.58	-0.000
259.79	-0.000
260.00	-0.000
260.22	-0.000
260.43	-0.000
260.64	-0.000
260.85	-0.000
261.07	-0.000
261.28	-0.000
261.49	-0.000
261.71	-0.000
261.92	-0.000
262.13	-0.000
262.34	-0.000
262.56	-0.000
262.77	-0.000
262.98	-0.000
263.19	-0.000
263.41	-0.000
263.62	-0.000
263.83	-0.000
264.04	-0.000
264.26	-0.000
264.47	-0.000
264.68	-0.000
264.89	-0.000
265.11	-0.000
265.32	-0.000
265.53	-0.000
265.74	-0.000
265.96	-0.000
266.17	-0.000
266.38	-0.000
266.59	-0.000
266.81	-0.000
267.02	-0.000
267.23	-0.000
267.44	-0.000
267.65	-0.000
267.87	-0.000
268.08	-0.000
268.29	-0.000
268.50	-0.000
268.72	-0.000
268.93	-0.000
269.14	-0.000
269.35	-0.000
269.57	-0.000
269.78	-0.000
269.99	-0.000
270.20	-0.000
270.41	-0.000
270.63	-0.000
270.84	-0.000
271.05	-0.000
271.26	-0.000
271.48	-0.000
271.69	-0.000
271.90	-0.000
272.11	-0.000
272.32	-0.000
272.54	-0.000
272.75	-0.000
272.96	-0.000
273.17	-0.000
273.39	-0.000
273.60	-0.000
273.81	-0.000
274.02	-0.000
274.23	-0.000
274.45	-0.000
274.66	-0.000
274.87	-0.000
275.08	-0.000
275.29	-0.000
275.51	-0.000
275.72	-0.000
275.93	-0.000
276.14	-0.000
276.35	-0.000
276.57	-0.000
276.78	-0.000
276.99	-0.000
277.20	-0.000
277.41	-0.000
277.63	-0.000
277.84	-0.000
278.05	-0.000
278.26	-0.000
278.47	-0.000
278.69	-0.000
278.90	-0.000
279.11	-0.000
279.32	-0.000
279.53	-0.000
279.74	-0.000
279.96	-0.000
280.17	-0.000
280.38	-0.000
280.59	-0.000
280.80	-0.000
281.02	-0.000
281.23	-0.000
281.44	-0.000
281.65	-0.000
281.86	-0.000
282.07	-0.000
282.29	-0.000
282.50	-0.000
282.71	-0.000
282.92	-0.000
283.13	-0.000
283.35	-0.000
283.56	-0.000
283.77	-0.000
283.98	-0.000
284.19	-0.000
284.40	-0.000
284.62	-0.000
284.83	-0.000
285.04	-0.000
285.25	-0.000
285.46	-0.000
285.67	-0.000
285.88	-0.000
286.10	-0.000
286.31	-0.000
286.52	-0.000
286.73	-0.000
286.94	-0.000
287.15	-0.000
287.37	-0.000
287.58	-0.000
287.79	-0.000
288.00	-0.000
288.21	-0.000
288.42	-0.000
288.63	-0.000
288.85	-0.000
289.06	-0.000
289.27	-0.000
289.48	-0.000
289.69	-0.000
289.90	-0.000
290.11	-0.000
290.33	-0.000
290.54	-0.000
290.75	-0.000
290.96	-0.000
291.17	-0.000
291.38	-0.000
291.59	-0.000
291.81	-0.000
292.02	-0.000
292.23	-0.000
292.44	-0.000
292.65	-0.000
292.86	-0.000
293.07	-0.000
293.28	-0.000
293.50	-0.000
293.71	-0.000
293.92	-0.000
294.13	-0.000
294.34	-0.000
294.55	-0.000
294.76	-0.000
294.97	-0.000
295.19	-0.000
295.40	-0.000
295.61	-0.000
295.82	-0.000
296.03	-0.000
296.24	-0.000
296.45	2.096
296.66	1.786
296.87	1.804
297.09	1.859
297.30	2.083
297.51	1.723
297.72	1.690
297.93	1.787
298.14	1.743
298.35	1.703
298.56	1.680
298.77	1.795
298.99	1.766
299.20	1.742
299.41	1.712
299.62	1.657
299.83	1.642
300.04	1.586
300.25	1.566
300.46	1.602
300.67	1.578
300.88	1.530
301.10	1.534
301.31	1.596
301.52	1.544
301.73	1.495
301.94	1.505
302.15	1.521
302.36	1.476
302.57	1.423
302.78	1.428
302.99	1.468
303.20	1.486
303.41	1.402
303.63	1.389
303.84	1.389
304.05	1.388
304.26	1.326
304.47	1.332
304.68	1.329
304.89	1.318
305.10	1.281
305.31	1.263
305.52	1.302
305.73	1.296
305.94	1.258
306.15	1.253
306.37	1.276
306.58	1.284
306.79	1.254
307.00	1.282
307.21	1.317
307.42	1.311
307.63	1.282
307.84	1.251
308.05	1.284
308.26	1.287
308.47	1.263
308.68	1.257
308.89	1.254
309.10	1.251
309.31	1.212
309.52	1.206
309.73	1.218
309.95	1.214
310.16	1.185
310.37	1.175
310.58	1.187
310.79	1.188
311.00	1.187
311.21	1.188
311.42	1.189
311.63	1.182
311.84	1.166
312.05	1.165
312.26	1.182
312.47	1.196
312.68	1.172
312.89	1.158
313.10	1.162
313.31	1.134
313.52	1.138
313.73	1.137
313.94	1.138
314.15	1.121
314.36	1.101
314.57	1.095
314.78	1.080
314.99	1.077
315.21	1.064
315.42	1.069
315.63	1.079
315.84	1.059
316.05	1.049
316.26	1.056
316.47	1.071
316.68	1.068
316.89	1.052
317.10	1.074
317.31	1.078
317.52	1.081
317.73	1.063
317.94	1.062
318.15	1.101
318.36	1.099
318.57	1.084
318.78	1.074
318.99	1.108
319.20	1.105
319.41	1.070
319.62	1.072
319.83	1.084
320.04	1.079
320.25	1.068
320.46	1.036
320.67	1.039
320.88	1.037
321.09	1.023
321.30	1.008
321.51	1.023
321.72	1.023
321.93	1.006
322.14	0.998
322.35	1.024
322.56	1.025
322.77	1.013
322.98	1.025
323.19	1.030
323.40	1.038
323.61	1.017
323.82	1.011
324.03	1.016
324.24	1.015
324.45	1.004
324.66	0.985
324.87	0.980
325.08	0.980
325.29	0.961
325.50	0.954
325.71	0.959
325.92	0.966
326.13	0.954
326.34	0.954
326.55	0.961
326.76	0.959
326.97	0.950
327.18	0.945
327.39	0.969
327.60	0.970
327.80	0.972
328.01	0.968
328.22	0.968
328.43	0.971
328.64	0.960
328.85	0.965
329.06	0.967
329.27	0.967
329.48	0.963
329.69	0.944
329.90	0.953
330.11	0.947
330.32	0.941
330.53	0.934
330.74	0.934
330.95	0.932
331.16	0.917
331.37	0.924
331.58	0.924
331.79	0.923
332.00	0.916
332.21	0.909
332.42	0.913
332.63	0.905
332.83	0.902
333.04	0.905
333.25	0.917
333.46	0.916
333.67	0.903
333.88	0.904
334.09	0.914
334.30	0.911
334.51	0.903
334.72	0.898
334.93	0.900
335.14	0.898
335.35	0.890
335.56	0.885
335.77	0.892
335.98	0.890
336.18	0.885
336.39	0.877
336.60	0.881
336.81	0.880
337.02	0.880
337.23	0.885
337.44	0.888
337.65	0.889
337.86	0.880
338.07	0.875
338.28	0.879
338.49	0.877
338.70	0.872
338.91	0.877
339.11	0.883
339.32	0.879
339.53	0.867
339.74	0.864
339.95	0.860
340.16	0.860
340.37	0.853
340.58	0.851
340.79	0.854
341.00	0.854
341.21	0.845
341.41	0.845
341.62	0.847
341.83	0.848
342.04	0.844
342.25	0.854
342.46	0.857
342.67	0.856
342.88	0.851
343.09	0.849
343.30	0.855
343.50	0.857
343.71	0.848
343.92	0.845
344.13	0.850
344.34	0.850
344.55	0.834
344.76	0.833
344.97	0.837
345.18	0.837
345.38	0.835
345.59	0.829
345.80	0.828
346.01	0.826
346.22	0.824
346.43	0.818
346.64	0.826
346.85	0.825
347.06	0.819
347.26	0.818
347.47	0.821
347.68	0.817
347.89	0.814
348.10	0.809
348.31	0.815
348.52	0.813
348.73	0.810
348.93	0.808
349.14	0.810
349.35	0.809
349.56	0.804
349.77	0.800
349.98	0.804
350.19	0.802
350.39	0.797
350.60	0.793
350.81	0.809
351.02	0.808
351.23	0.802
351.44	0.805
351.65	0.808
351.86	0.805
352.06	0.803
352.27	0.804
352.48	0.804
352.69	0.804
352.90	0.799
353.11	0.785
353.31	0.792
353.52	0.788
353.73	0.780
353.94	0.780
354.15	0.786
354.36	0.786
354.57	0.778
354.77	0.780
354.98	0.780
355.19	0.778
355.40	0.778
355.61	0.784
355.82	0.787
356.02	0.788
356.23	0.781
356.44	0.783
356.65	0.786
356.86	0.787
357.07	0.782
357.27	0.785
357.48	0.787
357.69	0.783
357.90	0.768
358.11	0.764
358.32	0.767
358.52	0.770
358.73	0.761
358.94	0.763
359.15	0.768
359.36	0.768
359.56	0.763
359.77	0.761
359.98	0.767
360.19	0.767
360.40	0.765
360.61	0.766
360.81	0.764
361.02	0.764
361.23	0.757
361.44	0.755
361.65	0.756
361.85	0.756
362.06	0.754
362.27	0.756
362.48	0.756
362.69	0.757
362.89	0.752
363.10	0.752
363.31	0.756
363.52	0.759
363.73	0.755
363.93	0.754
364.14	0.755
364.35	0.757
364.56	0.747
364.77	0.748
364.97	0.751
365.18	0.751
365.39	0.747
365.60	0.744
365.81	0.744
366.01	0.743
366.22	0.741
366.43	0.740
366.64	0.741
366.84	0.747
367.05	0.744
367.26	0.743
367.47	0.744
367.68	0.744
367.88	0.742
368.09	0.739
368.30	0.740
368.51	0.739
368.71	0.739
368.92	0.744
369.13	0.741
369.34	0.741
369.55	0.740
369.75	0.741
369.96	0.748
370.17	0.748
370.38	0.745
370.58	0.745
370.79	0.750
371.00	0.748
371.21	0.739
371.41	0.744
371.62	0.748
371.83	0.743
372.04	0.741
372.24	0.734
372.45	0.734
372.66	0.735
372.87	0.732
373.07	0.729
373.28	0.729
373.49	0.733
373.70	0.724
373.90	0.723
374.11	0.731
374.32	0.731
374.53	0.730
374.73	0.731
374.94	0.733
375.15	0.733
375.36	0.731
375.56	0.741
375.77	0.740
375.98	0.741
376.19	0.739
376.39	0.733
376.60	0.737
376.81	0.738
377.02	0.736
377.22	0.735
377.43	0.734
377.64	0.734
377.84	0.726
378.05	0.731
378.26	0.736
378.47	0.735
378.67	0.733
378.88	0.731
379.09	0.730
379.30	0.730
379.50	0.728
379.71	0.731
379.92	0.733
380.12	0.732
380.33	0.724
380.54	0.720
380.75	0.726
380.95	0.726
381.16	0.724
381.37	0.724
381.57	0.726
381.78	0.726
381.99	0.726
382.20	0.726
382.40	0.729
382.61	0.729
382.82	0.727
383.02	0.721
383.23	0.724
383.44	0.724
383.64	0.723
383.85	0.726
384.06	0.729
384.27	0.726
384.47	0.724
384.68	0.724
384.89	0.729
385.09	0.727
385.30	0.727
385.51	0.726
385.71	0.729
385.92	0.730
386.13	0.728
386.33	0.730
386.54	0.731
386.75	0.731
386.95	0.728
387.16	0.723
387.37	0.726
387.58	0.726
387.78	0.724
387.99	0.722
388.20	0.724
388.40	0.722
388.61	0.717
388.82	0.720
389.02	0.723
389.23	0.723
389.44	0.722
389.64	0.723
389.85	0.733
390.06	0.733
390.26	0.734
390.47	0.734
390.68	0.736
390.88	0.734
391.09	0.730
391.30	0.729
391.50	0.730
391.71	0.730
391.92	0.728
392.12	0.720
392.33	0.721
392.53	0.720
392.74	0.720
392.95	0.719
393.15	0.722
393.36	0.723
393.57	0.722
393.77	0.725
393.98	0.726
394.19	0.725
394.39	0.725
394.60	0.726
394.81	0.729
395.01	0.727
395.22	0.726
395.43	0.726
395.63	0.731
395.84	0.732
396.04	0.728
396.25	0.730
396.46	0.732
396.66	0.729
396.87	0.727
397.08	0.724
397.28	0.727
397.49	0.727
397.69	0.724
397.90	0.719
398.11	0.720
398.31	0.720
398.52	0.717
398.73	0.719
398.93	0.717
399.14	0.716
399.34	0.715
399.55	0.717
399.76	0.717
399.96	0.718
400.17	0.717
400.37	0.716
400.58	0.722
400.79	0.724
400.99	0.722
401.20	0.729
401.41	0.732
401.61	0.733
401.82	0.738
402.02	0.737
402.23	0.739
402.44	0.739
402.64	0.739
402.85	0.734
403.05	0.733
403.26	0.732
403.47	0.725
403.67	0.725
403.88	0.725
404.08	0.719
404.29	0.717
404.50	0.717
404.70	0.717
404.91	0.715
405.11	0.713
405.32	0.714
405.52	0.713
405.73	0.713
405.94	0.711
406.14	0.714
406.35	0.717
406.55	0.717
406.76	0.714
406.97	0.715
407.17	0.717
407.38	0.717
407.58	0.716
407.79	0.719
407.99	0.721
408.20	0.722
408.41	0.718
408.61	0.716
408.82	0.717
409.02	0.717
409.23	0.715
409.43	0.714
409.64	0.715
409.84	0.715
410.05	0.711
410.26	0.709
410.46	0.708
410.67	0.708
410.87	0.709
411.08	0.711
411.28	0.712
411.49	0.714
411.69	0.712
411.90	0.714
412.11	0.715
412.31	0.715
412.52	0.714
412.72	0.715
412.93	0.716
413.13	0.714
413.34	0.711
413.54	0.713
413.75	0.714
413.95	0.714
414.16	0.710
414.37	0.713
414.57	0.714
414.78	0.716
414.98	0.715
415.19	0.716
415.39	0.713
415.60	0.715
415.80	0.714
416.01	0.713
416.21	0.714
416.42	0.714
416.62	0.709
416.83	0.709
417.03	0.709
417.24	0.709
417.44	0.707
417.65	0.706
417.86	0.707
418.06	0.705
418.27	0.703
418.47	0.704
418.68	0.704
418.88	0.704
419.09	0.703
419.29	0.703
419.50	0.704
419.70	0.704
419.91	0.703
420.11	0.700
420.32	0.703
420.52	0.702
420.73	0.702
420.93	0.703
421.14	0.704
421.34	0.703
421.55	0.699
421.75	0.699
421.96	0.700
422.16	0.700
422.37	0.699
422.57	0.696
422.78	0.698
422.98	0.694
423.19	0.692
423.39	0.690
423.60	0.694
423.80	0.696
424.01	0.695
424.21	0.697
424.42	0.697
424.62	0.697
424.83	0.696
425.03	0.696
425.23	0.698
425.44	0.698
425.64	0.699
425.85	0.697
426.05	0.698
426.26	0.698
426.46	0.695
426.67	0.694
426.87	0.699
427.08	0.699
427.28	0.698
427.49	0.699
427.69	0.699
427.90	0.698
428.10	0.695
428.31	0.695
428.51	0.697
428.71	0.696
428.92	0.697
429.12	0.694
429.33	0.695
429.53	0.699
429.74	0.703
429.94	0.703
430.15	0.703
430.35	0.703
430.56	0.699
430.76	0.698
430.96	0.698
431.17	0.696
431.37	0.693
431.58	0.692
431.78	0.688
431.99	0.681
432.19	0.683
432.40	0.684
432.60	0.684
432.80	0.687
433.01	0.685
433.21	0.685
433.42	0.687
433.62	0.688
433.83	0.687
434.03	0.690
434.23	0.694
434.44	0.693
434.64	0.690
434.85	0.696
435.05	0.697
435.26	0.698
435.46	0.697
435.66	0.696
435.87	0.695
436.07	0.696
436.28	0.692
436.48	0.688
436.69	0.688
436.89	0.688
437.09	0.682
437.30	0.680
437.50	0.680
437.71	0.691
437.91	0.691
438.11	0.691
438.32	0.695
438.52	0.695
438.73	0.694
438.93	0.692
439.13	0.691
439.34	0.695
439.54	0.693
439.75	0.693
439.95	0.683
440.15	0.688
440.36	0.686
440.56	0.684
440.77	0.685
440.97	0.684
441.17	0.684
441.38	0.685
441.58	0.681
441.79	0.681
441.99	0.678
442.19	0.677
442.40	0.674
442.60	0.675
442.81	0.672
443.01	0.672
443.21	0.672
443.42	0.671
443.62	0.669
443.82	0.669
444.03	0.670
444.23	0.671
444.44	0.671
444.64	0.670
444.84	0.670
445.05	0.670
445.25	0.669
445.45	0.669
445.66	0.672
445.86	0.671
446.06	0.672
446.27	0.672
446.47	0.674
446.68	0.673
446.88	0.672
447.08	0.671
447.29	0.673
447.49	0.673
447.69	0.673
447.90	0.672
448.10	0.675
448.30	0.673
448.51	0.674
448.71	0.672
448.91	0.674
449.12	0.673
449.32	0.674
449.52	0.673
449.73	0.677
449.93	0.676
450.14	0.676
450.34	0.675
450.54	0.677
450.75	0.674
450.95	0.673
451.15	0.673
451.36	0.675
451.56	0.673
451.76	0.672
451.97	0.669
452.17	0.669
452.37	0.667
452.58	0.664
452.78	0.663
452.98	0.665
453.19	0.665
453.39	0.665
453.59	0.664
453.79	0.664
454.00	0.664
454.20	0.663
454.40	0.663
454.61	0.665
454.81	0.666
455.01	0.664
455.22	0.665
455.42	0.666
455.62	0.664
455.83	0.664
456.03	0.667
456.23	0.668
456.44	0.669
456.64	0.669
456.84	0.669
457.04	0.669
457.25	0.668
457.45	0.665
457.65	0.664
457.86	0.665
458.06	0.664
458.26	0.659
458.47	0.659
458.67	0.660
458.87	0.661
459.07	0.658
459.28	0.660
459.48	0.662
459.68	0.662
459.89	0.661
460.09	0.660
460.29	0.661
460.49	0.662
460.70	0.661
460.90	0.660
461.10	0.661
461.31	0.660
461.51	0.658
461.71	0.659
461.91	0.660
462.12	0.661
462.32	0.660
462.52	0.661
462.72	0.663
462.93	0.664
463.13	0.663
463.33	0.663
463.53	0.665
463.74	0.664
463.94	0.660
464.14	0.661
464.35	0.662
464.55	0.661
464.75	0.660
464.95	0.658
465.16	0.659
465.36	0.658
465.56	0.657
465.76	0.656
465.97	0.657
466.17	0.658
466.37	0.656
466.57	0.656
466.78	0.657
466.98	0.656
467.18	0.654
467.38	0.653
467.59	0.654
467.79	0.655
467.99	0.654
468.19	0.655
468.39	0.658
468.60	0.658
468.80	0.657
469.00	0.658
469.20	0.659
469.41	0.659
469.61	0.659
469.81	0.659
470.01	0.659
470.22	0.659
470.42	0.658
470.62	0.655
470.82	0.656
471.02	0.656
471.23	0.654
471.43	0.654
471.63	0.657
471.83	0.656
472.04	0.655
472.24	0.654
472.44	0.660
472.64	0.660
472.84	0.658
473.05	0.658
473.25	0.661
473.45	0.660
473.65	0.659
473.85	0.659
474.06	0.660
474.26	0.660
474.46	0.660
474.66	0.656
474.86	0.657
475.07	0.656
475.27	0.655
475.47	0.652
475.67	0.653
475.87	0.655
476.08	0.651
476.28	0.652
476.48	0.654
476.68	0.653
476.88	0.651
477.09	0.652
477.29	0.654
477.49	0.654
477.69	0.653
477.89	0.653
478.09	0.653
478.30	0.655
478.50	0.652
478.70	0.652
478.90	0.652
479.10	0.655
479.31	0.656
479.51	0.654
479.71	0.655
479.91	0.655
480.11	0.653
480.31	0.653
480.52	0.652
480.72	0.652
480.92	0.651
481.12	0.650
481.32	0.647
481.52	0.645
481.72	0.645
481.93	0.648
482.13	0.649
482.33	0.649
482.53	0.647
482.73	0.648
482.93	0.650
483.14	0.649
483.34	0.649
483.54	0.650
483.74	0.649
483.94	0.648
484.14	0.644
484.34	0.644
484.55	0.645
484.75	0.645
484.95	0.642
485.15	0.641
485.35	0.641
485.55	0.641
485.75	0.640
485.96	0.640
486.16	0.641
486.36	0.640
486.56	0.638
486.76	0.638
486.96	0.638
487.16	0.638
487.36	0.636
487.57	0.636
487.77	0.636
487.97	0.636
488.17	0.634
488.37	0.634
488.57	0.634
488.77	0.634
488.97	0.633
489.18	0.632
489.38	0.634
489.58	0.635
489.78	0.634
489.98	0.634
490.18	0.634
490.38	0.635
490.58	0.634
490.78	0.635
490.98	0.637
491.19	0.637
491.39	0.637
491.59	0.636
491.79	0.639
491.99	0.640
492.19	0.640
492.39	0.642
492.59	0.642
492.79	0.644
492.99	0.644
493.20	0.644
493.40	0.644
493.60	0.645
493.80	0.643
494.00	0.640
494.20	0.641
494.40	0.640
494.60	0.638
494.80	0.642
495.00	0.641
495.20	0.639
495.40	0.639
495.61	0.640
495.81	0.641
496.01	0.644
496.21	0.645
496.41	0.644
496.61	0.645
496.81	0.644
497.01	0.639
497.21	0.638
497.41	0.639
497.61	0.637
497.81	0.635
498.01	0.635
498.21	0.632
498.41	0.631
498.61	0.631
498.82	0.632
499.02	0.634
499.22	0.634
499.42	0.634
499.62	0.636
499.82	0.637
500.02	0.638
500.22	0.637
500.42	0.639
500.62	0.639
500.82	0.640
501.02	0.638
501.22	0.638
501.42	0.637
501.62	0.639
501.82	0.639
502.02	0.639
502.22	0.639
502.42	0.640
502.62	0.638
502.82	0.638
503.02	0.639
503.22	0.639
503.42	0.637
503.63	0.637
503.83	0.634
504.03	0.633
504.23	0.631
504.43	0.632
504.63	0.632
504.83	0.632
505.03	0.631
505.23	0.633
505.43	0.634
505.63	0.635
505.83	0.635
506.03	0.636
506.23	0.638
506.43	0.639
506.63	0.638
506.83	0.637
507.03	0.639
507.23	0.639
507.43	0.637
507.63	0.638
507.83	0.638
508.03	0.638
508.23	0.638
508.43	0.637
508.63	0.638
508.83	0.639
509.03	0.640
509.23	0.639
509.43	0.640
509.63	0.640
509.83	0.639
510.03	0.641
510.23	0.643
510.43	0.643
510.63	0.643
510.83	0.643
511.03	0.644
511.23	0.642
511.43	0.642
511.63	0.643
511.83	0.645
512.03	0.645
512.22	0.642
512.42	0.641
512.62	0.642
512.82	0.641
513.02	0.641
513.22	0.640
513.42	0.643
513.62	0.645
513.82	0.643
514.02	0.643
514.22	0.644
514.42	0.644
514.62	0.644
514.82	0.644
515.02	0.647
515.22	0.649
515.42	0.648
515.62	0.650
515.82	0.649
516.02	0.651
516.22	0.651
516.42	0.652
516.62	0.654
516.82	0.655
517.01	0.653
517.21	0.652
517.41	0.656
517.61	0.657
517.81	0.653
518.01	0.652
518.21	0.651
518.41	0.650
518.61	0.649
518.81	0.649
519.01	0.650
519.21	0.650
519.41	0.649
519.61	0.644
519.81	0.645
520.00	0.646
520.20	0.647
520.40	0.650
520.60	0.650
520.80	0.649
521.00	0.649
521.20	0.650
521.40	0.654
521.60	0.655
521.80	0.654
522.00	0.655
522.20	0.657
522.39	0.657
522.59	0.654
522.79	0.656
522.99	0.658
523.19	0.657
523.39	0.655
523.59	0.653
523.79	0.656
523.99	0.658
524.19	0.657
524.38	0.655
524.58	0.656
524.78	0.656
524.98	0.654
525.18	0.657
525.38	0.658
525.58	0.658
525.78	0.656
525.98	0.655
526.18	0.655
526.37	0.654
526.57	0.657
526.77	0.656
526.97	0.657
527.17	0.657
527.37	0.653
527.57	0.655
527.77	0.656
527.96	0.656
528.16	0.655
528.36	0.656
528.56	0.658
528.76	0.656
528.96	0.655
529.16	0.656
529.36	0.659
529.55	0.659
529.75	0.656
529.95	0.657
530.15	0.659
530.35	0.662
530.55	0.659
530.75	0.659
530.94	0.660
531.14	0.661
531.34	0.659
531.54	0.657
531.74	0.660
531.94	0.663
532.13	0.661
532.33	0.663
532.53	0.661
532.73	0.660
532.93	0.659
533.13	0.660
533.33	0.661
533.52	0.661
533.72	0.665
533.92	0.664
534.12	0.662
534.32	0.662
534.52	0.660
534.71	0.662
534.91	0.665
535.11	0.666
535.31	0.664
535.51	0.666
535.71	0.667
535.90	0.664
536.10	0.665
536.30	0.666
536.50	0.667
536.70	0.668
536.89	0.665
537.09	0.665
537.29	0.666
537.49	0.667
537.69	0.665
537.89	0.666
538.08	0.665
538.28	0.663
538.48	0.664
538.68	0.665
538.88	0.667
539.07	0.667
539.27	0.666
539.47	0.664
539.67	0.665
539.87	0.666
540.06	0.664
540.26	0.665
540.46	0.668
540.66	0.665
540.86	0.662
541.05	0.662
541.25	0.664
541.45	0.664
541.65	0.663
541.84	0.665
542.04	0.666
542.24	0.666
542.44	0.666
542.64	0.667
542.83	0.670
543.03	0.670
543.23	0.669
543.43	0.669
543.62	0.670
543.82	0.670
544.02	0.668
544.22	0.668
544.42	0.671
544.61	0.671
544.81	0.668
545.01	0.666
545.21	0.668
545.40	0.668
545.60	0.667
545.80	0.670
546.00	0.670
546.19	0.669
546.39	0.668
546.59	0.666
546.79	0.667
546.98	0.667
547.18	0.667
547.38	0.668
547.58	0.670
547.77	0.670
547.97	0.667
548.17	0.669
548.37	0.669
548.56	0.669
548.76	0.669
548.96	0.670
549.16	0.673
549.35	0.673
549.55	0.671
549.75	0.671
549.95	0.675
550.14	0.675
550.34	0.674
550.54	0.678
550.73	0.682
550.93	0.683
551.13	0.680
551.33	0.678
551.52	0.679
551.72	0.679
551.92	0.677
552.12	0.677
552.31	0.678
552.51	0.678
552.71	0.674
552.90	0.673
553.10	0.673
553.30	0.673
553.50	0.673
553.69	0.674
553.89	0.675
554.09	0.675
554.28	0.672
554.48	0.674
554.68	0.676
554.87	0.675
555.07	0.672
555.27	0.672
555.47	0.673
555.66	0.674
555.86	0.672
556.06	0.674
556.25	0.675
556.45	0.683
556.65	0.680
556.84	0.683
557.04	0.687
557.24	0.688
557.43	0.688
557.63	0.691
557.83	0.693
558.02	0.693
558.22	0.697
558.42	0.697
558.61	0.691
558.81	0.692
559.01	0.689
559.21	0.688
559.40	0.689
559.60	0.689
559.80	0.686
559.99	0.687
560.19	0.689
560.39	0.683
560.58	0.681
560.78	0.681
560.97	0.683
561.17	0.682
561.37	0.680
561.56	0.681
561.76	0.682
561.96	0.681
562.15	0.679
562.35	0.682
562.55	0.683
562.74	0.683
562.94	0.683
563.14	0.681
563.33	0.682
563.53	0.682
563.73	0.679
563.92	0.682
564.12	0.684
564.31	0.687
564.51	0.685
564.71	0.686
564.90	0.688
565.10	0.689
565.30	0.692
565.49	0.692
565.69	0.695
565.89	0.695
566.08	0.692
566.28	0.693
566.47	0.694
566.67	0.693
566.87	0.690
567.06	0.693
567.26	0.699
567.46	0.694
567.65	0.694
567.85	0.694
568.04	0.698
568.24	0.697
568.44	0.695
568.63	0.693
568.83	0.695
569.02	0.694
569.22	0.689
569.42	0.684
569.61	0.687
569.81	0.686
570.00	0.684
570.20	0.685
570.40	0.686
570.59	0.686
570.79	0.684
570.98	0.683
571.18	0.684
571.38	0.684
571.57	0.682
571.77	0.680
571.96	0.683
572.16	0.680
572.35	0.675
572.55	0.676
572.75	0.674
572.94	0.674
573.14	0.672
573.33	0.672
573.53	0.672
573.73	0.672
573.92	0.670
574.12	0.668
574.31	0.670
574.51	0.671
574.70	0.669
574.90	0.671
575.09	0.672
575.29	0.672
575.49	0.670
575.68	0.671
575.88	0.673
576.07	0.674
576.27	0.672
576.46	0.670
576.66	0.669
576.86	0.668
577.05	0.666
577.25	0.665
577.44	0.666
577.64	0.665
577.83	0.663
578.03	0.664
578.22	0.664
578.42	0.663
578.61	0.662
578.81	0.662
579.00	0.663
579.20	0.663
579.40	0.661
579.59	0.660
579.79	0.661
579.98	0.660
580.18	0.660
580.37	0.660
580.57	0.662
580.76	0.667
580.96	0.665
581.15	0.666
581.35	0.667
581.54	0.667
581.74	0.667
581.93	0.669
582.13	0.669
582.32	0.666
582.52	0.664
582.71	0.663
582.91	0.659
583.10	0.659
583.30	0.659
583.49	0.658
583.69	0.661
583.88	0.662
584.08	0.660
584.27	0.663
584.47	0.667
584.66	0.668
584.86	0.668
585.05	0.670
585.25	0.672
585.44	0.671
585.64	0.670
585.83	0.667
586.03	0.667
586.22	0.666
586.42	0.661
586.61	0.663
586.81	0.664
587.00	0.664
587.20	0.661
587.39	0.662
587.59	0.663
587.78	0.665
587.98	0.665
588.17	0.666
588.37	0.668
588.56	0.670
588.76	0.666
588.95	0.666
589.15	0.670
589.34	0.672
589.54	0.671
589.73	0.672
589.92	0.674
590.12	0.675
590.31	0.673
590.51	0.679
590.70	0.681
590.90	0.682
591.09	0.680
591.29	0.678
591.48	0.678
591.68	0.679
591.87	0.678
592.06	0.677
592.26	0.680
592.45	0.679
592.65	0.673
592.84	0.672
593.04	0.675
593.23	0.677
593.43	0.674
593.62	0.674
593.81	0.673
594.01	0.672
594.20	0.670
594.40	0.668
594.59	0.670
594.79	0.671
594.98	0.669
595.17	0.668
595.37	0.669
595.56	0.671
595.76	0.671
595.95	0.673
596.14	0.677
596.34	0.678
596.53	0.677
596.73	0.678
596.92	0.679
597.12	0.683
597.31	0.683
597.50	0.681
597.70	0.683
597.89	0.682
598.09	0.679
598.28	0.680
598.47	0.682
598.67	0.680
598.86	0.677
599.06	0.679
599.25	0.678
599.44	0.677
599.64	0.674
599.83	0.672
600.03	0.675
600.22	0.675
600.41	0.675
600.61	0.673
600.80	0.675
601.00	0.676
601.19	0.672
601.38	0.670
601.58	0.672
601.77	0.673
601.96	0.674
602.16	0.674
602.35	0.683
602.55	0.680
602.74	0.682
602.93	0.683
603.13	0.688
603.32	0.690
603.51	0.690
603.71	0.694
603.90	0.696
604.09	0.697
604.29	0.694
604.48	0.689
604.68	0.690
604.87	0.689
605.06	0.685
605.26	0.682
605.45	0.682
605.64	0.681
605.84	0.676
606.03	0.675
606.22	0.673
606.42	0.673
606.61	0.669
606.80	0.669
607.00	0.670
607.19	0.670
607.38	0.668
607.58	0.669
607.77	0.672
607.96	0.672
608.16	0.670
608.35	0.675
608.54	0.678
608.74	0.681
608.93	0.686
609.12	0.689
609.32	0.692
609.51	0.696
609.70	0.695
609.90	0.696
610.09	0.701
610.28	0.707
610.48	0.701
610.67	0.702
610.86	0.703
611.06	0.697
611.25	0.695
611.44	0.695
611.64	0.695
611.83	0.698
612.02	0.694
612.21	0.693
612.41	0.692
612.60	0.691
612.79	0.687
612.99	0.688
613.18	0.689
613.37	0.688
613.57	0.686
613.76	0.687
613.95	0.684
614.14	0.684
614.34	0.681
614.53	0.682
614.72	0.684
614.92	0.685
615.11	0.682
615.30	0.679
615.49	0.679
615.69	0.681
615.88	0.677
616.07	0.679
616.26	0.681
616.46	0.682
616.65	0.679
616.84	0.678
617.04	0.678
617.23	0.681
617.42	0.682
617.61	0.686
617.81	0.687
618.00	0.690
618.19	0.688
618.38	0.692
618.58	0.696
618.77	0.698
618.96	0.697
619.15	0.700
619.35	0.701
619.54	0.702
619.73	0.697
619.92	0.699
620.12	0.703
620.31	0.702
620.50	0.698
620.69	0.698
620.89	0.700
621.08	0.700
621.27	0.701
621.46	0.700
621.66	0.703
621.85	0.703
622.04	0.699
622.23	0.700
622.43	0.701
622.62	0.700
622.81	0.698
623.00	0.699
623.19	0.702
623.39	0.700
623.58	0.698
623.77	0.697
623.96	0.700
624.16	0.700
624.35	0.695
624.54	0.698
624.73	0.702
624.92	0.700
625.12	0.697
625.31	0.697
625.50	0.699
625.69	0.700
625.88	0.695
626.08	0.696
626.27	0.696
626.46	0.697
626.65	0.694
626.84	0.695
627.04	0.700
627.23	0.700
627.42	0.697
627.61	0.699
627.80	0.701
628.00	0.702
628.19	0.700
628.38	0.704
628.57	0.706
628.76	0.706
628.96	0.702
629.15	0.702
629.34	0.704
629.53	0.704
629.72	0.699
629.91	0.701
630.11	0.705
630.30	0.706
630.49	0.709
630.68	0.709
630.87	0.713
631.06	0.714
631.26	0.710
631.45	0.712
631.64	0.720
631.83	0.721
632.02	0.719
632.21	0.717
632.41	0.723
632.60	0.717
632.79	0.716
632.98	0.717
633.17	0.718
633.36	0.720
633.55	0.716
633.75	0.712
633.94	0.713
634.13	0.713
634.32	0.710
634.51	0.705
634.70	0.707
634.89	0.706
635.09	0.702
635.28	0.702
635.47	0.703
635.66	0.706
635.85	0.703
636.04	0.704
636.23	0.708
636.43	0.710
636.62	0.709
636.81	0.708
637.00	0.711
637.19	0.715
637.38	0.712
637.57	0.712
637.76	0.714
637.95	0.714
638.15	0.711
638.34	0.708
638.53	0.710
638.72	0.713
638.91	0.710
639.10	0.708
639.29	0.708
639.48	0.709
639.67	0.709
639.87	0.708
640.06	0.713
640.25	0.713
640.44	0.713
640.63	0.714
640.82	0.716
641.01	0.716
641.20	0.715
641.39	0.717
641.58	0.716
641.78	0.716
641.97	0.712
642.16	0.726
642.35	0.726
642.54	0.725
642.73	0.720
642.92	0.717
643.11	0.720
643.30	0.720
643.49	0.716
643.68	0.718
643.87	0.719
644.06	0.718
644.25	0.699
644.45	0.701
644.64	0.702
644.83	0.702
645.02	0.700
645.21	0.699
645.40	0.701
645.59	0.700
645.78	0.696
645.97	0.699
646.16	0.700
646.35	0.699
646.54	0.699
646.73	0.701
646.92	0.702
647.11	0.702
647.30	0.698
647.49	0.700
647.68	0.699
647.88	0.697
648.07	0.690
648.26	0.694
648.45	0.695
648.64	0.691
648.83	0.688
649.02	0.690
649.21	0.701
649.40	0.700
649.59	0.695
649.78	0.696
649.97	0.710
650.16	0.710
650.35	0.704
650.54	0.707
650.73	0.716
650.92	0.713
651.11	0.707
651.30	0.704
651.49	0.708
651.68	0.709
651.87	0.705
652.06	0.694
652.25	0.698
652.44	0.700
652.63	0.700
652.82	0.701
653.01	0.702
653.20	0.700
653.39	0.690
653.58	0.687
653.77	0.686
653.96	0.682
654.15	0.675
654.34	0.673
654.53	0.668
654.72	0.661
654.91	0.651
655.10	0.646
655.29	0.644
655.48	0.642
655.67	0.637
655.86	0.634
656.05	0.632
656.24	0.631
656.43	0.626
656.62	0.625
656.81	0.624
657.00	0.621
657.19	0.617
657.38	0.616
657.57	0.615
657.76	0.616
657.95	0.614
658.14	0.617
658.33	0.619
658.51	0.623
658.70	0.623
658.89	0.625
659.08	0.635
659.27	0.644
659.46	0.644
659.65	0.651
659.84	0.655
660.03	0.659
660.22	0.660
660.41	0.665
660.60	0.664
660.79	0.665
660.98	0.671
661.17	0.671
661.36	0.669
661.55	0.671
661.74	0.669
661.92	0.671
662.11	0.673
662.30	0.671
662.49	0.664
662.68	0.664
662.87	0.668
663.06	0.662
663.25	0.664
663.44	0.665
663.63	0.666
663.82	0.665
664.01	0.660
664.20	0.658
664.38	0.659
664.57	0.661
664.76	0.660
664.95	0.660
665.14	0.665
665.33	0.659
665.52	0.666
665.71	0.670
665.90	0.669
666.09	0.670
666.28	0.667
666.46	0.667
666.65	0.667
666.84	0.665
667.03	0.660
667.22	0.657
667.41	0.660
667.60	0.650
667.79	0.643
667.98	0.644
668.16	0.646
668.35	0.646
668.54	0.642
668.73	0.643
668.92	0.643
669.11	0.642
669.30	0.638
669.49	0.634
669.67	0.636
669.86	0.639
670.05	0.637
670.24	0.634
670.43	0.632
670.62	0.630
670.81	0.626
671.00	0.626
671.18	0.626
671.37	0.625
671.56	0.624
671.75	0.622
671.94	0.619
672.13	0.616
672.32	0.612
672.50	0.611
672.69	0.612
672.88	0.612
673.07	0.608
673.26	0.610
673.45	0.611
673.63	0.610
673.82	0.607
674.01	0.609
674.20	0.609
674.39	0.609
674.58	0.609
674.76	0.609
674.95	0.607
675.14	0.608
675.33	0.603
675.52	0.602
675.71	0.602
675.89	0.601
676.08	0.598
676.27	0.598
676.46	0.598
676.65	0.597
676.84	0.596
677.02	0.598
677.21	0.598
677.40	0.598
677.59	0.595
677.78	0.597
677.96	0.599
678.15	0.598
678.34	0.596
678.53	0.597
678.72	0.597
678.90	0.594
679.09	0.590
679.28	0.588
679.47	0.588
679.66	0.587
679.84	0.584
680.03	0.581
680.22	0.580
680.41	0.582
680.60	0.578
680.78	0.577
680.97	0.579
681.16	0.579
681.35	0.578
681.53	0.577
681.72	0.578
681.91	0.580
682.10	0.579
682.29	0.581
682.47	0.578
682.66	0.577
682.85	0.576
683.04	0.574
683.22	0.574
683.41	0.575
683.60	0.574
683.79	0.575
683.97	0.574
684.16	0.573
684.35	0.569
684.54	0.571
684.72	0.571
684.91	0.572
685.10	0.571
685.29	0.572
685.47	0.569
685.66	0.568
685.85	0.565
686.04	0.564
686.22	0.566
686.41	0.569
686.60	0.566
686.79	0.569
686.97	0.569
687.16	0.571
687.35	0.567
687.54	0.571
687.72	0.574
687.91	0.575
688.10	0.577
688.29	0.576
688.47	0.574
688.66	0.574
688.85	0.569
689.03	0.568
689.22	0.573
689.41	0.573
689.60	0.569
689.78	0.566
689.97	0.566
690.16	0.563
690.34	0.560
690.53	0.559
690.72	0.560
690.91	0.559
691.09	0.556
691.28	0.550
691.47	0.548
691.65	0.548
691.84	0.545
692.03	0.545
692.21	0.543
692.40	0.542
692.59	0.540
692.77	0.538
692.96	0.539
693.15	0.540
693.34	0.538
693.52	0.538
693.71	0.538
693.90	0.539
694.08	0.540
694.27	0.541
694.46	0.551
694.64	0.552
694.83	0.552
695.02	0.550
695.20	0.550
695.39	0.550
695.58	0.550
695.76	0.550
695.95	0.549
696.14	0.548
696.32	0.546
696.51	0.537
696.70	0.537
696.88	0.538
697.07	0.537
697.26	0.538
697.44	0.539
697.63	0.537
697.81	0.535
698.00	0.535
698.19	0.534
698.37	0.534
698.56	0.534
698.75	0.534
698.93	0.533
699.12	0.533
699.31	0.532
699.49	0.531
699.68	0.532
699.87	0.535
700.05	0.535
700.24	0.534
700.42	0.536
700.61	0.535
700.80	0.533
700.98	0.534
701.17	0.535
701.36	0.534
701.54	0.534
701.73	0.535
701.91	0.532
702.10	0.531
702.29	0.529
702.47	0.528
702.66	0.529
702.84	0.530
703.03	0.528
703.22	0.529
703.40	0.529
703.59	0.530
703.77	0.529
703.96	0.529
704.15	0.530
704.33	0.530
704.52	0.530
704.70	0.529
704.89	0.529
705.08	0.528
705.26	0.524
705.45	0.524
705.63	0.523
705.82	0.521
706.00	0.520
706.19	0.520
706.38	0.519
706.56	0.518
706.75	0.517
706.93	0.516
707.12	0.517
707.30	0.517
707.49	0.515
707.68	0.514
707.86	0.513
708.05	0.513
708.23	0.509
708.42	0.510
708.60	0.512
708.79	0.512
708.98	0.510
709.16	0.510
709.35	0.512
709.53	0.516
709.72	0.515
709.90	0.517
710.09	0.519
710.27	0.521
710.46	0.525
710.64	0.524
710.83	0.525
711.02	0.527
711.20	0.526
711.39	0.524
711.57	0.522
711.76	0.521
711.94	0.519
712.13	0.520
712.31	0.519
712.50	0.515
712.68	0.513
712.87	0.513
713.05	0.513
713.24	0.513
713.42	0.513
713.61	0.514
713.79	0.515
713.98	0.515
714.16	0.517
714.35	0.516
714.54	0.517
714.72	0.517
714.91	0.515
715.09	0.521
715.28	0.524
715.46	0.523
715.65	0.521
715.83	0.520
716.02	0.523
716.20	0.519
716.39	0.519
716.57	0.521
716.76	0.523
716.94	0.523
717.12	0.515
717.31	0.516
717.49	0.519
717.68	0.522
717.86	0.521
718.05	0.523
718.23	0.525
718.42	0.526
718.60	0.527
718.79	0.534
718.97	0.536
719.16	0.536
719.34	0.534
719.53	0.534
719.71	0.533
719.90	0.534
720.08	0.531
720.27	0.531
720.45	0.531
720.63	0.531
720.82	0.525
721.00	0.528
721.19	0.531
721.37	0.530
721.56	0.530
721.74	0.533
721.93	0.541
722.11	0.547
722.30	0.547
722.48	0.552
722.66	0.553
722.85	0.553
723.03	0.553
723.22	0.552
723.40	0.555
723.59	0.555
723.77	0.559
723.95	0.552
724.14	0.554
724.32	0.555
724.51	0.554
724.69	0.555
724.88	0.555
725.06	0.554
725.24	0.554
725.43	0.557
725.61	0.559
725.80	0.553
725.98	0.551
726.16	0.549
726.35	0.554
726.53	0.553
726.72	0.553
726.90	0.562
727.09	0.563
727.27	0.568
727.45	0.564
727.64	0.573
727.82	0.582
728.01	0.587
728.19	0.584
728.37	0.590
728.56	0.593
728.74	0.599
728.92	0.588
729.11	0.590
729.29	0.588
729.48	0.590
729.66	0.580
729.84	0.580
730.03	0.582
730.21	0.584
730.40	0.575
730.58	0.576
730.76	0.575
730.95	0.578
731.13	0.579
731.31	0.593
731.50	0.603
731.68	0.607
731.86	0.603
732.05	0.618
732.23	0.620
732.42	0.623
732.60	0.627
732.78	0.632
732.97	0.650
733.15	0.655
733.33	0.644
733.52	0.649
733.70	0.657
733.88	0.666
734.07	0.653
734.25	0.677
734.43	0.684
734.62	0.687
734.80	0.681
734.98	0.673
735.17	0.679
735.35	0.684
735.53	0.674
735.72	0.678
735.90	0.697
736.08	0.713
736.27	0.692
736.45	0.701
736.63	0.711
736.82	0.720
737.00	0.720
737.18	0.731
737.37	0.760
737.55	0.782
737.73	0.776
737.92	0.776
738.10	0.773
738.28	0.791
738.46	0.783
738.65	0.792
738.83	0.813
739.01	0.862
739.20	0.853
739.38	0.836
739.56	0.824
739.75	0.829
739.93	0.801
740.11	0.822
740.29	0.821
740.48	0.826
740.66	0.810
740.84	0.803
741.03	0.763
741.21	0.772
741.39	0.760
741.57	0.774
741.76	0.789
741.94	0.793
742.12	0.764
742.31	0.768
742.49	0.788
742.67	0.809
742.85	0.822
743.04	0.832
743.22	0.837
743.40	0.884
743.58	0.866
743.77	0.881
743.95	0.908
744.13	0.951
744.31	0.933
744.50	0.923
744.68	0.915
744.86	0.896
745.04	0.907
745.23	0.966
745.41	0.947
745.59	0.954
745.77	0.922
745.96	0.918
746.14	0.928
746.32	0.928
746.50	0.923
746.69	0.910
746.87	0.915
747.05	0.905
747.23	0.839
747.42	0.824
747.60	0.844
747.78	0.847
747.96	0.872
748.14	0.832
748.33	0.856
748.51	0.851
748.69	0.847
748.87	0.867
749.06	0.857
749.24	0.857
749.42	0.851
749.60	0.834
749.78	0.842
749.97	0.804
750.15	0.799
750.33	0.801
750.51	0.820
750.69	0.823
750.88	0.833
751.06	0.842
751.24	0.865
751.42	0.856
751.60	0.849
751.79	0.912
751.97	0.947
752.15	0.945
752.33	0.916
752.51	0.967
752.69	0.983
752.88	0.957
753.06	0.999
753.24	0.971
753.42	0.999
753.60	1.144
753.78	1.029
753.97	1.049
754.15	1.062
754.33	1.092
754.51	0.994
754.69	0.983
754.87	1.009
755.06	0.947
755.24	0.951
755.42	0.957
755.60	0.864
755.78	0.870
755.96	0.821
756.15	0.821
756.33	0.823
756.51	0.837
756.69	0.824
756.87	0.793
757.05	0.811
757.23	0.796
757.42	0.767
757.60	0.766
757.78	0.757
757.96	0.754
758.14	0.741
758.32	0.726
758.50	0.737
758.69	0.734
758.87	0.726
759.05	0.725
759.23	0.731
759.41	0.730
759.59	0.723
759.77	0.741
759.95	0.766
760.13	0.809
760.32	0.809
760.50	0.805
760.68	0.826
760.86	0.828
761.04	0.808
761.22	0.814
761.40	0.859
761.58	0.863
761.76	0.838
761.95	0.821
762.13	0.783
762.31	0.785
762.49	0.759
762.67	0.774
762.85	0.782
763.03	0.778
763.21	0.763
763.39	0.744
763.57	0.743
763.75	0.741
763.94	0.730
764.12	0.732
764.30	0.751
764.48	0.756
764.66	0.724
764.84	0.723
765.02	0.755
765.20	0.760
765.38	0.745
765.56	0.752
765.74	0.786
765.92	0.781
766.10	0.787
766.28	0.780
766.46	0.803
766.65	0.803
766.83	0.793
767.01	0.778
767.19	0.784
767.37	0.784
767.55	0.771
767.73	0.753
767.91	0.755
768.09	0.745
768.27	0.736
768.45	0.727
768.63	0.731
768.81	0.732
768.99	0.711
769.17	0.731
769.35	0.741
769.53	0.741
769.71	0.724
769.89	0.733
770.07	0.736
770.25	0.721
770.43	0.703
770.61	0.723
770.79	0.727
770.97	0.734
771.15	0.707
771.33	0.710
771.51	0.709
771.69	0.718
771.87	0.724
772.05	0.727
772.24	0.731
772.42	0.738
772.60	0.720
772.78	0.774
772.96	0.797
773.14	0.796
773.32	0.778
773.49	0.785
773.67	0.784
773.85	0.768
774.03	0.762
774.21	0.792
774.39	0.802
774.57	0.825
774.75	0.763
774.93	0.760
775.11	0.779
775.29	0.786
775.47	0.791
775.65	0.797
775.83	0.809
776.01	0.825
776.19	0.786
776.37	0.787
776.55	0.783
776.73	0.779
776.91	0.776
777.09	0.758
777.27	0.755
777.45	0.745
777.63	0.725
777.81	0.724
777.99	0.714
778.17	0.713
778.35	0.694
778.53	0.683
778.71	0.687
778.89	0.675
779.07	0.667
779.24	0.669
779.42	0.668
779.60	0.685
779.78	0.682
779.96	0.683
780.14	0.687
780.32	0.707
780.50	0.693
780.68	0.690
780.86	0.683
781.04	0.701
781.22	0.708
781.40	0.719
781.58	0.707
781.75	0.700
781.93	0.689
782.11	0.690
782.29	0.676
782.47	0.674
782.65	0.664
782.83	0.688
783.01	0.678
783.19	0.671
783.37	0.656
783.55	0.660
783.72	0.676
783.90	0.685
784.08	0.678
784.26	0.688
784.44	0.708
784.62	0.712
784.80	0.684
784.98	0.692
785.16	0.699
785.33	0.714
785.51	0.702
785.69	0.690
785.87	0.690
786.05	0.701
786.23	0.700
786.41	0.698
786.59	0.704
786.77	0.704
786.94	0.692
787.12	0.695
787.30	0.697
787.48	0.695
787.66	0.684
787.84	0.684
788.02	0.674
788.19	0.672
788.37	0.658
788.55	0.658
788.73	0.658
788.91	0.653
789.09	0.638
789.27	0.627
789.44	0.638
789.62	0.644
789.80	0.652
789.98	0.673
790.16	0.661
790.34	0.658
790.51	0.648
790.69	0.667
790.87	0.670
791.05	0.668
791.23	0.663
791.41	0.662
791.58	0.665
791.76	0.647
791.94	0.620
792.12	0.629
792.30	0.632
792.48	0.631
792.65	0.624
792.83	0.632
793.01	0.636
793.19	0.635
793.37	0.621
793.54	0.619
793.72	0.629
793.90	0.628
794.08	0.615
794.26	0.615
794.43	0.621
794.61	0.607
794.79	0.597
794.97	0.596
795.15	0.600
795.32	0.604
795.50	0.595
795.68	0.590
795.86	0.593
796.04	0.596
796.21	0.591
796.39	0.589
796.57	0.601
796.75	0.609
796.92	0.611
797.10	0.615
797.28	0.616
797.46	0.621
797.64	0.622
797.81	0.629
797.99	0.632
798.17	0.635
798.35	0.632
798.52	0.635
798.70	0.631
798.88	0.638
799.06	0.639
799.23	0.641
799.41	0.647
799.59	0.642
799.77	0.633
799.94	0.643
800.12	0.651
800.30	0.668
800.48	0.666
800.65	0.665
800.83	0.654
801.01	0.646
801.19	0.646
801.36	0.642
801.54	0.643
801.72	0.651
801.90	0.637
802.07	0.634
802.25	0.620
802.43	0.606
802.60	0.604
802.78	0.611
802.96	0.616
803.14	0.612
803.31	0.611
803.49	0.611
803.67	0.606
803.84	0.610
804.02	0.603
804.20	0.605
804.38	0.609
804.55	0.608
804.73	0.596
804.91	0.596
805.08	0.608
805.26	0.604
805.44	0.667
805.61	0.671
805.79	0.670
805.97	0.669
806.15	0.663
806.32	0.659
806.50	0.663
806.68	0.662
806.85	0.655
807.03	0.645
807.21	0.658
807.38	0.595
807.56	0.585
807.74	0.594
807.91	0.598
808.09	0.600
808.27	0.617
808.44	0.642
808.62	0.649
808.80	0.649
808.97	0.645
809.15	0.642
809.33	0.656
809.50	0.663
809.68	0.650
809.86	0.658
810.03	0.687
810.21	0.670
810.39	0.655
810.56	0.662
810.74	0.683
810.91	0.750
811.09	0.740
811.27	0.758
811.44	0.763
811.62	0.766
811.80	0.752
811.97	0.722
812.15	0.722
812.33	0.716
812.50	0.703
812.68	0.692
812.85	0.640
813.03	0.644
813.21	0.617
813.38	0.611
813.56	0.613
813.74	0.622
813.91	0.629
814.09	0.655
814.26	0.648
814.44	0.652
814.62	0.643
814.79	0.646
814.97	0.648
815.14	0.651
815.32	0.660
815.50	0.675
815.67	0.678
815.85	0.669
816.02	0.660
816.20	0.667
816.38	0.681
816.55	0.688
816.73	0.687
816.90	0.696
817.08	0.724
817.26	0.725
817.43	0.708
817.61	0.731
817.78	0.749
817.96	0.732
818.13	0.724
818.31	0.724
818.49	0.733
818.66	0.725
818.84	0.712
819.01	0.691
819.19	0.693
819.36	0.694
819.54	0.665
819.71	0.703
819.89	0.711
820.07	0.720
820.24	0.714
820.42	0.716
820.59	0.730
820.77	0.754
820.94	0.749
821.12	0.764
821.29	0.777
821.47	0.782
821.64	0.724
821.82	0.735
822.00	0.735
822.17	0.732
822.35	0.725
822.52	0.729
822.70	0.718
822.87	0.728
823.05	0.712
823.22	0.724
823.40	0.744
823.57	0.767
823.75	0.751
823.92	0.772
824.10	0.793
824.27	0.830
824.45	0.821
824.62	0.873
824.80	0.887
824.97	0.896
825.15	0.888
825.32	0.898
825.50	0.895
825.67	0.905
825.85	0.884
826.02	0.892
826.20	0.908
826.37	1.008
826.55	0.944
826.72	1.092
826.90	1.140
827.07	1.179
827.25	1.142
827.42	1.264
827.60	1.359
827.77	1.463
827.95	1.443
828.12	1.503
828.30	1.297
828.47	1.393
828.65	1.128
828.82	1.188
829.00	1.239
829.17	1.316
829.34	1.314
829.52	1.369
829.69	-0.000
829.87	-0.000
830.04	-0.000
830.22	-0.000
830.39	-0.000
830.57	-0.000
830.74	-0.000
830.92	-0.000
831.09	-0.000
831.26	-0.000
831.44	-0.000
831.61	-0.000
831.79	-0.000
831.96	-0.000
832.14	-0.000
832.31	-0.000
832.49	-0.000
832.66	-0.000
832.83	-0.000
833.01	-0.000
833.18	-0.000
833.36	-0.000
833.53	-0.000
833.70	-0.000
833.88	-0.000
834.05	-0.000
834.23	-0.000
834.40	-0.000
834.58	-0.000
834.75	-0.000
834.92	-0.000
835.10	-0.000
835.27	-0.000
835.45	-0.000
835.62	-0.000
835.79	-0.000
835.97	-0.000
836.14	-0.000
836.32	-0.000
836.49	-0.000
836.66	-0.000
836.84	-0.000
837.01	-0.000
837.18	-0.000
837.36	-0.000
837.53	-0.000
837.71	-0.000
837.88	-0.000
838.05	-0.000
838.23	-0.000
838.40	-0.000
838.58	-0.000
838.75	-0.000
838.92	-0.000
839.10	-0.000
839.27	-0.000
839.44	-0.000
839.62	-0.000
839.79	-0.000
839.96	-0.000
840.14	-0.000
840.31	-0.000
840.48	-0.000
840.66	-0.000
840.83	-0.000
841.01	-0.000
841.18	-0.000
841.35	-0.000
841.53	-0.000
841.70	-0.000
841.87	-0.000
842.05	-0.000
842.22	-0.000
842.39	-0.000
842.57	-0.000
842.74	-0.000
842.91	-0.000
843.09	-0.000
843.26	-0.000
843.43	-0.000
843.60	-0.000
843.78	-0.000
843.95	-0.000
844.12	-0.000
844.30	-0.000
844.47	-0.000
844.64	-0.000
844.82	-0.000
844.99	-0.000
845.16	-0.000
845.34	-0.000
845.51	-0.000
845.68	-0.000
845.85	-0.000
846.03	-0.000
846.20	-0.000
846.37	-0.000
846.55	-0.000
846.72	-0.000
846.89	-0.000
847.06	-0.000
847.24	-0.000
847.41	-0.000
847.58	-0.000
847.76	-0.000
847.93	-0.000
848.10	-0.000
848.27	-0.000
848.45	-0.000
848.62	-0.000
848.79	-0.000
848.97	-0.000
849.14	-0.000
849.31	-0.000
849.48	-0.000
849.66	-0.000
849.83	-0.000
850.00	-0.000
850.17	-0.000
850.35	-0.000
850.52	-0.000
850.69	-0.000
850.86	-0.000
851.04	-0.000
851.21	-0.000
851.38	-0.000
851.55	-0.000
851.72	-0.000
851.90	-0.000
852.07	-0.000
852.24	-0.000
852.41	-0.000
852.59	-0.000
852.76	-0.000
852.93	-0.000
853.10	-0.000
853.28	-0.000
853.45	-0.000
853.62	-0.000
853.79	-0.000
853.96	-0.000
854.14	-0.000
854.31	-0.000
854.48	-0.000
854.65	-0.000
854.82	-0.000
855.00	-0.000
855.17	-0.000
855.34	-0.000
855.51	-0.000
855.68	-0.000
855.86	-0.000
856.03	-0.000
856.20	-0.000
856.37	-0.000
856.54	-0.000
856.72	-0.000
856.89	-0.000
857.06	-0.000
857.23	-0.000
857.40	-0.000
857.57	-0.000
857.75	-0.000
857.92	-0.000
858.09	-0.000
858.26	-0.000
858.43	-0.000
858.60	-0.000
858.78	-0.000
858.95	-0.000
859.12	-0.000
859.29	-0.000
859.46	-0.000
859.63	-0.000
859.81	-0.000
859.98	-0.000
860.15	-0.000
860.32	-0.000
860.49	-0.000
860.66	-0.000
860.83	-0.000
861.01	-0.000
861.18	-0.000
861.35	-0.000
861.52	-0.000
861.69	-0.000
861.86	-0.000
862.03	-0.000
862.21	-0.000
862.38	-0.000
862.55	-0.000
862.72	-0.000
862.89	-0.000
863.06	-0.000
863.23	-0.000
863.40	-0.000
863.58	-0.000
863.75	-0.000
863.92	-0.000
864.09	-0.000
864.26	-0.000
864.43	-0.000
864.60	-0.000
864.77	-0.000
864.94	-0.000
865.11	-0.000
865.29	-0.000
865.46	-0.000
865.63	-0.000
865.80	-0.000
865.97	-0.000
866.14	-0.000
866.31	-0.000
866.48	-0.000
866.65	-0.000
866.82	-0.000
866.99	-0.000
867.16	-0.000
867.34	-0.000
867.51	-0.000
867.68	-0.000
867.85	-0.000
868.02	-0.000
868.19	-0.000
868.36	-0.000
868.53	-0.000
868.70	-0.000
868.87	-0.000
869.04	-0.000
869.21	-0.000
869.38	-0.000
869.55	-0.000
869.72	-0.000
869.89	-0.000
870.06	-0.000
870.24	-0.000
870.41	-0.000
870.58	-0.000
870.75	-0.000
870.92	-0.000
871.09	-0.000
871.26	-0.000
871.43	-0.000
871.60	-0.000
871.77	-0.000
871.94	-0.000
872.11	-0.000
872.28	-0.000
872.45	-0.000
872.62	-0.000
872.79	-0.000
872.96	-0.000
873.13	-0.000
873.30	-0.000
873.47	-0.000
873.64	-0.000
873.81	-0.000
873.98	-0.000
874.15	-0.000
874.32	-0.000
874.49	-0.000
874.66	-0.000
874.83	-0.000
875.00	-0.000
875.17	-0.000
875.34	-0.000
875.51	-0.000
875.68	-0.000
875.85	-0.000
876.02	-0.000
876.19	-0.000
876.36	-0.000
876.53	-0.000
876.70	-0.000
876.87	-0.000
877.04	-0.000
877.21	-0.000
877.38	-0.000
877.55	-0.000
877.72	-0.000
877.89	-0.000
878.06	-0.000
878.23	-0.000
878.39	-0.000
878.56	-0.000
878.73	-0.000
878.90	-0.000
879.07	-0.000
879.24	-0.000
879.41	-0.000
879.58	-0.000
879.75	-0.000
879.92	-0.000
880.09	-0.000
880.26	-0.000
880.43	-0.000
880.60	-0.000
880.77	-0.000
880.94	-0.000
881.11	-0.000
881.27	-0.000
881.44	-0.000
881.61	-0.000
881.78	-0.000
881.95	-0.000
882.12	-0.000
882.29	-0.000
882.46	-0.000
882.63	-0.000
882.80	-0.000
882.97	-0.000
883.14	-0.000
883.30	-0.000
883.47	-0.000
883.64	-0.000
883.81	-0.000
883.98	-0.000
884.15	-0.000
884.32	-0.000
884.49	-0.000
884.66	-0.000
884.82	-0.000
884.99	-0.000
885.16	-0.000
885.33	-0.000
885.50	-0.000
885.67	-0.000
885.84	-0.000
886.01	-0.000
886.17	-0.000
886.34	-0.000
886.51	-0.000
886.68	-0.000
886.85	-0.000
887.02	-0.000
887.19	-0.000
887.36	-0.000
887.52	-0.000
887.69	-0.000
887.86	-0.000
888.03	-0.000
888.20	-0.000
888.37	-0.000
888.54	-0.000
888.70	-0.000
888.87	-0.000
889.04	-0.000
889.21	-0.000
889.38	-0.000
889.55	-0.000
889.71	-0.000
889.88	-0.000
890.05	-0.000
890.22	-0.000
890.39	-0.000
>>>>>End Processed Spectral Data<<<<<
