SpectraSuite Data File
++++++++++++++++++++++++++++++++++++
Date: Fri Jun 19 14:58:16 CEST 2015
User: introlabs
Dark Spectrum Present: Yes
Reference Spectrum Present: Yes
Number of Sampled Component Spectra: 1
Spectrometers: USB4H08886
Integration Time (usec): 745692 (USB4H08886)
Spectra Averaged: 5 (USB4H08886)
Boxcar Smoothing: 5 (USB4H08886)
Correct for Electrical Dark: Yes (USB4H08886)
Strobe/Lamp Enabled: No (USB4H08886)
Correct for Detector Non-linearity: Yes (USB4H08886)
Correct for Stray Light: Yes (USB4H08886)
Number of Pixels in Processed Spectrum: 3648
>>>>>Begin Processed Spectral Data<<<<<
178.14	-0.000
178.36	-0.000
178.57	-0.000
178.79	-0.000
179.01	-0.000
179.22	-0.000
179.44	-0.000
179.65	-0.000
179.87	-0.000
180.08	-0.000
180.30	-0.000
180.52	-0.000
180.73	-0.000
180.95	-0.000
181.16	-0.000
181.38	-0.000
181.59	-0.000
181.81	-0.000
182.03	-0.000
182.24	-0.000
182.46	-0.000
182.67	-0.000
182.89	-0.000
183.10	-0.000
183.32	-0.000
183.54	-0.000
183.75	-0.000
183.97	-0.000
184.18	-0.000
184.40	-0.000
184.61	-0.000
184.83	-0.000
185.04	-0.000
185.26	-0.000
185.48	-0.000
185.69	-0.000
185.91	-0.000
186.12	-0.000
186.34	-0.000
186.55	-0.000
186.77	-0.000
186.98	-0.000
187.20	-0.000
187.42	-0.000
187.63	-0.000
187.85	-0.000
188.06	-0.000
188.28	-0.000
188.49	-0.000
188.71	-0.000
188.92	-0.000
189.14	-0.000
189.36	-0.000
189.57	-0.000
189.79	-0.000
190.00	-0.000
190.22	-0.000
190.43	-0.000
190.65	-0.000
190.86	-0.000
191.08	-0.000
191.29	-0.000
191.51	-0.000
191.72	-0.000
191.94	-0.000
192.16	-0.000
192.37	-0.000
192.59	-0.000
192.80	-0.000
193.02	-0.000
193.23	-0.000
193.45	-0.000
193.66	-0.000
193.88	-0.000
194.09	-0.000
194.31	-0.000
194.52	-0.000
194.74	-0.000
194.95	-0.000
195.17	-0.000
195.38	-0.000
195.60	-0.000
195.81	-0.000
196.03	-0.000
196.25	-0.000
196.46	-0.000
196.68	-0.000
196.89	-0.000
197.11	-0.000
197.32	-0.000
197.54	-0.000
197.75	-0.000
197.97	-0.000
198.18	-0.000
198.40	-0.000
198.61	-0.000
198.83	-0.000
199.04	-0.000
199.26	-0.000
199.47	-0.000
199.69	-0.000
199.90	-0.000
200.12	-0.000
200.33	-0.000
200.55	-0.000
200.76	-0.000
200.98	-0.000
201.19	-0.000
201.41	-0.000
201.62	-0.000
201.84	-0.000
202.05	-0.000
202.27	-0.000
202.48	-0.000
202.70	-0.000
202.91	-0.000
203.13	-0.000
203.34	-0.000
203.56	-0.000
203.77	-0.000
203.99	-0.000
204.20	-0.000
204.42	-0.000
204.63	-0.000
204.85	-0.000
205.06	-0.000
205.28	-0.000
205.49	-0.000
205.71	-0.000
205.92	-0.000
206.14	-0.000
206.35	-0.000
206.56	-0.000
206.78	-0.000
206.99	-0.000
207.21	-0.000
207.42	-0.000
207.64	-0.000
207.85	-0.000
208.07	-0.000
208.28	-0.000
208.50	-0.000
208.71	-0.000
208.93	-0.000
209.14	-0.000
209.36	-0.000
209.57	-0.000
209.79	-0.000
210.00	-0.000
210.22	-0.000
210.43	-0.000
210.64	-0.000
210.86	-0.000
211.07	-0.000
211.29	-0.000
211.50	-0.000
211.72	-0.000
211.93	-0.000
212.15	-0.000
212.36	-0.000
212.58	-0.000
212.79	-0.000
213.01	-0.000
213.22	-0.000
213.43	-0.000
213.65	-0.000
213.86	-0.000
214.08	-0.000
214.29	-0.000
214.51	-0.000
214.72	-0.000
214.94	-0.000
215.15	-0.000
215.36	-0.000
215.58	-0.000
215.79	-0.000
216.01	-0.000
216.22	-0.000
216.44	-0.000
216.65	-0.000
216.87	-0.000
217.08	-0.000
217.29	-0.000
217.51	-0.000
217.72	-0.000
217.94	-0.000
218.15	-0.000
218.37	-0.000
218.58	-0.000
218.80	-0.000
219.01	-0.000
219.22	-0.000
219.44	-0.000
219.65	-0.000
219.87	-0.000
220.08	-0.000
220.30	-0.000
220.51	-0.000
220.72	-0.000
220.94	-0.000
221.15	-0.000
221.37	-0.000
221.58	-0.000
221.79	-0.000
222.01	-0.000
222.22	-0.000
222.44	-0.000
222.65	-0.000
222.87	-0.000
223.08	-0.000
223.29	-0.000
223.51	-0.000
223.72	-0.000
223.94	-0.000
224.15	-0.000
224.36	-0.000
224.58	-0.000
224.79	-0.000
225.01	-0.000
225.22	-0.000
225.44	-0.000
225.65	-0.000
225.86	-0.000
226.08	-0.000
226.29	-0.000
226.51	-0.000
226.72	-0.000
226.93	-0.000
227.15	-0.000
227.36	-0.000
227.58	-0.000
227.79	-0.000
228.00	-0.000
228.22	-0.000
228.43	-0.000
228.65	-0.000
228.86	-0.000
229.07	-0.000
229.29	-0.000
229.50	-0.000
229.72	-0.000
229.93	-0.000
230.14	-0.000
230.36	-0.000
230.57	-0.000
230.78	-0.000
231.00	-0.000
231.21	-0.000
231.43	-0.000
231.64	-0.000
231.85	-0.000
232.07	-0.000
232.28	-0.000
232.50	-0.000
232.71	-0.000
232.92	-0.000
233.14	-0.000
233.35	-0.000
233.56	-0.000
233.78	-0.000
233.99	-0.000
234.21	-0.000
234.42	-0.000
234.63	-0.000
234.85	-0.000
235.06	-0.000
235.27	-0.000
235.49	-0.000
235.70	-0.000
235.91	-0.000
236.13	-0.000
236.34	-0.000
236.56	-0.000
236.77	-0.000
236.98	-0.000
237.20	-0.000
237.41	-0.000
237.62	-0.000
237.84	-0.000
238.05	-0.000
238.26	-0.000
238.48	-0.000
238.69	-0.000
238.91	-0.000
239.12	-0.000
239.33	-0.000
239.55	-0.000
239.76	-0.000
239.97	-0.000
240.19	-0.000
240.40	-0.000
240.61	-0.000
240.83	-0.000
241.04	-0.000
241.25	-0.000
241.47	-0.000
241.68	-0.000
241.89	-0.000
242.11	-0.000
242.32	-0.000
242.53	-0.000
242.75	-0.000
242.96	-0.000
243.17	-0.000
243.39	-0.000
243.60	-0.000
243.81	-0.000
244.03	-0.000
244.24	-0.000
244.45	-0.000
244.67	-0.000
244.88	-0.000
245.09	-0.000
245.31	-0.000
245.52	-0.000
245.73	-0.000
245.95	-0.000
246.16	-0.000
246.37	-0.000
246.59	-0.000
246.80	-0.000
247.01	-0.000
247.23	-0.000
247.44	-0.000
247.65	-0.000
247.87	-0.000
248.08	-0.000
248.29	-0.000
248.51	-0.000
248.72	-0.000
248.93	-0.000
249.15	-0.000
249.36	-0.000
249.57	-0.000
249.78	-0.000
250.00	-0.000
250.21	-0.000
250.42	-0.000
250.64	-0.000
250.85	-0.000
251.06	-0.000
251.28	-0.000
251.49	-0.000
251.70	-0.000
251.92	-0.000
252.13	-0.000
252.34	-0.000
252.55	-0.000
252.77	-0.000
252.98	-0.000
253.19	-0.000
253.41	-0.000
253.62	-0.000
253.83	-0.000
254.05	-0.000
254.26	-0.000
254.47	-0.000
254.68	-0.000
254.90	-0.000
255.11	-0.000
255.32	-0.000
255.54	-0.000
255.75	-0.000
255.96	-0.000
256.17	-0.000
256.39	-0.000
256.60	-0.000
256.81	-0.000
257.03	-0.000
257.24	-0.000
257.45	-0.000
257.66	-0.000
257.88	-0.000
258.09	-0.000
258.30	-0.000
258.51	-0.000
258.73	-0.000
258.94	-0.000
259.15	-0.000
259.37	-0.000
259.58	-0.000
259.79	-0.000
260.00	-0.000
260.22	-0.000
260.43	-0.000
260.64	-0.000
260.85	-0.000
261.07	-0.000
261.28	-0.000
261.49	-0.000
261.71	-0.000
261.92	-0.000
262.13	-0.000
262.34	-0.000
262.56	-0.000
262.77	-0.000
262.98	-0.000
263.19	-0.000
263.41	-0.000
263.62	-0.000
263.83	-0.000
264.04	-0.000
264.26	-0.000
264.47	-0.000
264.68	-0.000
264.89	-0.000
265.11	-0.000
265.32	-0.000
265.53	-0.000
265.74	-0.000
265.96	-0.000
266.17	-0.000
266.38	-0.000
266.59	-0.000
266.81	-0.000
267.02	-0.000
267.23	-0.000
267.44	-0.000
267.65	-0.000
267.87	-0.000
268.08	-0.000
268.29	-0.000
268.50	-0.000
268.72	-0.000
268.93	-0.000
269.14	-0.000
269.35	-0.000
269.57	-0.000
269.78	-0.000
269.99	-0.000
270.20	-0.000
270.41	-0.000
270.63	-0.000
270.84	-0.000
271.05	-0.000
271.26	-0.000
271.48	-0.000
271.69	-0.000
271.90	-0.000
272.11	-0.000
272.32	-0.000
272.54	-0.000
272.75	-0.000
272.96	-0.000
273.17	-0.000
273.39	-0.000
273.60	-0.000
273.81	-0.000
274.02	-0.000
274.23	-0.000
274.45	-0.000
274.66	-0.000
274.87	-0.000
275.08	-0.000
275.29	-0.000
275.51	-0.000
275.72	-0.000
275.93	-0.000
276.14	-0.000
276.35	-0.000
276.57	-0.000
276.78	-0.000
276.99	-0.000
277.20	-0.000
277.41	-0.000
277.63	-0.000
277.84	-0.000
278.05	-0.000
278.26	-0.000
278.47	-0.000
278.69	-0.000
278.90	-0.000
279.11	-0.000
279.32	-0.000
279.53	-0.000
279.74	-0.000
279.96	-0.000
280.17	-0.000
280.38	-0.000
280.59	-0.000
280.80	-0.000
281.02	-0.000
281.23	-0.000
281.44	-0.000
281.65	-0.000
281.86	-0.000
282.07	-0.000
282.29	-0.000
282.50	-0.000
282.71	-0.000
282.92	-0.000
283.13	-0.000
283.35	-0.000
283.56	-0.000
283.77	-0.000
283.98	-0.000
284.19	-0.000
284.40	-0.000
284.62	-0.000
284.83	-0.000
285.04	-0.000
285.25	-0.000
285.46	-0.000
285.67	-0.000
285.88	-0.000
286.10	-0.000
286.31	-0.000
286.52	-0.000
286.73	-0.000
286.94	-0.000
287.15	-0.000
287.37	-0.000
287.58	-0.000
287.79	-0.000
288.00	-0.000
288.21	-0.000
288.42	-0.000
288.63	-0.000
288.85	-0.000
289.06	-0.000
289.27	-0.000
289.48	-0.000
289.69	-0.000
289.90	-0.000
290.11	-0.000
290.33	-0.000
290.54	-0.000
290.75	-0.000
290.96	-0.000
291.17	-0.000
291.38	-0.000
291.59	-0.000
291.81	-0.000
292.02	-0.000
292.23	-0.000
292.44	-0.000
292.65	-0.000
292.86	-0.000
293.07	-0.000
293.28	-0.000
293.50	-0.000
293.71	-0.000
293.92	-0.000
294.13	-0.000
294.34	-0.000
294.55	-0.000
294.76	-0.000
294.97	-0.000
295.19	-0.000
295.40	-0.000
295.61	-0.000
295.82	-0.000
296.03	-0.000
296.24	-0.000
296.45	2.359
296.66	1.882
296.87	1.913
297.09	2.021
297.30	2.388
297.51	1.809
297.72	1.782
297.93	1.898
298.14	1.833
298.35	1.789
298.56	1.762
298.77	1.895
298.99	1.856
299.20	1.812
299.41	1.769
299.62	1.704
299.83	1.694
300.04	1.620
300.25	1.612
300.46	1.659
300.67	1.631
300.88	1.577
301.10	1.585
301.31	1.658
301.52	1.593
301.73	1.535
301.94	1.549
302.15	1.566
302.36	1.513
302.57	1.449
302.78	1.454
302.99	1.497
303.20	1.525
303.41	1.429
303.63	1.408
303.84	1.420
304.05	1.418
304.26	1.352
304.47	1.356
304.68	1.359
304.89	1.348
305.10	1.309
305.31	1.297
305.52	1.338
305.73	1.331
305.94	1.292
306.15	1.281
306.37	1.305
306.58	1.315
306.79	1.284
307.00	1.306
307.21	1.351
307.42	1.344
307.63	1.305
307.84	1.269
308.05	1.309
308.26	1.313
308.47	1.291
308.68	1.280
308.89	1.275
309.10	1.273
309.31	1.235
309.52	1.223
309.73	1.237
309.95	1.232
310.16	1.204
310.37	1.193
310.58	1.207
310.79	1.206
311.00	1.206
311.21	1.209
311.42	1.208
311.63	1.204
311.84	1.186
312.05	1.183
312.26	1.203
312.47	1.214
312.68	1.189
312.89	1.170
313.10	1.175
313.31	1.149
313.52	1.151
313.73	1.156
313.94	1.155
314.15	1.137
314.36	1.116
314.57	1.109
314.78	1.096
314.99	1.090
315.21	1.081
315.42	1.086
315.63	1.098
315.84	1.076
316.05	1.061
316.26	1.069
316.47	1.086
316.68	1.082
316.89	1.063
317.10	1.084
317.31	1.089
317.52	1.090
317.73	1.067
317.94	1.069
318.15	1.110
318.36	1.108
318.57	1.093
318.78	1.081
318.99	1.116
319.20	1.113
319.41	1.079
319.62	1.081
319.83	1.094
320.04	1.091
320.25	1.077
320.46	1.044
320.67	1.046
320.88	1.042
321.09	1.029
321.30	1.013
321.51	1.028
321.72	1.026
321.93	1.010
322.14	1.001
322.35	1.026
322.56	1.029
322.77	1.018
322.98	1.029
323.19	1.036
323.40	1.043
323.61	1.024
323.82	1.018
324.03	1.024
324.24	1.022
324.45	1.011
324.66	0.992
324.87	0.987
325.08	0.986
325.29	0.967
325.50	0.959
325.71	0.963
325.92	0.970
326.13	0.958
326.34	0.958
326.55	0.964
326.76	0.963
326.97	0.953
327.18	0.948
327.39	0.974
327.60	0.975
327.80	0.977
328.01	0.976
328.22	0.977
328.43	0.980
328.64	0.968
328.85	0.974
329.06	0.975
329.27	0.974
329.48	0.970
329.69	0.951
329.90	0.961
330.11	0.955
330.32	0.949
330.53	0.942
330.74	0.941
330.95	0.938
331.16	0.924
331.37	0.934
331.58	0.933
331.79	0.932
332.00	0.923
332.21	0.917
332.42	0.920
332.63	0.911
332.83	0.906
333.04	0.908
333.25	0.921
333.46	0.919
333.67	0.904
333.88	0.906
334.09	0.917
334.30	0.915
334.51	0.906
334.72	0.902
334.93	0.905
335.14	0.905
335.35	0.899
335.56	0.895
335.77	0.904
335.98	0.903
336.18	0.896
336.39	0.888
336.60	0.891
336.81	0.889
337.02	0.888
337.23	0.892
337.44	0.895
337.65	0.896
337.86	0.887
338.07	0.880
338.28	0.884
338.49	0.883
338.70	0.876
338.91	0.883
339.11	0.891
339.32	0.887
339.53	0.875
339.74	0.872
339.95	0.869
340.16	0.866
340.37	0.860
340.58	0.859
340.79	0.862
341.00	0.862
341.21	0.851
341.41	0.850
341.62	0.851
341.83	0.853
342.04	0.848
342.25	0.858
342.46	0.863
342.67	0.860
342.88	0.854
343.09	0.854
343.30	0.861
343.50	0.864
343.71	0.855
343.92	0.853
344.13	0.857
344.34	0.856
344.55	0.840
344.76	0.838
344.97	0.842
345.18	0.840
345.38	0.837
345.59	0.832
345.80	0.831
346.01	0.828
346.22	0.825
346.43	0.820
346.64	0.828
346.85	0.828
347.06	0.822
347.26	0.821
347.47	0.824
347.68	0.819
347.89	0.816
348.10	0.811
348.31	0.817
348.52	0.816
348.73	0.814
348.93	0.810
349.14	0.812
349.35	0.810
349.56	0.805
349.77	0.801
349.98	0.807
350.19	0.804
350.39	0.800
350.60	0.796
350.81	0.811
351.02	0.809
351.23	0.805
351.44	0.808
351.65	0.811
351.86	0.808
352.06	0.806
352.27	0.806
352.48	0.807
352.69	0.807
352.90	0.801
353.11	0.788
353.31	0.795
353.52	0.791
353.73	0.784
353.94	0.786
354.15	0.793
354.36	0.791
354.57	0.783
354.77	0.785
354.98	0.784
355.19	0.783
355.40	0.783
355.61	0.789
355.82	0.793
356.02	0.792
356.23	0.785
356.44	0.786
356.65	0.790
356.86	0.790
357.07	0.783
357.27	0.787
357.48	0.789
357.69	0.785
357.90	0.769
358.11	0.766
358.32	0.770
358.52	0.772
358.73	0.762
358.94	0.765
359.15	0.770
359.36	0.771
359.56	0.766
359.77	0.764
359.98	0.770
360.19	0.770
360.40	0.767
360.61	0.767
360.81	0.766
361.02	0.766
361.23	0.757
361.44	0.755
361.65	0.754
361.85	0.754
362.06	0.752
362.27	0.754
362.48	0.754
362.69	0.756
362.89	0.750
363.10	0.751
363.31	0.757
363.52	0.760
363.73	0.755
363.93	0.756
364.14	0.757
364.35	0.759
364.56	0.748
364.77	0.751
364.97	0.753
365.18	0.754
365.39	0.749
365.60	0.745
365.81	0.746
366.01	0.747
366.22	0.744
366.43	0.743
366.64	0.744
366.84	0.751
367.05	0.746
367.26	0.746
367.47	0.747
367.68	0.747
367.88	0.744
368.09	0.741
368.30	0.743
368.51	0.743
368.71	0.742
368.92	0.747
369.13	0.745
369.34	0.745
369.55	0.744
369.75	0.744
369.96	0.751
370.17	0.751
370.38	0.748
370.58	0.747
370.79	0.752
371.00	0.751
371.21	0.743
371.41	0.747
371.62	0.750
371.83	0.745
372.04	0.743
372.24	0.735
372.45	0.737
372.66	0.737
372.87	0.735
373.07	0.732
373.28	0.732
373.49	0.735
373.70	0.726
373.90	0.727
374.11	0.736
374.32	0.735
374.53	0.734
374.73	0.735
374.94	0.737
375.15	0.737
375.36	0.735
375.56	0.743
375.77	0.743
375.98	0.743
376.19	0.739
376.39	0.733
376.60	0.737
376.81	0.737
377.02	0.735
377.22	0.733
377.43	0.733
377.64	0.733
377.84	0.724
378.05	0.729
378.26	0.735
378.47	0.735
378.67	0.732
378.88	0.730
379.09	0.730
379.30	0.732
379.50	0.729
379.71	0.732
379.92	0.734
380.12	0.733
380.33	0.725
380.54	0.721
380.75	0.727
380.95	0.727
381.16	0.725
381.37	0.725
381.57	0.726
381.78	0.727
381.99	0.726
382.20	0.726
382.40	0.729
382.61	0.730
382.82	0.726
383.02	0.720
383.23	0.723
383.44	0.723
383.64	0.722
383.85	0.725
384.06	0.728
384.27	0.725
384.47	0.723
384.68	0.723
384.89	0.728
385.09	0.728
385.30	0.729
385.51	0.728
385.71	0.731
385.92	0.732
386.13	0.730
386.33	0.732
386.54	0.733
386.75	0.733
386.95	0.729
387.16	0.724
387.37	0.727
387.58	0.726
387.78	0.724
387.99	0.721
388.20	0.723
388.40	0.721
388.61	0.716
388.82	0.719
389.02	0.722
389.23	0.722
389.44	0.721
389.64	0.721
389.85	0.733
390.06	0.732
390.26	0.733
390.47	0.733
390.68	0.735
390.88	0.733
391.09	0.729
391.30	0.727
391.50	0.728
391.71	0.728
391.92	0.725
392.12	0.718
392.33	0.719
392.53	0.719
392.74	0.719
392.95	0.718
393.15	0.721
393.36	0.723
393.57	0.721
393.77	0.724
393.98	0.726
394.19	0.725
394.39	0.724
394.60	0.726
394.81	0.728
395.01	0.726
395.22	0.724
395.43	0.725
395.63	0.730
395.84	0.731
396.04	0.727
396.25	0.729
396.46	0.731
396.66	0.729
396.87	0.726
397.08	0.724
397.28	0.726
397.49	0.727
397.69	0.723
397.90	0.718
398.11	0.719
398.31	0.720
398.52	0.717
398.73	0.719
398.93	0.718
399.14	0.717
399.34	0.716
399.55	0.717
399.76	0.716
399.96	0.717
400.17	0.716
400.37	0.715
400.58	0.722
400.79	0.723
400.99	0.720
401.20	0.725
401.41	0.728
401.61	0.729
401.82	0.734
402.02	0.734
402.23	0.735
402.44	0.735
402.64	0.735
402.85	0.730
403.05	0.729
403.26	0.728
403.47	0.722
403.67	0.721
403.88	0.721
404.08	0.716
404.29	0.714
404.50	0.714
404.70	0.714
404.91	0.713
405.11	0.710
405.32	0.711
405.52	0.711
405.73	0.711
405.94	0.709
406.14	0.711
406.35	0.713
406.55	0.713
406.76	0.711
406.97	0.712
407.17	0.714
407.38	0.714
407.58	0.712
407.79	0.715
407.99	0.717
408.20	0.717
408.41	0.714
408.61	0.712
408.82	0.713
409.02	0.713
409.23	0.710
409.43	0.710
409.64	0.711
409.84	0.710
410.05	0.708
410.26	0.706
410.46	0.706
410.67	0.705
410.87	0.706
411.08	0.709
411.28	0.710
411.49	0.712
411.69	0.709
411.90	0.711
412.11	0.713
412.31	0.713
412.52	0.711
412.72	0.712
412.93	0.713
413.13	0.712
413.34	0.708
413.54	0.710
413.75	0.711
413.95	0.711
414.16	0.706
414.37	0.709
414.57	0.710
414.78	0.712
414.98	0.711
415.19	0.712
415.39	0.709
415.60	0.712
415.80	0.711
416.01	0.709
416.21	0.711
416.42	0.711
416.62	0.706
416.83	0.706
417.03	0.706
417.24	0.706
417.44	0.704
417.65	0.703
417.86	0.703
418.06	0.702
418.27	0.700
418.47	0.702
418.68	0.702
418.88	0.703
419.09	0.701
419.29	0.702
419.50	0.702
419.70	0.702
419.91	0.700
420.11	0.698
420.32	0.700
420.52	0.699
420.73	0.698
420.93	0.699
421.14	0.700
421.34	0.699
421.55	0.696
421.75	0.695
421.96	0.696
422.16	0.697
422.37	0.696
422.57	0.693
422.78	0.694
422.98	0.691
423.19	0.689
423.39	0.687
423.60	0.691
423.80	0.692
424.01	0.691
424.21	0.693
424.42	0.694
424.62	0.694
424.83	0.693
425.03	0.693
425.23	0.695
425.44	0.696
425.64	0.696
425.85	0.695
426.05	0.696
426.26	0.696
426.46	0.692
426.67	0.692
426.87	0.697
427.08	0.697
427.28	0.695
427.49	0.696
427.69	0.696
427.90	0.695
428.10	0.692
428.31	0.692
428.51	0.693
428.71	0.693
428.92	0.694
429.12	0.692
429.33	0.692
429.53	0.695
429.74	0.700
429.94	0.700
430.15	0.699
430.35	0.699
430.56	0.696
430.76	0.696
430.96	0.696
431.17	0.693
431.37	0.691
431.58	0.690
431.78	0.686
431.99	0.680
432.19	0.682
432.40	0.684
432.60	0.684
432.80	0.687
433.01	0.685
433.21	0.685
433.42	0.687
433.62	0.687
433.83	0.687
434.03	0.689
434.23	0.691
434.44	0.690
434.64	0.688
434.85	0.692
435.05	0.693
435.26	0.693
435.46	0.692
435.66	0.691
435.87	0.691
436.07	0.691
436.28	0.687
436.48	0.684
436.69	0.683
436.89	0.684
437.09	0.678
437.30	0.676
437.50	0.677
437.71	0.688
437.91	0.687
438.11	0.688
438.32	0.692
438.52	0.692
438.73	0.692
438.93	0.690
439.13	0.690
439.34	0.693
439.54	0.691
439.75	0.691
439.95	0.681
440.15	0.686
440.36	0.685
440.56	0.682
440.77	0.682
440.97	0.683
441.17	0.681
441.38	0.682
441.58	0.679
441.79	0.679
441.99	0.678
442.19	0.677
442.40	0.674
442.60	0.674
442.81	0.672
443.01	0.673
443.21	0.673
443.42	0.673
443.62	0.671
443.82	0.670
444.03	0.673
444.23	0.672
444.44	0.672
444.64	0.672
444.84	0.673
445.05	0.672
445.25	0.669
445.45	0.669
445.66	0.671
445.86	0.670
446.06	0.672
446.27	0.671
446.47	0.674
446.68	0.672
446.88	0.670
447.08	0.669
447.29	0.672
447.49	0.672
447.69	0.672
447.90	0.671
448.10	0.674
448.30	0.672
448.51	0.674
448.71	0.671
448.91	0.673
449.12	0.672
449.32	0.674
449.52	0.673
449.73	0.676
449.93	0.675
450.14	0.676
450.34	0.675
450.54	0.677
450.75	0.674
450.95	0.672
451.15	0.672
451.36	0.673
451.56	0.670
451.76	0.668
451.97	0.666
452.17	0.666
452.37	0.664
452.58	0.660
452.78	0.661
452.98	0.663
453.19	0.663
453.39	0.663
453.59	0.663
453.79	0.664
454.00	0.665
454.20	0.664
454.40	0.665
454.61	0.667
454.81	0.668
455.01	0.666
455.22	0.666
455.42	0.668
455.62	0.665
455.83	0.664
456.03	0.667
456.23	0.668
456.44	0.668
456.64	0.667
456.84	0.667
457.04	0.667
457.25	0.667
457.45	0.664
457.65	0.662
457.86	0.664
458.06	0.662
458.26	0.658
458.47	0.657
458.67	0.658
458.87	0.658
459.07	0.655
459.28	0.657
459.48	0.659
459.68	0.659
459.89	0.659
460.09	0.658
460.29	0.659
460.49	0.661
460.70	0.660
460.90	0.660
461.10	0.661
461.31	0.660
461.51	0.658
461.71	0.659
461.91	0.661
462.12	0.661
462.32	0.660
462.52	0.660
462.72	0.663
462.93	0.664
463.13	0.662
463.33	0.663
463.53	0.665
463.74	0.664
463.94	0.660
464.14	0.660
464.35	0.662
464.55	0.661
464.75	0.660
464.95	0.657
465.16	0.659
465.36	0.658
465.56	0.656
465.76	0.655
465.97	0.655
466.17	0.656
466.37	0.654
466.57	0.655
466.78	0.656
466.98	0.656
467.18	0.654
467.38	0.653
467.59	0.655
467.79	0.657
467.99	0.657
468.19	0.657
468.39	0.660
468.60	0.660
468.80	0.658
469.00	0.659
469.20	0.660
469.41	0.660
469.61	0.659
469.81	0.659
470.01	0.659
470.22	0.659
470.42	0.657
470.62	0.655
470.82	0.657
471.02	0.656
471.23	0.654
471.43	0.655
471.63	0.657
471.83	0.657
472.04	0.655
472.24	0.653
472.44	0.658
472.64	0.659
472.84	0.657
473.05	0.657
473.25	0.660
473.45	0.659
473.65	0.657
473.85	0.658
474.06	0.659
474.26	0.658
474.46	0.660
474.66	0.656
474.86	0.657
475.07	0.657
475.27	0.655
475.47	0.653
475.67	0.653
475.87	0.656
476.08	0.653
476.28	0.654
476.48	0.655
476.68	0.654
476.88	0.652
477.09	0.653
477.29	0.654
477.49	0.654
477.69	0.653
477.89	0.654
478.09	0.652
478.30	0.655
478.50	0.652
478.70	0.651
478.90	0.652
479.10	0.654
479.31	0.655
479.51	0.654
479.71	0.654
479.91	0.654
480.11	0.653
480.31	0.653
480.52	0.652
480.72	0.652
480.92	0.650
481.12	0.649
481.32	0.646
481.52	0.644
481.72	0.644
481.93	0.648
482.13	0.649
482.33	0.648
482.53	0.647
482.73	0.647
482.93	0.648
483.14	0.648
483.34	0.648
483.54	0.649
483.74	0.648
483.94	0.647
484.14	0.643
484.34	0.643
484.55	0.644
484.75	0.644
484.95	0.642
485.15	0.642
485.35	0.643
485.55	0.642
485.75	0.640
485.96	0.640
486.16	0.641
486.36	0.640
486.56	0.639
486.76	0.638
486.96	0.638
487.16	0.638
487.36	0.636
487.57	0.635
487.77	0.636
487.97	0.637
488.17	0.635
488.37	0.634
488.57	0.635
488.77	0.635
488.97	0.633
489.18	0.633
489.38	0.635
489.58	0.636
489.78	0.636
489.98	0.635
490.18	0.635
490.38	0.636
490.58	0.634
490.78	0.635
490.98	0.636
491.19	0.637
491.39	0.636
491.59	0.635
491.79	0.638
491.99	0.638
492.19	0.638
492.39	0.641
492.59	0.641
492.79	0.644
492.99	0.644
493.20	0.644
493.40	0.644
493.60	0.646
493.80	0.644
494.00	0.641
494.20	0.641
494.40	0.641
494.60	0.638
494.80	0.643
495.00	0.642
495.20	0.640
495.40	0.639
495.61	0.641
495.81	0.640
496.01	0.644
496.21	0.645
496.41	0.644
496.61	0.645
496.81	0.643
497.01	0.638
497.21	0.637
497.41	0.638
497.61	0.638
497.81	0.635
498.01	0.635
498.21	0.633
498.41	0.631
498.61	0.631
498.82	0.633
499.02	0.635
499.22	0.636
499.42	0.636
499.62	0.637
499.82	0.638
500.02	0.639
500.22	0.638
500.42	0.640
500.62	0.641
500.82	0.641
501.02	0.639
501.22	0.638
501.42	0.638
501.62	0.640
501.82	0.639
502.02	0.639
502.22	0.639
502.42	0.641
502.62	0.638
502.82	0.638
503.02	0.639
503.22	0.639
503.42	0.637
503.63	0.637
503.83	0.635
504.03	0.634
504.23	0.633
504.43	0.633
504.63	0.633
504.83	0.633
505.03	0.632
505.23	0.633
505.43	0.635
505.63	0.635
505.83	0.635
506.03	0.636
506.23	0.638
506.43	0.639
506.63	0.638
506.83	0.637
507.03	0.639
507.23	0.639
507.43	0.637
507.63	0.638
507.83	0.639
508.03	0.639
508.23	0.638
508.43	0.636
508.63	0.637
508.83	0.638
509.03	0.640
509.23	0.639
509.43	0.640
509.63	0.640
509.83	0.639
510.03	0.641
510.23	0.643
510.43	0.645
510.63	0.645
510.83	0.645
511.03	0.646
511.23	0.644
511.43	0.643
511.63	0.644
511.83	0.646
512.03	0.646
512.22	0.643
512.42	0.643
512.62	0.644
512.82	0.643
513.02	0.643
513.22	0.642
513.42	0.644
513.62	0.647
513.82	0.645
514.02	0.645
514.22	0.645
514.42	0.645
514.62	0.645
514.82	0.645
515.02	0.647
515.22	0.650
515.42	0.649
515.62	0.651
515.82	0.650
516.02	0.652
516.22	0.652
516.42	0.653
516.62	0.655
516.82	0.656
517.01	0.654
517.21	0.653
517.41	0.657
517.61	0.658
517.81	0.654
518.01	0.653
518.21	0.653
518.41	0.651
518.61	0.650
518.81	0.651
519.01	0.651
519.21	0.652
519.41	0.651
519.61	0.646
519.81	0.648
520.00	0.648
520.20	0.648
520.40	0.651
520.60	0.652
520.80	0.651
521.00	0.652
521.20	0.653
521.40	0.657
521.60	0.657
521.80	0.656
522.00	0.656
522.20	0.658
522.39	0.658
522.59	0.655
522.79	0.657
522.99	0.659
523.19	0.656
523.39	0.654
523.59	0.653
523.79	0.656
523.99	0.658
524.19	0.657
524.38	0.656
524.58	0.657
524.78	0.658
524.98	0.656
525.18	0.659
525.38	0.659
525.58	0.660
525.78	0.658
525.98	0.656
526.18	0.656
526.37	0.655
526.57	0.657
526.77	0.656
526.97	0.657
527.17	0.657
527.37	0.653
527.57	0.656
527.77	0.657
527.96	0.657
528.16	0.656
528.36	0.657
528.56	0.659
528.76	0.657
528.96	0.656
529.16	0.656
529.36	0.660
529.55	0.660
529.75	0.657
529.95	0.657
530.15	0.658
530.35	0.661
530.55	0.658
530.75	0.659
530.94	0.660
531.14	0.661
531.34	0.659
531.54	0.657
531.74	0.660
531.94	0.663
532.13	0.661
532.33	0.663
532.53	0.662
532.73	0.663
532.93	0.661
533.13	0.662
533.33	0.662
533.52	0.663
533.72	0.666
533.92	0.665
534.12	0.662
534.32	0.663
534.52	0.661
534.71	0.662
534.91	0.665
535.11	0.667
535.31	0.665
535.51	0.667
535.71	0.669
535.90	0.666
536.10	0.668
536.30	0.670
536.50	0.671
536.70	0.670
536.89	0.668
537.09	0.667
537.29	0.668
537.49	0.669
537.69	0.667
537.89	0.667
538.08	0.667
538.28	0.665
538.48	0.666
538.68	0.667
538.88	0.669
539.07	0.669
539.27	0.667
539.47	0.666
539.67	0.666
539.87	0.667
540.06	0.665
540.26	0.665
540.46	0.667
540.66	0.664
540.86	0.662
541.05	0.662
541.25	0.664
541.45	0.664
541.65	0.663
541.84	0.665
542.04	0.665
542.24	0.666
542.44	0.665
542.64	0.666
542.83	0.669
543.03	0.670
543.23	0.667
543.43	0.668
543.62	0.669
543.82	0.669
544.02	0.668
544.22	0.669
544.42	0.672
544.61	0.673
544.81	0.669
545.01	0.668
545.21	0.670
545.40	0.671
545.60	0.669
545.80	0.672
546.00	0.672
546.19	0.672
546.39	0.670
546.59	0.667
546.79	0.668
546.98	0.669
547.18	0.669
547.38	0.669
547.58	0.672
547.77	0.672
547.97	0.669
548.17	0.671
548.37	0.671
548.56	0.671
548.76	0.671
548.96	0.673
549.16	0.675
549.35	0.675
549.55	0.672
549.75	0.672
549.95	0.676
550.14	0.676
550.34	0.674
550.54	0.679
550.73	0.683
550.93	0.683
551.13	0.680
551.33	0.680
551.52	0.680
551.72	0.681
551.92	0.679
552.12	0.679
552.31	0.680
552.51	0.680
552.71	0.675
552.90	0.674
553.10	0.676
553.30	0.676
553.50	0.675
553.69	0.676
553.89	0.677
554.09	0.677
554.28	0.674
554.48	0.675
554.68	0.677
554.87	0.677
555.07	0.674
555.27	0.673
555.47	0.675
555.66	0.676
555.86	0.675
556.06	0.677
556.25	0.679
556.45	0.686
556.65	0.684
556.84	0.687
557.04	0.691
557.24	0.692
557.43	0.692
557.63	0.695
557.83	0.697
558.02	0.697
558.22	0.701
558.42	0.701
558.61	0.694
558.81	0.696
559.01	0.692
559.21	0.692
559.40	0.693
559.60	0.693
559.80	0.689
559.99	0.689
560.19	0.691
560.39	0.685
560.58	0.683
560.78	0.683
560.97	0.686
561.17	0.685
561.37	0.682
561.56	0.683
561.76	0.684
561.96	0.684
562.15	0.682
562.35	0.685
562.55	0.686
562.74	0.685
562.94	0.684
563.14	0.682
563.33	0.682
563.53	0.683
563.73	0.680
563.92	0.681
564.12	0.684
564.31	0.686
564.51	0.683
564.71	0.685
564.90	0.688
565.10	0.688
565.30	0.692
565.49	0.693
565.69	0.695
565.89	0.695
566.08	0.692
566.28	0.694
566.47	0.695
566.67	0.695
566.87	0.692
567.06	0.694
567.26	0.700
567.46	0.695
567.65	0.694
567.85	0.695
568.04	0.698
568.24	0.698
568.44	0.695
568.63	0.693
568.83	0.694
569.02	0.693
569.22	0.688
569.42	0.684
569.61	0.687
569.81	0.686
570.00	0.684
570.20	0.685
570.40	0.686
570.59	0.686
570.79	0.684
570.98	0.683
571.18	0.684
571.38	0.685
571.57	0.682
571.77	0.680
571.96	0.683
572.16	0.681
572.35	0.676
572.55	0.677
572.75	0.675
572.94	0.675
573.14	0.673
573.33	0.673
573.53	0.673
573.73	0.672
573.92	0.671
574.12	0.669
574.31	0.672
574.51	0.673
574.70	0.670
574.90	0.672
575.09	0.674
575.29	0.675
575.49	0.672
575.68	0.672
575.88	0.674
576.07	0.675
576.27	0.672
576.46	0.670
576.66	0.670
576.86	0.669
577.05	0.666
577.25	0.664
577.44	0.666
577.64	0.666
577.83	0.664
578.03	0.666
578.22	0.665
578.42	0.664
578.61	0.662
578.81	0.663
579.00	0.663
579.20	0.663
579.40	0.662
579.59	0.661
579.79	0.662
579.98	0.661
580.18	0.660
580.37	0.661
580.57	0.663
580.76	0.667
580.96	0.666
581.15	0.666
581.35	0.668
581.54	0.668
581.74	0.667
581.93	0.669
582.13	0.670
582.32	0.667
582.52	0.665
582.71	0.664
582.91	0.661
583.10	0.661
583.30	0.659
583.49	0.658
583.69	0.662
583.88	0.663
584.08	0.662
584.27	0.664
584.47	0.667
584.66	0.669
584.86	0.668
585.05	0.670
585.25	0.672
585.44	0.672
585.64	0.671
585.83	0.667
586.03	0.667
586.22	0.666
586.42	0.662
586.61	0.664
586.81	0.666
587.00	0.665
587.20	0.663
587.39	0.663
587.59	0.665
587.78	0.666
587.98	0.667
588.17	0.668
588.37	0.670
588.56	0.672
588.76	0.668
588.95	0.668
589.15	0.672
589.34	0.675
589.54	0.673
589.73	0.674
589.92	0.677
590.12	0.677
590.31	0.675
590.51	0.680
590.70	0.681
590.90	0.682
591.09	0.680
591.29	0.678
591.48	0.678
591.68	0.680
591.87	0.678
592.06	0.677
592.26	0.680
592.45	0.679
592.65	0.673
592.84	0.673
593.04	0.675
593.23	0.677
593.43	0.675
593.62	0.674
593.81	0.674
594.01	0.673
594.20	0.671
594.40	0.670
594.59	0.672
594.79	0.673
594.98	0.671
595.17	0.671
595.37	0.671
595.56	0.673
595.76	0.673
595.95	0.674
596.14	0.678
596.34	0.679
596.53	0.677
596.73	0.679
596.92	0.681
597.12	0.683
597.31	0.683
597.50	0.682
597.70	0.684
597.89	0.684
598.09	0.680
598.28	0.682
598.47	0.684
598.67	0.682
598.86	0.678
599.06	0.680
599.25	0.680
599.44	0.678
599.64	0.675
599.83	0.672
600.03	0.675
600.22	0.676
600.41	0.675
600.61	0.673
600.80	0.675
601.00	0.675
601.19	0.671
601.38	0.670
601.58	0.672
601.77	0.673
601.96	0.675
602.16	0.675
602.35	0.684
602.55	0.681
602.74	0.682
602.93	0.684
603.13	0.690
603.32	0.691
603.51	0.691
603.71	0.695
603.90	0.697
604.09	0.698
604.29	0.695
604.48	0.689
604.68	0.691
604.87	0.689
605.06	0.685
605.26	0.682
605.45	0.683
605.64	0.682
605.84	0.677
606.03	0.675
606.22	0.674
606.42	0.674
606.61	0.671
606.80	0.671
607.00	0.673
607.19	0.673
607.38	0.672
607.58	0.673
607.77	0.676
607.96	0.676
608.16	0.674
608.35	0.678
608.54	0.681
608.74	0.684
608.93	0.689
609.12	0.692
609.32	0.693
609.51	0.697
609.70	0.695
609.90	0.697
610.09	0.701
610.28	0.707
610.48	0.701
610.67	0.702
610.86	0.703
611.06	0.697
611.25	0.695
611.44	0.696
611.64	0.696
611.83	0.699
612.02	0.696
612.21	0.695
612.41	0.694
612.60	0.693
612.79	0.688
612.99	0.689
613.18	0.690
613.37	0.688
613.57	0.686
613.76	0.688
613.95	0.685
614.14	0.684
614.34	0.681
614.53	0.682
614.72	0.685
614.92	0.686
615.11	0.683
615.30	0.680
615.49	0.681
615.69	0.683
615.88	0.679
616.07	0.681
616.26	0.682
616.46	0.683
616.65	0.680
616.84	0.678
617.04	0.680
617.23	0.683
617.42	0.684
617.61	0.687
617.81	0.687
618.00	0.689
618.19	0.688
618.38	0.692
618.58	0.696
618.77	0.697
618.96	0.696
619.15	0.698
619.35	0.700
619.54	0.701
619.73	0.697
619.92	0.698
620.12	0.703
620.31	0.703
620.50	0.698
620.69	0.697
620.89	0.700
621.08	0.701
621.27	0.701
621.46	0.700
621.66	0.703
621.85	0.703
622.04	0.700
622.23	0.701
622.43	0.702
622.62	0.701
622.81	0.701
623.00	0.701
623.19	0.704
623.39	0.703
623.58	0.700
623.77	0.699
623.96	0.702
624.16	0.701
624.35	0.696
624.54	0.700
624.73	0.704
624.92	0.701
625.12	0.698
625.31	0.698
625.50	0.700
625.69	0.701
625.88	0.697
626.08	0.697
626.27	0.698
626.46	0.698
626.65	0.695
626.84	0.695
627.04	0.700
627.23	0.701
627.42	0.697
627.61	0.700
627.80	0.703
628.00	0.703
628.19	0.701
628.38	0.704
628.57	0.708
628.76	0.706
628.96	0.703
629.15	0.703
629.34	0.705
629.53	0.706
629.72	0.700
629.91	0.700
630.11	0.704
630.30	0.706
630.49	0.709
630.68	0.709
630.87	0.713
631.06	0.715
631.26	0.710
631.45	0.713
631.64	0.721
631.83	0.723
632.02	0.720
632.21	0.719
632.41	0.726
632.60	0.719
632.79	0.718
632.98	0.718
633.17	0.719
633.36	0.721
633.55	0.717
633.75	0.712
633.94	0.713
634.13	0.714
634.32	0.710
634.51	0.705
634.70	0.708
634.89	0.707
635.09	0.703
635.28	0.704
635.47	0.705
635.66	0.709
635.85	0.705
636.04	0.708
636.23	0.712
636.43	0.714
636.62	0.713
636.81	0.712
637.00	0.714
637.19	0.717
637.38	0.713
637.57	0.713
637.76	0.714
637.95	0.715
638.15	0.710
638.34	0.707
638.53	0.709
638.72	0.711
638.91	0.708
639.10	0.707
639.29	0.707
639.48	0.709
639.67	0.709
639.87	0.708
640.06	0.713
640.25	0.714
640.44	0.716
640.63	0.716
640.82	0.718
641.01	0.719
641.20	0.718
641.39	0.720
641.58	0.721
641.78	0.719
641.97	0.716
642.16	0.729
642.35	0.729
642.54	0.727
642.73	0.723
642.92	0.721
643.11	0.724
643.30	0.724
643.49	0.719
643.68	0.722
643.87	0.723
644.06	0.724
644.25	0.704
644.45	0.707
644.64	0.708
644.83	0.709
645.02	0.706
645.21	0.705
645.40	0.706
645.59	0.706
645.78	0.701
645.97	0.704
646.16	0.704
646.35	0.704
646.54	0.702
646.73	0.704
646.92	0.704
647.11	0.704
647.30	0.700
647.49	0.702
647.68	0.702
647.88	0.700
648.07	0.692
648.26	0.696
648.45	0.697
648.64	0.693
648.83	0.691
649.02	0.695
649.21	0.705
649.40	0.704
649.59	0.698
649.78	0.698
649.97	0.713
650.16	0.713
650.35	0.706
650.54	0.709
650.73	0.716
650.92	0.713
651.11	0.707
651.30	0.705
651.49	0.709
651.68	0.710
651.87	0.707
652.06	0.696
652.25	0.700
652.44	0.703
652.63	0.702
652.82	0.703
653.01	0.703
653.20	0.701
653.39	0.690
653.58	0.687
653.77	0.687
653.96	0.683
654.15	0.675
654.34	0.673
654.53	0.668
654.72	0.661
654.91	0.652
655.10	0.648
655.29	0.646
655.48	0.643
655.67	0.638
655.86	0.634
656.05	0.633
656.24	0.632
656.43	0.628
656.62	0.627
656.81	0.626
657.00	0.623
657.19	0.620
657.38	0.620
657.57	0.619
657.76	0.621
657.95	0.619
658.14	0.621
658.33	0.624
658.51	0.628
658.70	0.628
658.89	0.630
659.08	0.640
659.27	0.648
659.46	0.647
659.65	0.653
659.84	0.656
660.03	0.660
660.22	0.662
660.41	0.666
660.60	0.666
660.79	0.667
660.98	0.673
661.17	0.672
661.36	0.670
661.55	0.671
661.74	0.670
661.92	0.672
662.11	0.674
662.30	0.673
662.49	0.666
662.68	0.665
662.87	0.668
663.06	0.662
663.25	0.662
663.44	0.664
663.63	0.665
663.82	0.664
664.01	0.659
664.20	0.658
664.38	0.659
664.57	0.660
664.76	0.660
664.95	0.660
665.14	0.665
665.33	0.660
665.52	0.667
665.71	0.670
665.90	0.669
666.09	0.671
666.28	0.669
666.46	0.668
666.65	0.668
666.84	0.666
667.03	0.661
667.22	0.660
667.41	0.662
667.60	0.652
667.79	0.646
667.98	0.648
668.16	0.649
668.35	0.648
668.54	0.645
668.73	0.646
668.92	0.647
669.11	0.646
669.30	0.640
669.49	0.636
669.67	0.638
669.86	0.640
670.05	0.637
670.24	0.634
670.43	0.633
670.62	0.632
670.81	0.626
671.00	0.628
671.18	0.628
671.37	0.626
671.56	0.624
671.75	0.623
671.94	0.620
672.13	0.619
672.32	0.615
672.50	0.614
672.69	0.614
672.88	0.614
673.07	0.609
673.26	0.612
673.45	0.613
673.63	0.613
673.82	0.610
674.01	0.611
674.20	0.610
674.39	0.610
674.58	0.609
674.76	0.609
674.95	0.608
675.14	0.607
675.33	0.603
675.52	0.602
675.71	0.602
675.89	0.601
676.08	0.597
676.27	0.598
676.46	0.598
676.65	0.598
676.84	0.598
677.02	0.599
677.21	0.601
677.40	0.601
677.59	0.598
677.78	0.599
677.96	0.601
678.15	0.601
678.34	0.599
678.53	0.599
678.72	0.599
678.90	0.595
679.09	0.592
679.28	0.588
679.47	0.589
679.66	0.589
679.84	0.585
680.03	0.583
680.22	0.581
680.41	0.582
680.60	0.579
680.78	0.579
680.97	0.582
681.16	0.582
681.35	0.580
681.53	0.578
681.72	0.579
681.91	0.581
682.10	0.580
682.29	0.583
682.47	0.580
682.66	0.580
682.85	0.579
683.04	0.577
683.22	0.577
683.41	0.579
683.60	0.578
683.79	0.579
683.97	0.578
684.16	0.576
684.35	0.573
684.54	0.574
684.72	0.574
684.91	0.574
685.10	0.573
685.29	0.574
685.47	0.571
685.66	0.570
685.85	0.567
686.04	0.567
686.22	0.569
686.41	0.572
686.60	0.569
686.79	0.572
686.97	0.573
687.16	0.574
687.35	0.571
687.54	0.574
687.72	0.578
687.91	0.578
688.10	0.579
688.29	0.578
688.47	0.576
688.66	0.576
688.85	0.572
689.03	0.570
689.22	0.574
689.41	0.575
689.60	0.570
689.78	0.567
689.97	0.567
690.16	0.565
690.34	0.562
690.53	0.561
690.72	0.561
690.91	0.559
691.09	0.557
691.28	0.552
691.47	0.550
691.65	0.548
691.84	0.545
692.03	0.544
692.21	0.542
692.40	0.542
692.59	0.539
692.77	0.539
692.96	0.540
693.15	0.541
693.34	0.539
693.52	0.539
693.71	0.540
693.90	0.542
694.08	0.542
694.27	0.544
694.46	0.553
694.64	0.555
694.83	0.553
695.02	0.552
695.20	0.552
695.39	0.552
695.58	0.551
695.76	0.552
695.95	0.551
696.14	0.550
696.32	0.548
696.51	0.538
696.70	0.538
696.88	0.539
697.07	0.539
697.26	0.540
697.44	0.541
697.63	0.540
697.81	0.538
698.00	0.538
698.19	0.537
698.37	0.537
698.56	0.536
698.75	0.536
698.93	0.535
699.12	0.535
699.31	0.534
699.49	0.533
699.68	0.533
699.87	0.535
700.05	0.535
700.24	0.534
700.42	0.536
700.61	0.535
700.80	0.533
700.98	0.534
701.17	0.535
701.36	0.534
701.54	0.534
701.73	0.535
701.91	0.534
702.10	0.533
702.29	0.531
702.47	0.529
702.66	0.531
702.84	0.532
703.03	0.530
703.22	0.532
703.40	0.531
703.59	0.533
703.77	0.532
703.96	0.531
704.15	0.532
704.33	0.533
704.52	0.531
704.70	0.531
704.89	0.531
705.08	0.530
705.26	0.526
705.45	0.526
705.63	0.525
705.82	0.522
706.00	0.521
706.19	0.520
706.38	0.520
706.56	0.520
706.75	0.519
706.93	0.518
707.12	0.519
707.30	0.519
707.49	0.516
707.68	0.514
707.86	0.514
708.05	0.514
708.23	0.511
708.42	0.512
708.60	0.514
708.79	0.513
708.98	0.511
709.16	0.511
709.35	0.514
709.53	0.517
709.72	0.517
709.90	0.518
710.09	0.520
710.27	0.522
710.46	0.525
710.64	0.524
710.83	0.526
711.02	0.527
711.20	0.526
711.39	0.524
711.57	0.522
711.76	0.523
711.94	0.521
712.13	0.523
712.31	0.523
712.50	0.518
712.68	0.515
712.87	0.516
713.05	0.517
713.24	0.517
713.42	0.517
713.61	0.517
713.79	0.518
713.98	0.518
714.16	0.519
714.35	0.519
714.54	0.520
714.72	0.520
714.91	0.518
715.09	0.524
715.28	0.527
715.46	0.526
715.65	0.524
715.83	0.523
716.02	0.526
716.20	0.522
716.39	0.521
716.57	0.523
716.76	0.525
716.94	0.525
717.12	0.518
717.31	0.519
717.49	0.522
717.68	0.524
717.86	0.524
718.05	0.525
718.23	0.527
718.42	0.529
718.60	0.531
718.79	0.538
718.97	0.540
719.16	0.540
719.34	0.538
719.53	0.536
719.71	0.536
719.90	0.537
720.08	0.534
720.27	0.535
720.45	0.535
720.63	0.533
720.82	0.528
721.00	0.530
721.19	0.533
721.37	0.533
721.56	0.534
721.74	0.536
721.93	0.545
722.11	0.552
722.30	0.551
722.48	0.555
722.66	0.556
722.85	0.554
723.03	0.553
723.22	0.552
723.40	0.555
723.59	0.555
723.77	0.559
723.95	0.553
724.14	0.554
724.32	0.555
724.51	0.555
724.69	0.555
724.88	0.556
725.06	0.555
725.24	0.556
725.43	0.558
725.61	0.561
725.80	0.555
725.98	0.553
726.16	0.550
726.35	0.556
726.53	0.556
726.72	0.556
726.90	0.566
727.09	0.567
727.27	0.572
727.45	0.568
727.64	0.576
727.82	0.584
728.01	0.588
728.19	0.586
728.37	0.590
728.56	0.594
728.74	0.600
728.92	0.589
729.11	0.591
729.29	0.591
729.48	0.593
729.66	0.583
729.84	0.583
730.03	0.586
730.21	0.589
730.40	0.580
730.58	0.581
730.76	0.580
730.95	0.581
731.13	0.581
731.31	0.593
731.50	0.603
731.68	0.607
731.86	0.603
732.05	0.616
732.23	0.619
732.42	0.621
732.60	0.625
732.78	0.631
732.97	0.650
733.15	0.657
733.33	0.646
733.52	0.651
733.70	0.662
733.88	0.671
734.07	0.657
734.25	0.682
734.43	0.691
734.62	0.692
734.80	0.687
734.98	0.676
735.17	0.682
735.35	0.687
735.53	0.675
735.72	0.677
735.90	0.696
736.08	0.711
736.27	0.687
736.45	0.695
736.63	0.705
736.82	0.713
737.00	0.716
737.18	0.725
737.37	0.754
737.55	0.778
737.73	0.772
737.92	0.770
738.10	0.770
738.28	0.791
738.46	0.781
738.65	0.797
738.83	0.815
739.01	0.863
739.20	0.858
739.38	0.842
739.56	0.831
739.75	0.837
739.93	0.810
740.11	0.834
740.29	0.834
740.48	0.840
740.66	0.818
740.84	0.815
741.03	0.781
741.21	0.791
741.39	0.773
741.57	0.782
741.76	0.796
741.94	0.802
742.12	0.767
742.31	0.772
742.49	0.790
742.67	0.813
742.85	0.827
743.04	0.832
743.22	0.839
743.40	0.890
743.58	0.875
743.77	0.892
743.95	0.923
744.13	0.974
744.31	0.956
744.50	0.947
744.68	0.942
744.86	0.916
745.04	0.928
745.23	0.988
745.41	0.969
745.59	0.975
745.77	0.942
745.96	0.933
746.14	0.943
746.32	0.940
746.50	0.935
746.69	0.922
746.87	0.933
747.05	0.919
747.23	0.848
747.42	0.836
747.60	0.856
747.78	0.862
747.96	0.887
748.14	0.846
748.33	0.869
748.51	0.865
748.69	0.860
748.87	0.884
749.06	0.876
749.24	0.877
749.42	0.862
749.60	0.847
749.78	0.850
749.97	0.809
750.15	0.801
750.33	0.802
750.51	0.822
750.69	0.825
750.88	0.835
751.06	0.844
751.24	0.865
751.42	0.855
751.60	0.848
751.79	0.919
751.97	0.956
752.15	0.958
752.33	0.929
752.51	0.986
752.69	0.992
752.88	0.957
753.06	1.001
753.24	0.979
753.42	1.016
753.60	1.166
753.78	1.040
753.97	1.072
754.15	1.085
754.33	1.117
754.51	1.000
754.69	0.992
754.87	1.021
755.06	0.957
755.24	0.958
755.42	0.964
755.60	0.865
755.78	0.872
755.96	0.817
756.15	0.819
756.33	0.824
756.51	0.842
756.69	0.831
756.87	0.800
757.05	0.814
757.23	0.802
757.42	0.772
757.60	0.775
757.78	0.765
757.96	0.764
758.14	0.745
758.32	0.728
758.50	0.739
758.69	0.735
758.87	0.729
759.05	0.731
759.23	0.739
759.41	0.740
759.59	0.732
759.77	0.752
759.95	0.777
760.13	0.827
760.32	0.829
760.50	0.824
760.68	0.848
760.86	0.849
761.04	0.825
761.22	0.826
761.40	0.873
761.58	0.873
761.76	0.847
761.95	0.828
762.13	0.786
762.31	0.784
762.49	0.757
762.67	0.773
762.85	0.782
763.03	0.779
763.21	0.763
763.39	0.743
763.57	0.746
763.75	0.740
763.94	0.726
764.12	0.725
764.30	0.746
764.48	0.752
764.66	0.717
764.84	0.718
765.02	0.751
765.20	0.759
765.38	0.742
765.56	0.748
765.74	0.785
765.92	0.789
766.10	0.799
766.28	0.791
766.46	0.814
766.65	0.816
766.83	0.803
767.01	0.789
767.19	0.793
767.37	0.793
767.55	0.783
767.73	0.762
767.91	0.763
768.09	0.750
768.27	0.740
768.45	0.733
768.63	0.739
768.81	0.742
768.99	0.718
769.17	0.739
769.35	0.752
769.53	0.749
769.71	0.733
769.89	0.741
770.07	0.747
770.25	0.732
770.43	0.709
770.61	0.730
770.79	0.736
770.97	0.744
771.15	0.715
771.33	0.717
771.51	0.719
771.69	0.730
771.87	0.738
772.05	0.742
772.24	0.747
772.42	0.757
772.60	0.734
772.78	0.786
772.96	0.811
773.14	0.809
773.32	0.788
773.49	0.796
773.67	0.795
773.85	0.771
774.03	0.762
774.21	0.794
774.39	0.804
774.57	0.828
774.75	0.762
774.93	0.757
775.11	0.776
775.29	0.782
775.47	0.782
775.65	0.790
775.83	0.808
776.01	0.828
776.19	0.785
776.37	0.787
776.55	0.785
776.73	0.786
776.91	0.786
777.09	0.770
777.27	0.768
777.45	0.758
777.63	0.735
777.81	0.733
777.99	0.721
778.17	0.722
778.35	0.704
778.53	0.693
778.71	0.698
778.89	0.682
779.07	0.676
779.24	0.682
779.42	0.681
779.60	0.696
779.78	0.692
779.96	0.696
780.14	0.700
780.32	0.720
780.50	0.705
780.68	0.702
780.86	0.697
781.04	0.711
781.22	0.715
781.40	0.724
781.58	0.716
781.75	0.709
781.93	0.695
782.11	0.695
782.29	0.680
782.47	0.681
782.65	0.670
782.83	0.694
783.01	0.689
783.19	0.684
783.37	0.674
783.55	0.677
783.72	0.694
783.90	0.706
784.08	0.701
784.26	0.711
784.44	0.729
784.62	0.733
784.80	0.704
784.98	0.710
785.16	0.717
785.33	0.729
785.51	0.717
785.69	0.705
785.87	0.702
786.05	0.711
786.23	0.708
786.41	0.704
786.59	0.708
786.77	0.707
786.94	0.695
787.12	0.696
787.30	0.698
787.48	0.696
787.66	0.684
787.84	0.683
788.02	0.673
788.19	0.672
788.37	0.661
788.55	0.664
788.73	0.664
788.91	0.659
789.09	0.644
789.27	0.634
789.44	0.646
789.62	0.653
789.80	0.662
789.98	0.685
790.16	0.672
790.34	0.668
790.51	0.655
790.69	0.673
790.87	0.677
791.05	0.675
791.23	0.668
791.41	0.666
791.58	0.672
791.76	0.653
791.94	0.627
792.12	0.635
792.30	0.638
792.48	0.636
792.65	0.630
792.83	0.638
793.01	0.646
793.19	0.644
793.37	0.630
793.54	0.629
793.72	0.638
793.90	0.636
794.08	0.626
794.26	0.627
794.43	0.635
794.61	0.620
794.79	0.608
794.97	0.606
795.15	0.611
795.32	0.614
795.50	0.603
795.68	0.600
795.86	0.603
796.04	0.605
796.21	0.600
796.39	0.599
796.57	0.613
796.75	0.621
796.92	0.622
797.10	0.627
797.28	0.630
797.46	0.633
797.64	0.632
797.81	0.641
797.99	0.644
798.17	0.647
798.35	0.641
798.52	0.642
798.70	0.637
798.88	0.643
799.06	0.642
799.23	0.643
799.41	0.649
799.59	0.643
799.77	0.633
799.94	0.641
800.12	0.650
800.30	0.664
800.48	0.665
800.65	0.665
800.83	0.658
801.01	0.651
801.19	0.653
801.36	0.649
801.54	0.653
801.72	0.663
801.90	0.650
802.07	0.645
802.25	0.633
802.43	0.617
802.60	0.613
802.78	0.619
802.96	0.624
803.14	0.617
803.31	0.616
803.49	0.616
803.67	0.613
803.84	0.617
804.02	0.610
804.20	0.612
804.38	0.618
804.55	0.618
804.73	0.603
804.91	0.604
805.08	0.615
805.26	0.612
805.44	0.674
805.61	0.676
805.79	0.675
805.97	0.673
806.15	0.665
806.32	0.661
806.50	0.665
806.68	0.666
806.85	0.657
807.03	0.650
807.21	0.666
807.38	0.603
807.56	0.593
807.74	0.603
807.91	0.609
808.09	0.612
808.27	0.631
808.44	0.655
808.62	0.661
808.80	0.664
808.97	0.658
809.15	0.651
809.33	0.666
809.50	0.673
809.68	0.660
809.86	0.667
810.03	0.695
810.21	0.675
810.39	0.660
810.56	0.668
810.74	0.689
810.91	0.755
811.09	0.746
811.27	0.763
811.44	0.767
811.62	0.769
811.80	0.753
811.97	0.727
812.15	0.725
812.33	0.721
812.50	0.709
812.68	0.698
812.85	0.648
813.03	0.652
813.21	0.625
813.38	0.620
813.56	0.622
813.74	0.633
813.91	0.640
814.09	0.670
814.26	0.662
814.44	0.664
814.62	0.656
814.79	0.656
814.97	0.659
815.14	0.662
815.32	0.666
815.50	0.685
815.67	0.687
815.85	0.679
816.02	0.667
816.20	0.674
816.38	0.689
816.55	0.692
816.73	0.696
816.90	0.707
817.08	0.733
817.26	0.740
817.43	0.718
817.61	0.740
817.78	0.758
817.96	0.738
818.13	0.730
818.31	0.728
818.49	0.738
818.66	0.726
818.84	0.713
819.01	0.694
819.19	0.696
819.36	0.698
819.54	0.671
819.71	0.705
819.89	0.716
820.07	0.726
820.24	0.723
820.42	0.726
820.59	0.744
820.77	0.764
820.94	0.756
821.12	0.775
821.29	0.789
821.47	0.789
821.64	0.736
821.82	0.751
822.00	0.747
822.17	0.742
822.35	0.736
822.52	0.738
822.70	0.728
822.87	0.734
823.05	0.717
823.22	0.726
823.40	0.752
823.57	0.771
823.75	0.751
823.92	0.776
824.10	0.794
824.27	0.830
824.45	0.820
824.62	0.876
824.80	0.894
824.97	0.907
825.15	0.899
825.32	0.908
825.50	0.908
825.67	0.918
825.85	0.896
826.02	0.913
826.20	0.931
826.37	1.048
826.55	0.976
826.72	1.137
826.90	1.198
827.07	1.250
827.25	1.205
827.42	1.348
827.60	1.477
827.77	1.642
827.95	1.628
828.12	1.717
828.30	1.363
828.47	1.470
828.65	1.174
828.82	1.221
829.00	1.277
829.17	1.348
829.34	1.346
829.52	1.394
829.69	-0.000
829.87	-0.000
830.04	-0.000
830.22	-0.000
830.39	-0.000
830.57	-0.000
830.74	-0.000
830.92	-0.000
831.09	-0.000
831.26	-0.000
831.44	-0.000
831.61	-0.000
831.79	-0.000
831.96	-0.000
832.14	-0.000
832.31	-0.000
832.49	-0.000
832.66	-0.000
832.83	-0.000
833.01	-0.000
833.18	-0.000
833.36	-0.000
833.53	-0.000
833.70	-0.000
833.88	-0.000
834.05	-0.000
834.23	-0.000
834.40	-0.000
834.58	-0.000
834.75	-0.000
834.92	-0.000
835.10	-0.000
835.27	-0.000
835.45	-0.000
835.62	-0.000
835.79	-0.000
835.97	-0.000
836.14	-0.000
836.32	-0.000
836.49	-0.000
836.66	-0.000
836.84	-0.000
837.01	-0.000
837.18	-0.000
837.36	-0.000
837.53	-0.000
837.71	-0.000
837.88	-0.000
838.05	-0.000
838.23	-0.000
838.40	-0.000
838.58	-0.000
838.75	-0.000
838.92	-0.000
839.10	-0.000
839.27	-0.000
839.44	-0.000
839.62	-0.000
839.79	-0.000
839.96	-0.000
840.14	-0.000
840.31	-0.000
840.48	-0.000
840.66	-0.000
840.83	-0.000
841.01	-0.000
841.18	-0.000
841.35	-0.000
841.53	-0.000
841.70	-0.000
841.87	-0.000
842.05	-0.000
842.22	-0.000
842.39	-0.000
842.57	-0.000
842.74	-0.000
842.91	-0.000
843.09	-0.000
843.26	-0.000
843.43	-0.000
843.60	-0.000
843.78	-0.000
843.95	-0.000
844.12	-0.000
844.30	-0.000
844.47	-0.000
844.64	-0.000
844.82	-0.000
844.99	-0.000
845.16	-0.000
845.34	-0.000
845.51	-0.000
845.68	-0.000
845.85	-0.000
846.03	-0.000
846.20	-0.000
846.37	-0.000
846.55	-0.000
846.72	-0.000
846.89	-0.000
847.06	-0.000
847.24	-0.000
847.41	-0.000
847.58	-0.000
847.76	-0.000
847.93	-0.000
848.10	-0.000
848.27	-0.000
848.45	-0.000
848.62	-0.000
848.79	-0.000
848.97	-0.000
849.14	-0.000
849.31	-0.000
849.48	-0.000
849.66	-0.000
849.83	-0.000
850.00	-0.000
850.17	-0.000
850.35	-0.000
850.52	-0.000
850.69	-0.000
850.86	-0.000
851.04	-0.000
851.21	-0.000
851.38	-0.000
851.55	-0.000
851.72	-0.000
851.90	-0.000
852.07	-0.000
852.24	-0.000
852.41	-0.000
852.59	-0.000
852.76	-0.000
852.93	-0.000
853.10	-0.000
853.28	-0.000
853.45	-0.000
853.62	-0.000
853.79	-0.000
853.96	-0.000
854.14	-0.000
854.31	-0.000
854.48	-0.000
854.65	-0.000
854.82	-0.000
855.00	-0.000
855.17	-0.000
855.34	-0.000
855.51	-0.000
855.68	-0.000
855.86	-0.000
856.03	-0.000
856.20	-0.000
856.37	-0.000
856.54	-0.000
856.72	-0.000
856.89	-0.000
857.06	-0.000
857.23	-0.000
857.40	-0.000
857.57	-0.000
857.75	-0.000
857.92	-0.000
858.09	-0.000
858.26	-0.000
858.43	-0.000
858.60	-0.000
858.78	-0.000
858.95	-0.000
859.12	-0.000
859.29	-0.000
859.46	-0.000
859.63	-0.000
859.81	-0.000
859.98	-0.000
860.15	-0.000
860.32	-0.000
860.49	-0.000
860.66	-0.000
860.83	-0.000
861.01	-0.000
861.18	-0.000
861.35	-0.000
861.52	-0.000
861.69	-0.000
861.86	-0.000
862.03	-0.000
862.21	-0.000
862.38	-0.000
862.55	-0.000
862.72	-0.000
862.89	-0.000
863.06	-0.000
863.23	-0.000
863.40	-0.000
863.58	-0.000
863.75	-0.000
863.92	-0.000
864.09	-0.000
864.26	-0.000
864.43	-0.000
864.60	-0.000
864.77	-0.000
864.94	-0.000
865.11	-0.000
865.29	-0.000
865.46	-0.000
865.63	-0.000
865.80	-0.000
865.97	-0.000
866.14	-0.000
866.31	-0.000
866.48	-0.000
866.65	-0.000
866.82	-0.000
866.99	-0.000
867.16	-0.000
867.34	-0.000
867.51	-0.000
867.68	-0.000
867.85	-0.000
868.02	-0.000
868.19	-0.000
868.36	-0.000
868.53	-0.000
868.70	-0.000
868.87	-0.000
869.04	-0.000
869.21	-0.000
869.38	-0.000
869.55	-0.000
869.72	-0.000
869.89	-0.000
870.06	-0.000
870.24	-0.000
870.41	-0.000
870.58	-0.000
870.75	-0.000
870.92	-0.000
871.09	-0.000
871.26	-0.000
871.43	-0.000
871.60	-0.000
871.77	-0.000
871.94	-0.000
872.11	-0.000
872.28	-0.000
872.45	-0.000
872.62	-0.000
872.79	-0.000
872.96	-0.000
873.13	-0.000
873.30	-0.000
873.47	-0.000
873.64	-0.000
873.81	-0.000
873.98	-0.000
874.15	-0.000
874.32	-0.000
874.49	-0.000
874.66	-0.000
874.83	-0.000
875.00	-0.000
875.17	-0.000
875.34	-0.000
875.51	-0.000
875.68	-0.000
875.85	-0.000
876.02	-0.000
876.19	-0.000
876.36	-0.000
876.53	-0.000
876.70	-0.000
876.87	-0.000
877.04	-0.000
877.21	-0.000
877.38	-0.000
877.55	-0.000
877.72	-0.000
877.89	-0.000
878.06	-0.000
878.23	-0.000
878.39	-0.000
878.56	-0.000
878.73	-0.000
878.90	-0.000
879.07	-0.000
879.24	-0.000
879.41	-0.000
879.58	-0.000
879.75	-0.000
879.92	-0.000
880.09	-0.000
880.26	-0.000
880.43	-0.000
880.60	-0.000
880.77	-0.000
880.94	-0.000
881.11	-0.000
881.27	-0.000
881.44	-0.000
881.61	-0.000
881.78	-0.000
881.95	-0.000
882.12	-0.000
882.29	-0.000
882.46	-0.000
882.63	-0.000
882.80	-0.000
882.97	-0.000
883.14	-0.000
883.30	-0.000
883.47	-0.000
883.64	-0.000
883.81	-0.000
883.98	-0.000
884.15	-0.000
884.32	-0.000
884.49	-0.000
884.66	-0.000
884.82	-0.000
884.99	-0.000
885.16	-0.000
885.33	-0.000
885.50	-0.000
885.67	-0.000
885.84	-0.000
886.01	-0.000
886.17	-0.000
886.34	-0.000
886.51	-0.000
886.68	-0.000
886.85	-0.000
887.02	-0.000
887.19	-0.000
887.36	-0.000
887.52	-0.000
887.69	-0.000
887.86	-0.000
888.03	-0.000
888.20	-0.000
888.37	-0.000
888.54	-0.000
888.70	-0.000
888.87	-0.000
889.04	-0.000
889.21	-0.000
889.38	-0.000
889.55	-0.000
889.71	-0.000
889.88	-0.000
890.05	-0.000
890.22	-0.000
890.39	-0.000
>>>>>End Processed Spectral Data<<<<<
