SpectraSuite Data File
++++++++++++++++++++++++++++++++++++
Date: Fri Jun 19 13:26:32 CEST 2015
User: introlabs
Dark Spectrum Present: Yes
Reference Spectrum Present: Yes
Number of Sampled Component Spectra: 1
Spectrometers: USB4H08886
Integration Time (usec): 745692 (USB4H08886)
Spectra Averaged: 5 (USB4H08886)
Boxcar Smoothing: 5 (USB4H08886)
Correct for Electrical Dark: Yes (USB4H08886)
Strobe/Lamp Enabled: No (USB4H08886)
Correct for Detector Non-linearity: Yes (USB4H08886)
Correct for Stray Light: Yes (USB4H08886)
Number of Pixels in Processed Spectrum: 3648
>>>>>Begin Processed Spectral Data<<<<<
178.14	-0.000
178.36	-0.000
178.57	-0.000
178.79	-0.000
179.01	-0.000
179.22	-0.000
179.44	-0.000
179.65	-0.000
179.87	-0.000
180.08	-0.000
180.30	-0.000
180.52	-0.000
180.73	-0.000
180.95	-0.000
181.16	-0.000
181.38	-0.000
181.59	-0.000
181.81	-0.000
182.03	-0.000
182.24	-0.000
182.46	-0.000
182.67	-0.000
182.89	-0.000
183.10	-0.000
183.32	-0.000
183.54	-0.000
183.75	-0.000
183.97	-0.000
184.18	-0.000
184.40	-0.000
184.61	-0.000
184.83	-0.000
185.04	-0.000
185.26	-0.000
185.48	-0.000
185.69	-0.000
185.91	-0.000
186.12	-0.000
186.34	-0.000
186.55	-0.000
186.77	-0.000
186.98	-0.000
187.20	-0.000
187.42	-0.000
187.63	-0.000
187.85	-0.000
188.06	-0.000
188.28	-0.000
188.49	-0.000
188.71	-0.000
188.92	-0.000
189.14	-0.000
189.36	-0.000
189.57	-0.000
189.79	-0.000
190.00	-0.000
190.22	-0.000
190.43	-0.000
190.65	-0.000
190.86	-0.000
191.08	-0.000
191.29	-0.000
191.51	-0.000
191.72	-0.000
191.94	-0.000
192.16	-0.000
192.37	-0.000
192.59	-0.000
192.80	-0.000
193.02	-0.000
193.23	-0.000
193.45	-0.000
193.66	-0.000
193.88	-0.000
194.09	-0.000
194.31	-0.000
194.52	-0.000
194.74	-0.000
194.95	-0.000
195.17	-0.000
195.38	-0.000
195.60	-0.000
195.81	-0.000
196.03	-0.000
196.25	-0.000
196.46	-0.000
196.68	-0.000
196.89	-0.000
197.11	-0.000
197.32	-0.000
197.54	-0.000
197.75	-0.000
197.97	-0.000
198.18	-0.000
198.40	-0.000
198.61	-0.000
198.83	-0.000
199.04	-0.000
199.26	-0.000
199.47	-0.000
199.69	-0.000
199.90	-0.000
200.12	-0.000
200.33	-0.000
200.55	-0.000
200.76	-0.000
200.98	-0.000
201.19	-0.000
201.41	-0.000
201.62	-0.000
201.84	-0.000
202.05	-0.000
202.27	-0.000
202.48	-0.000
202.70	-0.000
202.91	-0.000
203.13	-0.000
203.34	-0.000
203.56	-0.000
203.77	-0.000
203.99	-0.000
204.20	-0.000
204.42	-0.000
204.63	-0.000
204.85	-0.000
205.06	-0.000
205.28	-0.000
205.49	-0.000
205.71	-0.000
205.92	-0.000
206.14	-0.000
206.35	-0.000
206.56	-0.000
206.78	-0.000
206.99	-0.000
207.21	-0.000
207.42	-0.000
207.64	-0.000
207.85	-0.000
208.07	-0.000
208.28	-0.000
208.50	-0.000
208.71	-0.000
208.93	-0.000
209.14	-0.000
209.36	-0.000
209.57	-0.000
209.79	-0.000
210.00	-0.000
210.22	-0.000
210.43	-0.000
210.64	-0.000
210.86	-0.000
211.07	-0.000
211.29	-0.000
211.50	-0.000
211.72	-0.000
211.93	-0.000
212.15	-0.000
212.36	-0.000
212.58	-0.000
212.79	-0.000
213.01	-0.000
213.22	-0.000
213.43	-0.000
213.65	-0.000
213.86	-0.000
214.08	-0.000
214.29	-0.000
214.51	-0.000
214.72	-0.000
214.94	-0.000
215.15	-0.000
215.36	-0.000
215.58	-0.000
215.79	-0.000
216.01	-0.000
216.22	-0.000
216.44	-0.000
216.65	-0.000
216.87	-0.000
217.08	-0.000
217.29	-0.000
217.51	-0.000
217.72	-0.000
217.94	-0.000
218.15	-0.000
218.37	-0.000
218.58	-0.000
218.80	-0.000
219.01	-0.000
219.22	-0.000
219.44	-0.000
219.65	-0.000
219.87	-0.000
220.08	-0.000
220.30	-0.000
220.51	-0.000
220.72	-0.000
220.94	-0.000
221.15	-0.000
221.37	-0.000
221.58	-0.000
221.79	-0.000
222.01	-0.000
222.22	-0.000
222.44	-0.000
222.65	-0.000
222.87	-0.000
223.08	-0.000
223.29	-0.000
223.51	-0.000
223.72	-0.000
223.94	-0.000
224.15	-0.000
224.36	-0.000
224.58	-0.000
224.79	-0.000
225.01	-0.000
225.22	-0.000
225.44	-0.000
225.65	-0.000
225.86	-0.000
226.08	-0.000
226.29	-0.000
226.51	-0.000
226.72	-0.000
226.93	-0.000
227.15	-0.000
227.36	-0.000
227.58	-0.000
227.79	-0.000
228.00	-0.000
228.22	-0.000
228.43	-0.000
228.65	-0.000
228.86	-0.000
229.07	-0.000
229.29	-0.000
229.50	-0.000
229.72	-0.000
229.93	-0.000
230.14	-0.000
230.36	-0.000
230.57	-0.000
230.78	-0.000
231.00	-0.000
231.21	-0.000
231.43	-0.000
231.64	-0.000
231.85	-0.000
232.07	-0.000
232.28	-0.000
232.50	-0.000
232.71	-0.000
232.92	-0.000
233.14	-0.000
233.35	-0.000
233.56	-0.000
233.78	-0.000
233.99	-0.000
234.21	-0.000
234.42	-0.000
234.63	-0.000
234.85	-0.000
235.06	-0.000
235.27	-0.000
235.49	-0.000
235.70	-0.000
235.91	-0.000
236.13	-0.000
236.34	-0.000
236.56	-0.000
236.77	-0.000
236.98	-0.000
237.20	-0.000
237.41	-0.000
237.62	-0.000
237.84	-0.000
238.05	-0.000
238.26	-0.000
238.48	-0.000
238.69	-0.000
238.91	-0.000
239.12	-0.000
239.33	-0.000
239.55	-0.000
239.76	-0.000
239.97	-0.000
240.19	-0.000
240.40	-0.000
240.61	-0.000
240.83	-0.000
241.04	-0.000
241.25	-0.000
241.47	-0.000
241.68	-0.000
241.89	-0.000
242.11	-0.000
242.32	-0.000
242.53	-0.000
242.75	-0.000
242.96	-0.000
243.17	-0.000
243.39	-0.000
243.60	-0.000
243.81	-0.000
244.03	-0.000
244.24	-0.000
244.45	-0.000
244.67	-0.000
244.88	-0.000
245.09	-0.000
245.31	-0.000
245.52	-0.000
245.73	-0.000
245.95	-0.000
246.16	-0.000
246.37	-0.000
246.59	-0.000
246.80	-0.000
247.01	-0.000
247.23	-0.000
247.44	-0.000
247.65	-0.000
247.87	-0.000
248.08	-0.000
248.29	-0.000
248.51	-0.000
248.72	-0.000
248.93	-0.000
249.15	-0.000
249.36	-0.000
249.57	-0.000
249.78	-0.000
250.00	-0.000
250.21	-0.000
250.42	-0.000
250.64	-0.000
250.85	-0.000
251.06	-0.000
251.28	-0.000
251.49	-0.000
251.70	-0.000
251.92	-0.000
252.13	-0.000
252.34	-0.000
252.55	-0.000
252.77	-0.000
252.98	-0.000
253.19	-0.000
253.41	-0.000
253.62	-0.000
253.83	-0.000
254.05	-0.000
254.26	-0.000
254.47	-0.000
254.68	-0.000
254.90	-0.000
255.11	-0.000
255.32	-0.000
255.54	-0.000
255.75	-0.000
255.96	-0.000
256.17	-0.000
256.39	-0.000
256.60	-0.000
256.81	-0.000
257.03	-0.000
257.24	-0.000
257.45	-0.000
257.66	-0.000
257.88	-0.000
258.09	-0.000
258.30	-0.000
258.51	-0.000
258.73	-0.000
258.94	-0.000
259.15	-0.000
259.37	-0.000
259.58	-0.000
259.79	-0.000
260.00	-0.000
260.22	-0.000
260.43	-0.000
260.64	-0.000
260.85	-0.000
261.07	-0.000
261.28	-0.000
261.49	-0.000
261.71	-0.000
261.92	-0.000
262.13	-0.000
262.34	-0.000
262.56	-0.000
262.77	-0.000
262.98	-0.000
263.19	-0.000
263.41	-0.000
263.62	-0.000
263.83	-0.000
264.04	-0.000
264.26	-0.000
264.47	-0.000
264.68	-0.000
264.89	-0.000
265.11	-0.000
265.32	-0.000
265.53	-0.000
265.74	-0.000
265.96	-0.000
266.17	-0.000
266.38	-0.000
266.59	-0.000
266.81	-0.000
267.02	-0.000
267.23	-0.000
267.44	-0.000
267.65	-0.000
267.87	-0.000
268.08	-0.000
268.29	-0.000
268.50	-0.000
268.72	-0.000
268.93	-0.000
269.14	-0.000
269.35	-0.000
269.57	-0.000
269.78	-0.000
269.99	-0.000
270.20	-0.000
270.41	-0.000
270.63	-0.000
270.84	-0.000
271.05	-0.000
271.26	-0.000
271.48	-0.000
271.69	-0.000
271.90	-0.000
272.11	-0.000
272.32	-0.000
272.54	-0.000
272.75	-0.000
272.96	-0.000
273.17	-0.000
273.39	-0.000
273.60	-0.000
273.81	-0.000
274.02	-0.000
274.23	-0.000
274.45	-0.000
274.66	-0.000
274.87	-0.000
275.08	-0.000
275.29	-0.000
275.51	-0.000
275.72	-0.000
275.93	-0.000
276.14	-0.000
276.35	-0.000
276.57	-0.000
276.78	-0.000
276.99	-0.000
277.20	-0.000
277.41	-0.000
277.63	-0.000
277.84	-0.000
278.05	-0.000
278.26	-0.000
278.47	-0.000
278.69	-0.000
278.90	-0.000
279.11	-0.000
279.32	-0.000
279.53	-0.000
279.74	-0.000
279.96	-0.000
280.17	-0.000
280.38	-0.000
280.59	-0.000
280.80	-0.000
281.02	-0.000
281.23	-0.000
281.44	-0.000
281.65	-0.000
281.86	-0.000
282.07	-0.000
282.29	-0.000
282.50	-0.000
282.71	-0.000
282.92	-0.000
283.13	-0.000
283.35	-0.000
283.56	-0.000
283.77	-0.000
283.98	-0.000
284.19	-0.000
284.40	-0.000
284.62	-0.000
284.83	-0.000
285.04	-0.000
285.25	-0.000
285.46	-0.000
285.67	-0.000
285.88	-0.000
286.10	-0.000
286.31	-0.000
286.52	-0.000
286.73	-0.000
286.94	-0.000
287.15	-0.000
287.37	-0.000
287.58	-0.000
287.79	-0.000
288.00	-0.000
288.21	-0.000
288.42	-0.000
288.63	-0.000
288.85	-0.000
289.06	-0.000
289.27	-0.000
289.48	-0.000
289.69	-0.000
289.90	-0.000
290.11	-0.000
290.33	-0.000
290.54	-0.000
290.75	-0.000
290.96	-0.000
291.17	-0.000
291.38	-0.000
291.59	-0.000
291.81	-0.000
292.02	-0.000
292.23	-0.000
292.44	-0.000
292.65	-0.000
292.86	-0.000
293.07	-0.000
293.28	-0.000
293.50	-0.000
293.71	-0.000
293.92	-0.000
294.13	-0.000
294.34	-0.000
294.55	-0.000
294.76	-0.000
294.97	-0.000
295.19	-0.000
295.40	-0.000
295.61	-0.000
295.82	-0.000
296.03	-0.000
296.24	-0.000
296.45	-0.000
296.66	-0.000
296.87	-0.000
297.09	-0.000
297.30	-0.000
297.51	2.467
297.72	2.305
297.93	3.011
298.14	2.581
298.35	2.315
298.56	2.202
298.77	3.022
298.99	2.622
299.20	2.371
299.41	2.252
299.62	2.093
299.83	2.064
300.04	1.893
300.25	1.871
300.46	1.984
300.67	1.919
300.88	1.814
301.10	1.821
301.31	1.980
301.52	1.836
301.73	1.736
301.94	1.735
302.15	1.769
302.36	1.692
302.57	1.592
302.78	1.600
302.99	1.678
303.20	1.699
303.41	1.554
303.63	1.529
303.84	1.546
304.05	1.538
304.26	1.450
304.47	1.457
304.68	1.458
304.89	1.444
305.10	1.385
305.31	1.366
305.52	1.420
305.73	1.410
305.94	1.359
306.15	1.352
306.37	1.379
306.58	1.390
306.79	1.344
307.00	1.374
307.21	1.426
307.42	1.413
307.63	1.364
307.84	1.323
308.05	1.369
308.26	1.368
308.47	1.336
308.68	1.329
308.89	1.331
309.10	1.332
309.31	1.283
309.52	1.271
309.73	1.291
309.95	1.286
310.16	1.248
310.37	1.236
310.58	1.256
310.79	1.252
311.00	1.247
311.21	1.248
311.42	1.250
311.63	1.239
311.84	1.217
312.05	1.213
312.26	1.239
312.47	1.257
312.68	1.226
312.89	1.207
313.10	1.213
313.31	1.181
313.52	1.180
313.73	1.181
313.94	1.187
314.15	1.167
314.36	1.142
314.57	1.133
314.78	1.116
314.99	1.111
315.21	1.096
315.42	1.102
315.63	1.118
315.84	1.094
316.05	1.080
316.26	1.088
316.47	1.108
316.68	1.103
316.89	1.082
317.10	1.104
317.31	1.111
317.52	1.113
317.73	1.090
317.94	1.089
318.15	1.136
318.36	1.131
318.57	1.111
318.78	1.099
318.99	1.139
319.20	1.136
319.41	1.098
319.62	1.098
319.83	1.112
320.04	1.109
320.25	1.093
320.46	1.057
320.67	1.063
320.88	1.058
321.09	1.042
321.30	1.027
321.51	1.042
321.72	1.041
321.93	1.024
322.14	1.015
322.35	1.042
322.56	1.043
322.77	1.029
322.98	1.042
323.19	1.050
323.40	1.058
323.61	1.033
323.82	1.028
324.03	1.034
324.24	1.031
324.45	1.017
324.66	0.998
324.87	0.995
325.08	0.994
325.29	0.973
325.50	0.967
325.71	0.973
325.92	0.981
326.13	0.966
326.34	0.969
326.55	0.978
326.76	0.976
326.97	0.963
327.18	0.958
327.39	0.984
327.60	0.985
327.80	0.983
328.01	0.981
328.22	0.981
328.43	0.985
328.64	0.969
328.85	0.972
329.06	0.975
329.27	0.974
329.48	0.968
329.69	0.949
329.90	0.959
330.11	0.953
330.32	0.944
330.53	0.937
330.74	0.936
330.95	0.935
331.16	0.920
331.37	0.928
331.58	0.928
331.79	0.927
332.00	0.917
332.21	0.910
332.42	0.914
332.63	0.907
332.83	0.902
333.04	0.904
333.25	0.918
333.46	0.916
333.67	0.901
333.88	0.905
334.09	0.915
334.30	0.912
334.51	0.902
334.72	0.898
334.93	0.900
335.14	0.900
335.35	0.892
335.56	0.886
335.77	0.895
335.98	0.894
336.18	0.887
336.39	0.880
336.60	0.885
336.81	0.883
337.02	0.882
337.23	0.886
337.44	0.889
337.65	0.891
337.86	0.881
338.07	0.875
338.28	0.880
338.49	0.877
338.70	0.869
338.91	0.876
339.11	0.884
339.32	0.880
339.53	0.868
339.74	0.864
339.95	0.861
340.16	0.858
340.37	0.850
340.58	0.848
340.79	0.853
341.00	0.852
341.21	0.840
341.41	0.840
341.62	0.842
341.83	0.842
342.04	0.838
342.25	0.848
342.46	0.853
342.67	0.852
342.88	0.844
343.09	0.843
343.30	0.851
343.50	0.855
343.71	0.845
343.92	0.843
344.13	0.848
344.34	0.848
344.55	0.831
344.76	0.831
344.97	0.835
345.18	0.834
345.38	0.831
345.59	0.825
345.80	0.824
346.01	0.823
346.22	0.818
346.43	0.813
346.64	0.822
346.85	0.821
347.06	0.814
347.26	0.815
347.47	0.819
347.68	0.814
347.89	0.809
348.10	0.804
348.31	0.812
348.52	0.811
348.73	0.807
348.93	0.803
349.14	0.806
349.35	0.805
349.56	0.799
349.77	0.795
349.98	0.802
350.19	0.800
350.39	0.795
350.60	0.790
350.81	0.806
351.02	0.805
351.23	0.801
351.44	0.803
351.65	0.807
351.86	0.806
352.06	0.803
352.27	0.803
352.48	0.805
352.69	0.805
352.90	0.801
353.11	0.787
353.31	0.794
353.52	0.790
353.73	0.781
353.94	0.783
354.15	0.788
354.36	0.788
354.57	0.779
354.77	0.781
354.98	0.780
355.19	0.779
355.40	0.779
355.61	0.785
355.82	0.790
356.02	0.789
356.23	0.783
356.44	0.784
356.65	0.789
356.86	0.790
357.07	0.782
357.27	0.786
357.48	0.788
357.69	0.783
357.90	0.767
358.11	0.764
358.32	0.768
358.52	0.769
358.73	0.760
358.94	0.761
359.15	0.767
359.36	0.769
359.56	0.764
359.77	0.761
359.98	0.768
360.19	0.767
360.40	0.764
360.61	0.765
360.81	0.764
361.02	0.764
361.23	0.756
361.44	0.753
361.65	0.753
361.85	0.753
362.06	0.750
362.27	0.752
362.48	0.753
362.69	0.754
362.89	0.748
363.10	0.750
363.31	0.756
363.52	0.759
363.73	0.754
363.93	0.754
364.14	0.756
364.35	0.759
364.56	0.747
364.77	0.749
364.97	0.752
365.18	0.753
365.39	0.747
365.60	0.743
365.81	0.743
366.01	0.743
366.22	0.740
366.43	0.739
366.64	0.742
366.84	0.748
367.05	0.744
367.26	0.744
367.47	0.746
367.68	0.746
367.88	0.743
368.09	0.741
368.30	0.744
368.51	0.743
368.71	0.742
368.92	0.745
369.13	0.743
369.34	0.743
369.55	0.742
369.75	0.741
369.96	0.749
370.17	0.749
370.38	0.746
370.58	0.745
370.79	0.751
371.00	0.750
371.21	0.741
371.41	0.746
371.62	0.750
371.83	0.746
372.04	0.743
372.24	0.735
372.45	0.737
372.66	0.737
372.87	0.734
373.07	0.730
373.28	0.731
373.49	0.734
373.70	0.725
373.90	0.724
374.11	0.734
374.32	0.733
374.53	0.732
374.73	0.732
374.94	0.734
375.15	0.734
375.36	0.732
375.56	0.740
375.77	0.741
375.98	0.740
376.19	0.737
376.39	0.731
376.60	0.735
376.81	0.736
377.02	0.733
377.22	0.732
377.43	0.732
377.64	0.732
377.84	0.722
378.05	0.727
378.26	0.734
378.47	0.733
378.67	0.729
378.88	0.726
379.09	0.727
379.30	0.726
379.50	0.724
379.71	0.726
379.92	0.729
380.12	0.728
380.33	0.720
380.54	0.716
380.75	0.723
380.95	0.723
381.16	0.721
381.37	0.721
381.57	0.723
381.78	0.723
381.99	0.722
382.20	0.722
382.40	0.725
382.61	0.725
382.82	0.721
383.02	0.714
383.23	0.717
383.44	0.717
383.64	0.716
383.85	0.718
384.06	0.721
384.27	0.719
384.47	0.716
384.68	0.717
384.89	0.722
385.09	0.722
385.30	0.721
385.51	0.720
385.71	0.724
385.92	0.725
386.13	0.723
386.33	0.725
386.54	0.727
386.75	0.726
386.95	0.721
387.16	0.717
387.37	0.720
387.58	0.720
387.78	0.717
387.99	0.714
388.20	0.716
388.40	0.713
388.61	0.709
388.82	0.712
389.02	0.714
389.23	0.714
389.44	0.713
389.64	0.713
389.85	0.724
390.06	0.723
390.26	0.723
390.47	0.722
390.68	0.724
390.88	0.722
391.09	0.717
391.30	0.717
391.50	0.717
391.71	0.717
391.92	0.713
392.12	0.705
392.33	0.706
392.53	0.706
392.74	0.706
392.95	0.705
393.15	0.708
393.36	0.709
393.57	0.707
393.77	0.710
393.98	0.712
394.19	0.711
394.39	0.710
394.60	0.712
394.81	0.713
395.01	0.712
395.22	0.709
395.43	0.710
395.63	0.715
395.84	0.717
396.04	0.712
396.25	0.714
396.46	0.717
396.66	0.715
396.87	0.712
397.08	0.709
397.28	0.711
397.49	0.713
397.69	0.708
397.90	0.704
398.11	0.705
398.31	0.705
398.52	0.701
398.73	0.702
398.93	0.701
399.14	0.700
399.34	0.699
399.55	0.700
399.76	0.700
399.96	0.701
400.17	0.699
400.37	0.697
400.58	0.704
400.79	0.706
400.99	0.704
401.20	0.709
401.41	0.712
401.61	0.713
401.82	0.717
402.02	0.717
402.23	0.718
402.44	0.718
402.64	0.717
402.85	0.712
403.05	0.711
403.26	0.710
403.47	0.703
403.67	0.702
403.88	0.703
404.08	0.697
404.29	0.695
404.50	0.695
404.70	0.695
404.91	0.694
405.11	0.691
405.32	0.691
405.52	0.691
405.73	0.691
405.94	0.689
406.14	0.691
406.35	0.693
406.55	0.692
406.76	0.690
406.97	0.691
407.17	0.694
407.38	0.693
407.58	0.692
407.79	0.694
407.99	0.697
408.20	0.698
408.41	0.694
408.61	0.692
408.82	0.693
409.02	0.693
409.23	0.690
409.43	0.689
409.64	0.691
409.84	0.691
410.05	0.687
410.26	0.686
410.46	0.685
410.67	0.685
410.87	0.686
411.08	0.688
411.28	0.689
411.49	0.690
411.69	0.688
411.90	0.690
412.11	0.691
412.31	0.691
412.52	0.690
412.72	0.691
412.93	0.692
413.13	0.690
413.34	0.686
413.54	0.688
413.75	0.690
413.95	0.689
414.16	0.686
414.37	0.689
414.57	0.690
414.78	0.692
414.98	0.690
415.19	0.692
415.39	0.689
415.60	0.692
415.80	0.690
416.01	0.689
416.21	0.691
416.42	0.691
416.62	0.686
416.83	0.686
417.03	0.686
417.24	0.686
417.44	0.683
417.65	0.683
417.86	0.683
418.06	0.681
418.27	0.679
418.47	0.681
418.68	0.681
418.88	0.682
419.09	0.680
419.29	0.680
419.50	0.681
419.70	0.681
419.91	0.679
420.11	0.677
420.32	0.679
420.52	0.679
420.73	0.678
420.93	0.679
421.14	0.681
421.34	0.680
421.55	0.676
421.75	0.676
421.96	0.677
422.16	0.677
422.37	0.677
422.57	0.674
422.78	0.676
422.98	0.673
423.19	0.671
423.39	0.669
423.60	0.673
423.80	0.675
424.01	0.674
424.21	0.676
424.42	0.677
424.62	0.677
424.83	0.676
425.03	0.676
425.23	0.678
425.44	0.678
425.64	0.678
425.85	0.677
426.05	0.678
426.26	0.678
426.46	0.674
426.67	0.674
426.87	0.679
427.08	0.679
427.28	0.677
427.49	0.678
427.69	0.678
427.90	0.677
428.10	0.674
428.31	0.673
428.51	0.675
428.71	0.674
428.92	0.674
429.12	0.672
429.33	0.672
429.53	0.676
429.74	0.681
429.94	0.681
430.15	0.681
430.35	0.681
430.56	0.679
430.76	0.678
430.96	0.679
431.17	0.676
431.37	0.673
431.58	0.671
431.78	0.668
431.99	0.661
432.19	0.663
432.40	0.664
432.60	0.664
432.80	0.666
433.01	0.664
433.21	0.665
433.42	0.667
433.62	0.668
433.83	0.667
434.03	0.670
434.23	0.673
434.44	0.672
434.64	0.670
434.85	0.675
435.05	0.677
435.26	0.677
435.46	0.676
435.66	0.675
435.87	0.676
436.07	0.676
436.28	0.671
436.48	0.668
436.69	0.668
436.89	0.668
437.09	0.663
437.30	0.661
437.50	0.662
437.71	0.674
437.91	0.673
438.11	0.674
438.32	0.679
438.52	0.679
438.73	0.679
438.93	0.677
439.13	0.678
439.34	0.681
439.54	0.678
439.75	0.678
439.95	0.668
440.15	0.673
440.36	0.671
440.56	0.668
440.77	0.669
440.97	0.669
441.17	0.668
441.38	0.669
441.58	0.666
441.79	0.666
441.99	0.664
442.19	0.664
442.40	0.662
442.60	0.662
442.81	0.659
443.01	0.660
443.21	0.660
443.42	0.660
443.62	0.658
443.82	0.658
444.03	0.659
444.23	0.659
444.44	0.659
444.64	0.659
444.84	0.661
445.05	0.660
445.25	0.658
445.45	0.659
445.66	0.661
445.86	0.660
446.06	0.661
446.27	0.661
446.47	0.664
446.68	0.662
446.88	0.661
447.08	0.660
447.29	0.662
447.49	0.662
447.69	0.662
447.90	0.660
448.10	0.664
448.30	0.662
448.51	0.662
448.71	0.660
448.91	0.663
449.12	0.661
449.32	0.663
449.52	0.661
449.73	0.666
449.93	0.665
450.14	0.666
450.34	0.665
450.54	0.667
450.75	0.665
450.95	0.664
451.15	0.663
451.36	0.666
451.56	0.663
451.76	0.662
451.97	0.659
452.17	0.660
452.37	0.658
452.58	0.655
452.78	0.655
452.98	0.658
453.19	0.657
453.39	0.658
453.59	0.657
453.79	0.658
454.00	0.658
454.20	0.656
454.40	0.657
454.61	0.659
454.81	0.660
455.01	0.658
455.22	0.659
455.42	0.662
455.62	0.659
455.83	0.658
456.03	0.661
456.23	0.663
456.44	0.663
456.64	0.662
456.84	0.662
457.04	0.662
457.25	0.662
457.45	0.659
457.65	0.657
457.86	0.658
458.06	0.657
458.26	0.652
458.47	0.651
458.67	0.653
458.87	0.653
459.07	0.651
459.28	0.653
459.48	0.656
459.68	0.656
459.89	0.655
460.09	0.654
460.29	0.656
460.49	0.657
460.70	0.656
460.90	0.655
461.10	0.656
461.31	0.656
461.51	0.653
461.71	0.654
461.91	0.656
462.12	0.656
462.32	0.655
462.52	0.655
462.72	0.658
462.93	0.658
463.13	0.657
463.33	0.658
463.53	0.660
463.74	0.659
463.94	0.654
464.14	0.654
464.35	0.656
464.55	0.656
464.75	0.654
464.95	0.651
465.16	0.654
465.36	0.652
465.56	0.651
465.76	0.650
465.97	0.651
466.17	0.652
466.37	0.650
466.57	0.651
466.78	0.653
466.98	0.653
467.18	0.651
467.38	0.649
467.59	0.651
467.79	0.653
467.99	0.653
468.19	0.655
468.39	0.658
468.60	0.657
468.80	0.655
469.00	0.657
469.20	0.658
469.41	0.658
469.61	0.657
469.81	0.658
470.01	0.658
470.22	0.657
470.42	0.655
470.62	0.653
470.82	0.655
471.02	0.654
471.23	0.652
471.43	0.652
471.63	0.655
471.83	0.654
472.04	0.652
472.24	0.651
472.44	0.657
472.64	0.657
472.84	0.654
473.05	0.653
473.25	0.656
473.45	0.656
473.65	0.654
473.85	0.654
474.06	0.656
474.26	0.656
474.46	0.657
474.66	0.653
474.86	0.654
475.07	0.654
475.27	0.653
475.47	0.650
475.67	0.651
475.87	0.653
476.08	0.649
476.28	0.650
476.48	0.651
476.68	0.650
476.88	0.647
477.09	0.648
477.29	0.650
477.49	0.650
477.69	0.649
477.89	0.649
478.09	0.648
478.30	0.651
478.50	0.648
478.70	0.647
478.90	0.648
479.10	0.651
479.31	0.652
479.51	0.650
479.71	0.651
479.91	0.651
480.11	0.650
480.31	0.651
480.52	0.650
480.72	0.650
480.92	0.649
481.12	0.648
481.32	0.645
481.52	0.643
481.72	0.643
481.93	0.647
482.13	0.647
482.33	0.647
482.53	0.644
482.73	0.645
482.93	0.646
483.14	0.646
483.34	0.645
483.54	0.645
483.74	0.645
483.94	0.644
484.14	0.639
484.34	0.640
484.55	0.640
484.75	0.640
484.95	0.639
485.15	0.638
485.35	0.638
485.55	0.638
485.75	0.636
485.96	0.636
486.16	0.638
486.36	0.637
486.56	0.635
486.76	0.635
486.96	0.636
487.16	0.635
487.36	0.633
487.57	0.633
487.77	0.634
487.97	0.635
488.17	0.633
488.37	0.632
488.57	0.633
488.77	0.633
488.97	0.631
489.18	0.631
489.38	0.633
489.58	0.634
489.78	0.633
489.98	0.632
490.18	0.633
490.38	0.634
490.58	0.632
490.78	0.633
490.98	0.635
491.19	0.635
491.39	0.634
491.59	0.633
491.79	0.636
491.99	0.637
492.19	0.636
492.39	0.639
492.59	0.639
492.79	0.642
492.99	0.642
493.20	0.642
493.40	0.642
493.60	0.643
493.80	0.642
494.00	0.640
494.20	0.641
494.40	0.640
494.60	0.638
494.80	0.642
495.00	0.641
495.20	0.639
495.40	0.638
495.61	0.640
495.81	0.640
496.01	0.643
496.21	0.644
496.41	0.643
496.61	0.644
496.81	0.642
497.01	0.637
497.21	0.636
497.41	0.637
497.61	0.636
497.81	0.633
498.01	0.633
498.21	0.631
498.41	0.629
498.61	0.629
498.82	0.631
499.02	0.633
499.22	0.634
499.42	0.634
499.62	0.635
499.82	0.636
500.02	0.638
500.22	0.636
500.42	0.638
500.62	0.639
500.82	0.640
501.02	0.638
501.22	0.638
501.42	0.638
501.62	0.640
501.82	0.639
502.02	0.639
502.22	0.638
502.42	0.640
502.62	0.638
502.82	0.638
503.02	0.638
503.22	0.638
503.42	0.636
503.63	0.636
503.83	0.633
504.03	0.632
504.23	0.630
504.43	0.631
504.63	0.632
504.83	0.632
505.03	0.631
505.23	0.633
505.43	0.635
505.63	0.636
505.83	0.635
506.03	0.637
506.23	0.639
506.43	0.639
506.63	0.638
506.83	0.637
507.03	0.639
507.23	0.639
507.43	0.636
507.63	0.637
507.83	0.637
508.03	0.637
508.23	0.636
508.43	0.635
508.63	0.637
508.83	0.638
509.03	0.639
509.23	0.638
509.43	0.639
509.63	0.639
509.83	0.638
510.03	0.641
510.23	0.643
510.43	0.644
510.63	0.644
510.83	0.644
511.03	0.646
511.23	0.643
511.43	0.643
511.63	0.644
511.83	0.647
512.03	0.647
512.22	0.643
512.42	0.642
512.62	0.643
512.82	0.643
513.02	0.642
513.22	0.642
513.42	0.644
513.62	0.647
513.82	0.645
514.02	0.644
514.22	0.646
514.42	0.646
514.62	0.646
514.82	0.647
515.02	0.649
515.22	0.652
515.42	0.651
515.62	0.653
515.82	0.652
516.02	0.653
516.22	0.653
516.42	0.653
516.62	0.655
516.82	0.656
517.01	0.654
517.21	0.653
517.41	0.657
517.61	0.657
517.81	0.653
518.01	0.652
518.21	0.652
518.41	0.650
518.61	0.649
518.81	0.649
519.01	0.650
519.21	0.651
519.41	0.650
519.61	0.644
519.81	0.647
520.00	0.648
520.20	0.648
520.40	0.652
520.60	0.653
520.80	0.653
521.00	0.653
521.20	0.653
521.40	0.658
521.60	0.658
521.80	0.657
522.00	0.657
522.20	0.660
522.39	0.660
522.59	0.657
522.79	0.658
522.99	0.661
523.19	0.659
523.39	0.657
523.59	0.655
523.79	0.658
523.99	0.660
524.19	0.659
524.38	0.657
524.58	0.658
524.78	0.659
524.98	0.657
525.18	0.659
525.38	0.661
525.58	0.661
525.78	0.659
525.98	0.657
526.18	0.658
526.37	0.658
526.57	0.659
526.77	0.659
526.97	0.659
527.17	0.659
527.37	0.656
527.57	0.658
527.77	0.660
527.96	0.659
528.16	0.658
528.36	0.659
528.56	0.661
528.76	0.658
528.96	0.657
529.16	0.659
529.36	0.662
529.55	0.662
529.75	0.658
529.95	0.658
530.15	0.660
530.35	0.663
530.55	0.660
530.75	0.661
530.94	0.663
531.14	0.663
531.34	0.661
531.54	0.659
531.74	0.663
531.94	0.666
532.13	0.664
532.33	0.665
532.53	0.664
532.73	0.664
532.93	0.661
533.13	0.662
533.33	0.662
533.52	0.663
533.72	0.666
533.92	0.664
534.12	0.662
534.32	0.663
534.52	0.661
534.71	0.663
534.91	0.666
535.11	0.668
535.31	0.666
535.51	0.668
535.71	0.670
535.90	0.667
536.10	0.668
536.30	0.670
536.50	0.671
536.70	0.671
536.89	0.668
537.09	0.668
537.29	0.670
537.49	0.670
537.69	0.668
537.89	0.669
538.08	0.668
538.28	0.666
538.48	0.666
538.68	0.668
538.88	0.669
539.07	0.670
539.27	0.668
539.47	0.667
539.67	0.667
539.87	0.669
540.06	0.667
540.26	0.668
540.46	0.671
540.66	0.668
540.86	0.665
541.05	0.666
541.25	0.668
541.45	0.668
541.65	0.666
541.84	0.668
542.04	0.669
542.24	0.670
542.44	0.669
542.64	0.671
542.83	0.674
543.03	0.675
543.23	0.672
543.43	0.673
543.62	0.674
543.82	0.674
544.02	0.673
544.22	0.672
544.42	0.676
544.61	0.676
544.81	0.672
545.01	0.671
545.21	0.673
545.40	0.673
545.60	0.671
545.80	0.674
546.00	0.674
546.19	0.673
546.39	0.672
546.59	0.669
546.79	0.671
546.98	0.671
547.18	0.670
547.38	0.671
547.58	0.674
547.77	0.674
547.97	0.670
548.17	0.672
548.37	0.672
548.56	0.672
548.76	0.672
548.96	0.673
549.16	0.676
549.35	0.676
549.55	0.674
549.75	0.674
549.95	0.679
550.14	0.679
550.34	0.677
550.54	0.682
550.73	0.686
550.93	0.686
551.13	0.683
551.33	0.681
551.52	0.682
551.72	0.682
551.92	0.680
552.12	0.680
552.31	0.681
552.51	0.681
552.71	0.676
552.90	0.676
553.10	0.677
553.30	0.677
553.50	0.677
553.69	0.678
553.89	0.679
554.09	0.679
554.28	0.676
554.48	0.677
554.68	0.678
554.87	0.678
555.07	0.674
555.27	0.675
555.47	0.677
555.66	0.677
555.86	0.676
556.06	0.678
556.25	0.679
556.45	0.688
556.65	0.686
556.84	0.690
557.04	0.694
557.24	0.696
557.43	0.695
557.63	0.697
557.83	0.700
558.02	0.700
558.22	0.704
558.42	0.704
558.61	0.696
558.81	0.697
559.01	0.693
559.21	0.692
559.40	0.693
559.60	0.694
559.80	0.690
559.99	0.691
560.19	0.693
560.39	0.687
560.58	0.684
560.78	0.685
560.97	0.689
561.17	0.687
561.37	0.685
561.56	0.686
561.76	0.688
561.96	0.688
562.15	0.685
562.35	0.688
562.55	0.689
562.74	0.689
562.94	0.687
563.14	0.686
563.33	0.687
563.53	0.686
563.73	0.683
563.92	0.683
564.12	0.686
564.31	0.688
564.51	0.685
564.71	0.687
564.90	0.690
565.10	0.691
565.30	0.694
565.49	0.695
565.69	0.698
565.89	0.698
566.08	0.696
566.28	0.698
566.47	0.699
566.67	0.698
566.87	0.694
567.06	0.696
567.26	0.702
567.46	0.697
567.65	0.697
567.85	0.699
568.04	0.701
568.24	0.700
568.44	0.697
568.63	0.695
568.83	0.697
569.02	0.696
569.22	0.691
569.42	0.687
569.61	0.689
569.81	0.688
570.00	0.685
570.20	0.686
570.40	0.688
570.59	0.688
570.79	0.685
570.98	0.683
571.18	0.684
571.38	0.684
571.57	0.681
571.77	0.679
571.96	0.682
572.16	0.680
572.35	0.674
572.55	0.675
572.75	0.673
572.94	0.673
573.14	0.672
573.33	0.672
573.53	0.673
573.73	0.673
573.92	0.671
574.12	0.668
574.31	0.672
574.51	0.673
574.70	0.670
574.90	0.672
575.09	0.675
575.29	0.674
575.49	0.671
575.68	0.672
575.88	0.673
576.07	0.675
576.27	0.672
576.46	0.671
576.66	0.671
576.86	0.670
577.05	0.667
577.25	0.665
577.44	0.667
577.64	0.667
577.83	0.665
578.03	0.666
578.22	0.666
578.42	0.665
578.61	0.663
578.81	0.664
579.00	0.664
579.20	0.664
579.40	0.663
579.59	0.662
579.79	0.662
579.98	0.662
580.18	0.661
580.37	0.661
580.57	0.663
580.76	0.668
580.96	0.666
581.15	0.667
581.35	0.669
581.54	0.668
581.74	0.668
581.93	0.669
582.13	0.671
582.32	0.667
582.52	0.666
582.71	0.666
582.91	0.662
583.10	0.662
583.30	0.661
583.49	0.660
583.69	0.663
583.88	0.665
584.08	0.663
584.27	0.666
584.47	0.669
584.66	0.670
584.86	0.668
585.05	0.670
585.25	0.672
585.44	0.672
585.64	0.671
585.83	0.668
586.03	0.668
586.22	0.666
586.42	0.662
586.61	0.664
586.81	0.667
587.00	0.666
587.20	0.664
587.39	0.665
587.59	0.667
587.78	0.668
587.98	0.669
588.17	0.670
588.37	0.673
588.56	0.675
588.76	0.670
588.95	0.670
589.15	0.674
589.34	0.677
589.54	0.675
589.73	0.675
589.92	0.679
590.12	0.679
590.31	0.676
590.51	0.681
590.70	0.683
590.90	0.683
591.09	0.681
591.29	0.680
591.48	0.680
591.68	0.681
591.87	0.679
592.06	0.679
592.26	0.681
592.45	0.681
592.65	0.674
592.84	0.674
593.04	0.677
593.23	0.678
593.43	0.676
593.62	0.675
593.81	0.675
594.01	0.675
594.20	0.672
594.40	0.672
594.59	0.674
594.79	0.675
594.98	0.673
595.17	0.672
595.37	0.674
595.56	0.677
595.76	0.676
595.95	0.678
596.14	0.681
596.34	0.682
596.53	0.680
596.73	0.681
596.92	0.683
597.12	0.686
597.31	0.685
597.50	0.684
597.70	0.685
597.89	0.685
598.09	0.681
598.28	0.682
598.47	0.684
598.67	0.683
598.86	0.679
599.06	0.681
599.25	0.681
599.44	0.679
599.64	0.676
599.83	0.674
600.03	0.677
600.22	0.678
600.41	0.678
600.61	0.676
600.80	0.678
601.00	0.679
601.19	0.674
601.38	0.673
601.58	0.676
601.77	0.677
601.96	0.680
602.16	0.679
602.35	0.689
602.55	0.686
602.74	0.687
602.93	0.689
603.13	0.695
603.32	0.696
603.51	0.695
603.71	0.698
603.90	0.700
604.09	0.700
604.29	0.697
604.48	0.692
604.68	0.693
604.87	0.692
605.06	0.688
605.26	0.684
605.45	0.686
605.64	0.685
605.84	0.680
606.03	0.679
606.22	0.678
606.42	0.677
606.61	0.674
606.80	0.674
607.00	0.676
607.19	0.676
607.38	0.675
607.58	0.676
607.77	0.679
607.96	0.679
608.16	0.677
608.35	0.682
608.54	0.685
608.74	0.688
608.93	0.693
609.12	0.696
609.32	0.699
609.51	0.702
609.70	0.701
609.90	0.703
610.09	0.708
610.28	0.713
610.48	0.706
610.67	0.708
610.86	0.708
611.06	0.703
611.25	0.699
611.44	0.700
611.64	0.699
611.83	0.702
612.02	0.698
612.21	0.697
612.41	0.696
612.60	0.695
612.79	0.691
612.99	0.692
613.18	0.694
613.37	0.692
613.57	0.689
613.76	0.691
613.95	0.688
614.14	0.688
614.34	0.685
614.53	0.686
614.72	0.690
614.92	0.690
615.11	0.686
615.30	0.683
615.49	0.685
615.69	0.688
615.88	0.684
616.07	0.686
616.26	0.688
616.46	0.690
616.65	0.687
616.84	0.685
617.04	0.687
617.23	0.691
617.42	0.692
617.61	0.695
617.81	0.697
618.00	0.699
618.19	0.697
618.38	0.700
618.58	0.704
618.77	0.705
618.96	0.704
619.15	0.707
619.35	0.708
619.54	0.708
619.73	0.704
619.92	0.706
620.12	0.710
620.31	0.711
620.50	0.705
620.69	0.706
620.89	0.710
621.08	0.710
621.27	0.709
621.46	0.708
621.66	0.713
621.85	0.713
622.04	0.709
622.23	0.709
622.43	0.710
622.62	0.709
622.81	0.708
623.00	0.707
623.19	0.711
623.39	0.710
623.58	0.707
623.77	0.706
623.96	0.710
624.16	0.709
624.35	0.705
624.54	0.708
624.73	0.713
624.92	0.712
625.12	0.709
625.31	0.710
625.50	0.713
625.69	0.714
625.88	0.708
626.08	0.708
626.27	0.710
626.46	0.710
626.65	0.706
626.84	0.706
627.04	0.712
627.23	0.711
627.42	0.706
627.61	0.707
627.80	0.710
628.00	0.711
628.19	0.709
628.38	0.712
628.57	0.715
628.76	0.714
628.96	0.710
629.15	0.710
629.34	0.714
629.53	0.715
629.72	0.710
629.91	0.710
630.11	0.715
630.30	0.716
630.49	0.719
630.68	0.719
630.87	0.724
631.06	0.726
631.26	0.721
631.45	0.722
631.64	0.731
631.83	0.733
632.02	0.730
632.21	0.729
632.41	0.736
632.60	0.730
632.79	0.727
632.98	0.728
633.17	0.729
633.36	0.731
633.55	0.727
633.75	0.723
633.94	0.726
634.13	0.726
634.32	0.724
634.51	0.717
634.70	0.721
634.89	0.720
635.09	0.715
635.28	0.716
635.47	0.717
635.66	0.720
635.85	0.715
636.04	0.717
636.23	0.722
636.43	0.723
636.62	0.722
636.81	0.720
637.00	0.725
637.19	0.728
637.38	0.726
637.57	0.725
637.76	0.727
637.95	0.728
638.15	0.723
638.34	0.720
638.53	0.723
638.72	0.725
638.91	0.721
639.10	0.718
639.29	0.720
639.48	0.719
639.67	0.721
639.87	0.720
640.06	0.725
640.25	0.724
640.44	0.726
640.63	0.726
640.82	0.729
641.01	0.728
641.20	0.728
641.39	0.729
641.58	0.732
641.78	0.730
641.97	0.725
642.16	0.740
642.35	0.742
642.54	0.740
642.73	0.733
642.92	0.732
643.11	0.737
643.30	0.736
643.49	0.730
643.68	0.733
643.87	0.735
644.06	0.735
644.25	0.713
644.45	0.716
644.64	0.719
644.83	0.720
645.02	0.715
645.21	0.714
645.40	0.716
645.59	0.716
645.78	0.710
645.97	0.712
646.16	0.713
646.35	0.713
646.54	0.710
646.73	0.711
646.92	0.713
647.11	0.713
647.30	0.708
647.49	0.709
647.68	0.709
647.88	0.707
648.07	0.701
648.26	0.704
648.45	0.707
648.64	0.703
648.83	0.700
649.02	0.702
649.21	0.714
649.40	0.713
649.59	0.708
649.78	0.710
649.97	0.726
650.16	0.724
650.35	0.716
650.54	0.719
650.73	0.728
650.92	0.724
651.11	0.718
651.30	0.715
651.49	0.721
651.68	0.721
651.87	0.717
652.06	0.706
652.25	0.711
652.44	0.714
652.63	0.709
652.82	0.708
653.01	0.709
653.20	0.707
653.39	0.694
653.58	0.691
653.77	0.690
653.96	0.686
654.15	0.677
654.34	0.674
654.53	0.670
654.72	0.664
654.91	0.655
655.10	0.651
655.29	0.649
655.48	0.647
655.67	0.642
655.86	0.639
656.05	0.638
656.24	0.637
656.43	0.632
656.62	0.631
656.81	0.632
657.00	0.630
657.19	0.627
657.38	0.628
657.57	0.628
657.76	0.630
657.95	0.628
658.14	0.632
658.33	0.636
658.51	0.640
658.70	0.640
658.89	0.641
659.08	0.650
659.27	0.658
659.46	0.658
659.65	0.663
659.84	0.667
660.03	0.670
660.22	0.671
660.41	0.675
660.60	0.675
660.79	0.677
660.98	0.682
661.17	0.682
661.36	0.682
661.55	0.682
661.74	0.681
661.92	0.684
662.11	0.686
662.30	0.684
662.49	0.678
662.68	0.678
662.87	0.681
663.06	0.675
663.25	0.674
663.44	0.674
663.63	0.675
663.82	0.673
664.01	0.667
664.20	0.666
664.38	0.667
664.57	0.667
664.76	0.666
664.95	0.667
665.14	0.673
665.33	0.668
665.52	0.676
665.71	0.680
665.90	0.680
666.09	0.681
666.28	0.678
666.46	0.677
666.65	0.679
666.84	0.678
667.03	0.671
667.22	0.669
667.41	0.673
667.60	0.662
667.79	0.656
667.98	0.657
668.16	0.659
668.35	0.660
668.54	0.655
668.73	0.655
668.92	0.656
669.11	0.655
669.30	0.649
669.49	0.645
669.67	0.648
669.86	0.649
670.05	0.647
670.24	0.644
670.43	0.641
670.62	0.641
670.81	0.636
671.00	0.638
671.18	0.637
671.37	0.637
671.56	0.635
671.75	0.633
671.94	0.631
672.13	0.628
672.32	0.623
672.50	0.622
672.69	0.622
672.88	0.623
673.07	0.618
673.26	0.621
673.45	0.622
673.63	0.622
673.82	0.618
674.01	0.619
674.20	0.619
674.39	0.619
674.58	0.618
674.76	0.618
674.95	0.617
675.14	0.616
675.33	0.611
675.52	0.610
675.71	0.609
675.89	0.609
676.08	0.604
676.27	0.604
676.46	0.604
676.65	0.603
676.84	0.602
677.02	0.603
677.21	0.606
677.40	0.605
677.59	0.603
677.78	0.604
677.96	0.607
678.15	0.607
678.34	0.605
678.53	0.606
678.72	0.606
678.90	0.603
679.09	0.599
679.28	0.596
679.47	0.596
679.66	0.596
679.84	0.592
680.03	0.589
680.22	0.589
680.41	0.591
680.60	0.587
680.78	0.587
680.97	0.589
681.16	0.590
681.35	0.588
681.53	0.586
681.72	0.587
681.91	0.589
682.10	0.587
682.29	0.589
682.47	0.587
682.66	0.586
682.85	0.584
683.04	0.581
683.22	0.582
683.41	0.584
683.60	0.583
683.79	0.584
683.97	0.584
684.16	0.583
684.35	0.579
684.54	0.581
684.72	0.582
684.91	0.583
685.10	0.581
685.29	0.582
685.47	0.579
685.66	0.577
685.85	0.574
686.04	0.573
686.22	0.576
686.41	0.578
686.60	0.575
686.79	0.578
686.97	0.579
687.16	0.580
687.35	0.577
687.54	0.581
687.72	0.585
687.91	0.584
688.10	0.586
688.29	0.585
688.47	0.583
688.66	0.583
688.85	0.578
689.03	0.576
689.22	0.581
689.41	0.582
689.60	0.577
689.78	0.574
689.97	0.576
690.16	0.573
690.34	0.570
690.53	0.570
690.72	0.570
690.91	0.568
691.09	0.566
691.28	0.559
691.47	0.558
691.65	0.557
691.84	0.554
692.03	0.553
692.21	0.551
692.40	0.550
692.59	0.548
692.77	0.546
692.96	0.548
693.15	0.549
693.34	0.547
693.52	0.547
693.71	0.548
693.90	0.549
694.08	0.549
694.27	0.551
694.46	0.561
694.64	0.562
694.83	0.561
695.02	0.560
695.20	0.559
695.39	0.559
695.58	0.558
695.76	0.559
695.95	0.559
696.14	0.558
696.32	0.556
696.51	0.546
696.70	0.546
696.88	0.547
697.07	0.545
697.26	0.547
697.44	0.548
697.63	0.547
697.81	0.544
698.00	0.543
698.19	0.543
698.37	0.544
698.56	0.543
698.75	0.543
698.93	0.543
699.12	0.543
699.31	0.541
699.49	0.541
699.68	0.542
699.87	0.545
700.05	0.545
700.24	0.543
700.42	0.545
700.61	0.545
700.80	0.542
700.98	0.543
701.17	0.544
701.36	0.543
701.54	0.542
701.73	0.543
701.91	0.541
702.10	0.540
702.29	0.538
702.47	0.537
702.66	0.539
702.84	0.540
703.03	0.537
703.22	0.539
703.40	0.539
703.59	0.541
703.77	0.540
703.96	0.540
704.15	0.540
704.33	0.540
704.52	0.539
704.70	0.539
704.89	0.540
705.08	0.538
705.26	0.533
705.45	0.534
705.63	0.534
705.82	0.531
706.00	0.529
706.19	0.528
706.38	0.528
706.56	0.528
706.75	0.525
706.93	0.524
707.12	0.526
707.30	0.527
707.49	0.524
707.68	0.523
707.86	0.523
708.05	0.523
708.23	0.520
708.42	0.520
708.60	0.524
708.79	0.524
708.98	0.522
709.16	0.521
709.35	0.523
709.53	0.527
709.72	0.526
709.90	0.527
710.09	0.530
710.27	0.532
710.46	0.535
710.64	0.534
710.83	0.535
711.02	0.537
711.20	0.535
711.39	0.532
711.57	0.530
711.76	0.530
711.94	0.528
712.13	0.529
712.31	0.528
712.50	0.524
712.68	0.521
712.87	0.522
713.05	0.523
713.24	0.524
713.42	0.523
713.61	0.524
713.79	0.525
713.98	0.525
714.16	0.526
714.35	0.526
714.54	0.528
714.72	0.527
714.91	0.525
715.09	0.531
715.28	0.535
715.46	0.535
715.65	0.532
715.83	0.532
716.02	0.535
716.20	0.531
716.39	0.529
716.57	0.531
716.76	0.534
716.94	0.535
717.12	0.526
717.31	0.527
717.49	0.530
717.68	0.531
717.86	0.530
718.05	0.532
718.23	0.535
718.42	0.537
718.60	0.538
718.79	0.546
718.97	0.549
719.16	0.550
719.34	0.547
719.53	0.547
719.71	0.547
719.90	0.549
720.08	0.545
720.27	0.546
720.45	0.547
720.63	0.545
720.82	0.539
721.00	0.542
721.19	0.546
721.37	0.546
721.56	0.546
721.74	0.550
721.93	0.559
722.11	0.566
722.30	0.565
722.48	0.569
722.66	0.570
722.85	0.570
723.03	0.570
723.22	0.568
723.40	0.571
723.59	0.571
723.77	0.574
723.95	0.568
724.14	0.570
724.32	0.571
724.51	0.570
724.69	0.571
724.88	0.571
725.06	0.570
725.24	0.571
725.43	0.572
725.61	0.575
725.80	0.570
725.98	0.567
726.16	0.563
726.35	0.570
726.53	0.569
726.72	0.568
726.90	0.579
727.09	0.579
727.27	0.585
727.45	0.581
727.64	0.591
727.82	0.599
728.01	0.605
728.19	0.601
728.37	0.606
728.56	0.610
728.74	0.617
728.92	0.605
729.11	0.608
729.29	0.608
729.48	0.611
729.66	0.600
729.84	0.599
730.03	0.602
730.21	0.605
730.40	0.594
730.58	0.596
730.76	0.598
730.95	0.601
731.13	0.600
731.31	0.612
731.50	0.621
731.68	0.625
731.86	0.622
732.05	0.637
732.23	0.641
732.42	0.645
732.60	0.649
732.78	0.652
732.97	0.671
733.15	0.679
733.33	0.666
733.52	0.675
733.70	0.688
733.88	0.697
734.07	0.681
734.25	0.710
734.43	0.719
734.62	0.722
734.80	0.716
734.98	0.705
735.17	0.711
735.35	0.719
735.53	0.706
735.72	0.708
735.90	0.731
736.08	0.751
736.27	0.724
736.45	0.734
736.63	0.748
736.82	0.762
737.00	0.763
737.18	0.776
737.37	0.810
737.55	0.835
737.73	0.829
737.92	0.831
738.10	0.829
738.28	0.852
738.46	0.841
738.65	0.854
738.83	0.877
739.01	0.939
739.20	0.928
739.38	0.909
739.56	0.903
739.75	0.909
739.93	0.872
740.11	0.903
740.29	0.905
740.48	0.909
740.66	0.884
740.84	0.879
741.03	0.844
741.21	0.855
741.39	0.833
741.57	0.847
741.76	0.869
741.94	0.875
742.12	0.834
742.31	0.840
742.49	0.870
742.67	0.898
742.85	0.914
743.04	0.914
743.22	0.931
743.40	0.993
743.58	0.969
743.77	0.992
743.95	1.038
744.13	1.097
744.31	1.071
744.50	1.059
744.68	1.063
744.86	1.024
745.04	1.035
745.23	1.105
745.41	1.088
745.59	1.101
745.77	1.053
745.96	1.035
746.14	1.054
746.32	1.053
746.50	1.041
746.69	1.017
746.87	1.040
747.05	1.018
747.23	0.933
747.42	0.916
747.60	0.944
747.78	0.951
747.96	0.986
748.14	0.930
748.33	0.961
748.51	0.955
748.69	0.948
748.87	0.979
749.06	0.986
749.24	0.991
749.42	0.971
749.60	0.953
749.78	0.962
749.97	0.914
750.15	0.908
750.33	0.913
750.51	0.949
750.69	0.951
750.88	0.952
751.06	0.961
751.24	0.988
751.42	0.976
751.60	0.960
751.79	1.047
751.97	1.109
752.15	1.102
752.33	1.055
752.51	1.127
752.69	1.161
752.88	1.118
753.06	1.174
753.24	1.149
753.42	1.192
753.60	1.430
753.78	1.214
753.97	1.236
754.15	1.265
754.33	1.308
754.51	1.131
754.69	1.103
754.87	1.146
755.06	1.055
755.24	1.051
755.42	1.069
755.60	0.958
755.78	0.965
755.96	0.899
756.15	0.900
756.33	0.908
756.51	0.930
756.69	0.914
756.87	0.874
757.05	0.899
757.23	0.882
757.42	0.843
757.60	0.842
757.78	0.831
757.96	0.830
758.14	0.813
758.32	0.796
758.50	0.814
758.69	0.811
758.87	0.802
759.05	0.806
759.23	0.816
759.41	0.815
759.59	0.805
759.77	0.831
759.95	0.861
760.13	0.915
760.32	0.915
760.50	0.905
760.68	0.934
760.86	0.936
761.04	0.904
761.22	0.906
761.40	0.967
761.58	0.965
761.76	0.931
761.95	0.913
762.13	0.864
762.31	0.861
762.49	0.825
762.67	0.843
762.85	0.857
763.03	0.848
763.21	0.827
763.39	0.804
763.57	0.809
763.75	0.802
763.94	0.786
764.12	0.783
764.30	0.814
764.48	0.818
764.66	0.780
764.84	0.779
765.02	0.823
765.20	0.833
765.38	0.809
765.56	0.815
765.74	0.863
765.92	0.862
766.10	0.873
766.28	0.862
766.46	0.898
766.65	0.896
766.83	0.879
767.01	0.863
767.19	0.874
767.37	0.878
767.55	0.860
767.73	0.835
767.91	0.841
768.09	0.828
768.27	0.816
768.45	0.803
768.63	0.810
768.81	0.811
768.99	0.781
769.17	0.804
769.35	0.820
769.53	0.819
769.71	0.799
769.89	0.808
770.07	0.817
770.25	0.796
770.43	0.774
770.61	0.803
770.79	0.814
770.97	0.823
771.15	0.790
771.33	0.793
771.51	0.797
771.69	0.806
771.87	0.810
772.05	0.817
772.24	0.830
772.42	0.838
772.60	0.810
772.78	0.874
772.96	0.908
773.14	0.901
773.32	0.874
773.49	0.882
773.67	0.885
773.85	0.865
774.03	0.849
774.21	0.880
774.39	0.899
774.57	0.925
774.75	0.842
774.93	0.837
775.11	0.863
775.29	0.869
775.47	0.869
775.65	0.879
775.83	0.898
776.01	0.920
776.19	0.866
776.37	0.863
776.55	0.860
776.73	0.859
776.91	0.851
777.09	0.833
777.27	0.834
777.45	0.824
777.63	0.796
777.81	0.796
777.99	0.785
778.17	0.786
778.35	0.763
778.53	0.754
778.71	0.759
778.89	0.748
779.07	0.736
779.24	0.741
779.42	0.744
779.60	0.764
779.78	0.757
779.96	0.763
780.14	0.772
780.32	0.794
780.50	0.776
780.68	0.775
780.86	0.767
781.04	0.785
781.22	0.787
781.40	0.802
781.58	0.796
781.75	0.788
781.93	0.768
782.11	0.768
782.29	0.752
782.47	0.749
782.65	0.735
782.83	0.767
783.01	0.760
783.19	0.754
783.37	0.734
783.55	0.736
783.72	0.756
783.90	0.767
784.08	0.758
784.26	0.773
784.44	0.797
784.62	0.801
784.80	0.764
784.98	0.770
785.16	0.776
785.33	0.792
785.51	0.775
785.69	0.758
785.87	0.760
786.05	0.773
786.23	0.764
786.41	0.760
786.59	0.766
786.77	0.764
786.94	0.749
787.12	0.752
787.30	0.756
787.48	0.753
787.66	0.740
787.84	0.738
788.02	0.728
788.19	0.728
788.37	0.714
788.55	0.716
788.73	0.717
788.91	0.711
789.09	0.692
789.27	0.679
789.44	0.692
789.62	0.701
789.80	0.710
789.98	0.737
790.16	0.726
790.34	0.720
790.51	0.706
790.69	0.728
790.87	0.736
791.05	0.734
791.23	0.726
791.41	0.728
791.58	0.737
791.76	0.715
791.94	0.682
792.12	0.689
792.30	0.693
792.48	0.690
792.65	0.681
792.83	0.688
793.01	0.697
793.19	0.697
793.37	0.678
793.54	0.673
793.72	0.686
793.90	0.683
794.08	0.670
794.26	0.671
794.43	0.682
794.61	0.665
794.79	0.652
794.97	0.650
795.15	0.656
795.32	0.660
795.50	0.648
795.68	0.642
795.86	0.645
796.04	0.648
796.21	0.642
796.39	0.639
796.57	0.654
796.75	0.662
796.92	0.663
797.10	0.667
797.28	0.670
797.46	0.672
797.64	0.673
797.81	0.682
797.99	0.688
798.17	0.692
798.35	0.687
798.52	0.690
798.70	0.686
798.88	0.696
799.06	0.694
799.23	0.697
799.41	0.705
799.59	0.695
799.77	0.685
799.94	0.693
800.12	0.703
800.30	0.719
800.48	0.717
800.65	0.718
800.83	0.706
801.01	0.698
801.19	0.697
801.36	0.697
801.54	0.703
801.72	0.714
801.90	0.699
802.07	0.692
802.25	0.678
802.43	0.663
802.60	0.657
802.78	0.666
802.96	0.673
803.14	0.666
803.31	0.663
803.49	0.663
803.67	0.658
803.84	0.664
804.02	0.653
804.20	0.654
804.38	0.660
804.55	0.659
804.73	0.645
804.91	0.644
805.08	0.659
805.26	0.653
805.44	0.720
805.61	0.723
805.79	0.722
805.97	0.726
806.15	0.719
806.32	0.715
806.50	0.723
806.68	0.720
806.85	0.709
807.03	0.699
807.21	0.719
807.38	0.646
807.56	0.635
807.74	0.644
807.91	0.652
808.09	0.653
808.27	0.670
808.44	0.698
808.62	0.709
808.80	0.713
808.97	0.705
809.15	0.702
809.33	0.722
809.50	0.731
809.68	0.718
809.86	0.727
810.03	0.762
810.21	0.741
810.39	0.719
810.56	0.726
810.74	0.755
810.91	0.838
811.09	0.824
811.27	0.847
811.44	0.856
811.62	0.860
811.80	0.839
811.97	0.806
812.15	0.806
812.33	0.799
812.50	0.781
812.68	0.766
812.85	0.702
813.03	0.702
813.21	0.668
813.38	0.660
813.56	0.662
813.74	0.671
813.91	0.677
814.09	0.711
814.26	0.707
814.44	0.710
814.62	0.698
814.79	0.705
814.97	0.711
815.14	0.714
815.32	0.719
815.50	0.738
815.67	0.743
815.85	0.733
816.02	0.719
816.20	0.727
816.38	0.745
816.55	0.752
816.73	0.749
816.90	0.763
817.08	0.798
817.26	0.804
817.43	0.778
817.61	0.806
817.78	0.829
817.96	0.807
818.13	0.792
818.31	0.793
818.49	0.809
818.66	0.799
818.84	0.783
819.01	0.761
819.19	0.767
819.36	0.773
819.54	0.739
819.71	0.785
819.89	0.798
820.07	0.814
820.24	0.803
820.42	0.804
820.59	0.827
820.77	0.853
820.94	0.841
821.12	0.862
821.29	0.879
821.47	0.878
821.64	0.807
821.82	0.825
822.00	0.824
822.17	0.825
822.35	0.816
822.52	0.819
822.70	0.807
822.87	0.816
823.05	0.793
823.22	0.805
823.40	0.840
823.57	0.864
823.75	0.837
823.92	0.866
824.10	0.887
824.27	0.933
824.45	0.924
824.62	0.997
824.80	1.018
824.97	1.033
825.15	1.029
825.32	1.044
825.50	1.051
825.67	1.071
825.85	1.040
826.02	1.062
826.20	1.096
826.37	1.261
826.55	1.155
826.72	1.512
826.90	1.728
827.07	1.873
827.25	1.696
827.42	3.290
827.60	-0.000
827.77	-0.000
827.95	-0.000
828.12	-0.000
828.30	-0.000
828.47	-0.000
828.65	1.836
828.82	2.152
829.00	-0.000
829.17	-0.000
829.34	-0.000
829.52	-0.000
829.69	-0.000
829.87	-0.000
830.04	-0.000
830.22	-0.000
830.39	-0.000
830.57	-0.000
830.74	-0.000
830.92	-0.000
831.09	-0.000
831.26	-0.000
831.44	-0.000
831.61	-0.000
831.79	-0.000
831.96	-0.000
832.14	-0.000
832.31	-0.000
832.49	-0.000
832.66	-0.000
832.83	-0.000
833.01	-0.000
833.18	-0.000
833.36	-0.000
833.53	-0.000
833.70	-0.000
833.88	-0.000
834.05	-0.000
834.23	-0.000
834.40	-0.000
834.58	-0.000
834.75	-0.000
834.92	-0.000
835.10	-0.000
835.27	-0.000
835.45	-0.000
835.62	-0.000
835.79	-0.000
835.97	-0.000
836.14	-0.000
836.32	-0.000
836.49	-0.000
836.66	-0.000
836.84	-0.000
837.01	-0.000
837.18	-0.000
837.36	-0.000
837.53	-0.000
837.71	-0.000
837.88	-0.000
838.05	-0.000
838.23	-0.000
838.40	-0.000
838.58	-0.000
838.75	-0.000
838.92	-0.000
839.10	-0.000
839.27	-0.000
839.44	-0.000
839.62	-0.000
839.79	-0.000
839.96	-0.000
840.14	-0.000
840.31	-0.000
840.48	-0.000
840.66	-0.000
840.83	-0.000
841.01	-0.000
841.18	-0.000
841.35	-0.000
841.53	-0.000
841.70	-0.000
841.87	-0.000
842.05	-0.000
842.22	-0.000
842.39	-0.000
842.57	-0.000
842.74	-0.000
842.91	-0.000
843.09	-0.000
843.26	-0.000
843.43	-0.000
843.60	-0.000
843.78	-0.000
843.95	-0.000
844.12	-0.000
844.30	-0.000
844.47	-0.000
844.64	-0.000
844.82	-0.000
844.99	-0.000
845.16	-0.000
845.34	-0.000
845.51	-0.000
845.68	-0.000
845.85	-0.000
846.03	-0.000
846.20	-0.000
846.37	-0.000
846.55	-0.000
846.72	-0.000
846.89	-0.000
847.06	-0.000
847.24	-0.000
847.41	-0.000
847.58	-0.000
847.76	-0.000
847.93	-0.000
848.10	-0.000
848.27	-0.000
848.45	-0.000
848.62	-0.000
848.79	-0.000
848.97	-0.000
849.14	-0.000
849.31	-0.000
849.48	-0.000
849.66	-0.000
849.83	-0.000
850.00	-0.000
850.17	-0.000
850.35	-0.000
850.52	-0.000
850.69	-0.000
850.86	-0.000
851.04	-0.000
851.21	-0.000
851.38	-0.000
851.55	-0.000
851.72	-0.000
851.90	-0.000
852.07	-0.000
852.24	-0.000
852.41	-0.000
852.59	-0.000
852.76	-0.000
852.93	-0.000
853.10	-0.000
853.28	-0.000
853.45	-0.000
853.62	-0.000
853.79	-0.000
853.96	-0.000
854.14	-0.000
854.31	-0.000
854.48	-0.000
854.65	-0.000
854.82	-0.000
855.00	-0.000
855.17	-0.000
855.34	-0.000
855.51	-0.000
855.68	-0.000
855.86	-0.000
856.03	-0.000
856.20	-0.000
856.37	-0.000
856.54	-0.000
856.72	-0.000
856.89	-0.000
857.06	-0.000
857.23	-0.000
857.40	-0.000
857.57	-0.000
857.75	-0.000
857.92	-0.000
858.09	-0.000
858.26	-0.000
858.43	-0.000
858.60	-0.000
858.78	-0.000
858.95	-0.000
859.12	-0.000
859.29	-0.000
859.46	-0.000
859.63	-0.000
859.81	-0.000
859.98	-0.000
860.15	-0.000
860.32	-0.000
860.49	-0.000
860.66	-0.000
860.83	-0.000
861.01	-0.000
861.18	-0.000
861.35	-0.000
861.52	-0.000
861.69	-0.000
861.86	-0.000
862.03	-0.000
862.21	-0.000
862.38	-0.000
862.55	-0.000
862.72	-0.000
862.89	-0.000
863.06	-0.000
863.23	-0.000
863.40	-0.000
863.58	-0.000
863.75	-0.000
863.92	-0.000
864.09	-0.000
864.26	-0.000
864.43	-0.000
864.60	-0.000
864.77	-0.000
864.94	-0.000
865.11	-0.000
865.29	-0.000
865.46	-0.000
865.63	-0.000
865.80	-0.000
865.97	-0.000
866.14	-0.000
866.31	-0.000
866.48	-0.000
866.65	-0.000
866.82	-0.000
866.99	-0.000
867.16	-0.000
867.34	-0.000
867.51	-0.000
867.68	-0.000
867.85	-0.000
868.02	-0.000
868.19	-0.000
868.36	-0.000
868.53	-0.000
868.70	-0.000
868.87	-0.000
869.04	-0.000
869.21	-0.000
869.38	-0.000
869.55	-0.000
869.72	-0.000
869.89	-0.000
870.06	-0.000
870.24	-0.000
870.41	-0.000
870.58	-0.000
870.75	-0.000
870.92	-0.000
871.09	-0.000
871.26	-0.000
871.43	-0.000
871.60	-0.000
871.77	-0.000
871.94	-0.000
872.11	-0.000
872.28	-0.000
872.45	-0.000
872.62	-0.000
872.79	-0.000
872.96	-0.000
873.13	-0.000
873.30	-0.000
873.47	-0.000
873.64	-0.000
873.81	-0.000
873.98	-0.000
874.15	-0.000
874.32	-0.000
874.49	-0.000
874.66	-0.000
874.83	-0.000
875.00	-0.000
875.17	-0.000
875.34	-0.000
875.51	-0.000
875.68	-0.000
875.85	-0.000
876.02	-0.000
876.19	-0.000
876.36	-0.000
876.53	-0.000
876.70	-0.000
876.87	-0.000
877.04	-0.000
877.21	-0.000
877.38	-0.000
877.55	-0.000
877.72	-0.000
877.89	-0.000
878.06	-0.000
878.23	-0.000
878.39	-0.000
878.56	-0.000
878.73	-0.000
878.90	-0.000
879.07	-0.000
879.24	-0.000
879.41	-0.000
879.58	-0.000
879.75	-0.000
879.92	-0.000
880.09	-0.000
880.26	-0.000
880.43	-0.000
880.60	-0.000
880.77	-0.000
880.94	-0.000
881.11	-0.000
881.27	-0.000
881.44	-0.000
881.61	-0.000
881.78	-0.000
881.95	-0.000
882.12	-0.000
882.29	-0.000
882.46	-0.000
882.63	-0.000
882.80	-0.000
882.97	-0.000
883.14	-0.000
883.30	-0.000
883.47	-0.000
883.64	-0.000
883.81	-0.000
883.98	-0.000
884.15	-0.000
884.32	-0.000
884.49	-0.000
884.66	-0.000
884.82	-0.000
884.99	-0.000
885.16	-0.000
885.33	-0.000
885.50	-0.000
885.67	-0.000
885.84	-0.000
886.01	-0.000
886.17	-0.000
886.34	-0.000
886.51	-0.000
886.68	-0.000
886.85	-0.000
887.02	-0.000
887.19	-0.000
887.36	-0.000
887.52	-0.000
887.69	-0.000
887.86	-0.000
888.03	-0.000
888.20	-0.000
888.37	-0.000
888.54	-0.000
888.70	-0.000
888.87	-0.000
889.04	-0.000
889.21	-0.000
889.38	-0.000
889.55	-0.000
889.71	-0.000
889.88	-0.000
890.05	-0.000
890.22	-0.000
890.39	-0.000
>>>>>End Processed Spectral Data<<<<<
