SpectraSuite Data File
++++++++++++++++++++++++++++++++++++
Date: Fri Jun 19 15:32:33 CEST 2015
User: introlabs
Dark Spectrum Present: Yes
Reference Spectrum Present: Yes
Number of Sampled Component Spectra: 1
Spectrometers: USB4H08886
Integration Time (usec): 745692 (USB4H08886)
Spectra Averaged: 5 (USB4H08886)
Boxcar Smoothing: 5 (USB4H08886)
Correct for Electrical Dark: Yes (USB4H08886)
Strobe/Lamp Enabled: No (USB4H08886)
Correct for Detector Non-linearity: Yes (USB4H08886)
Correct for Stray Light: Yes (USB4H08886)
Number of Pixels in Processed Spectrum: 3648
>>>>>Begin Processed Spectral Data<<<<<
178.14	-0.000
178.36	-0.000
178.57	-0.000
178.79	-0.000
179.01	-0.000
179.22	-0.000
179.44	-0.000
179.65	-0.000
179.87	-0.000
180.08	-0.000
180.30	-0.000
180.52	-0.000
180.73	-0.000
180.95	-0.000
181.16	-0.000
181.38	-0.000
181.59	-0.000
181.81	-0.000
182.03	-0.000
182.24	-0.000
182.46	-0.000
182.67	-0.000
182.89	-0.000
183.10	-0.000
183.32	-0.000
183.54	-0.000
183.75	-0.000
183.97	-0.000
184.18	-0.000
184.40	-0.000
184.61	-0.000
184.83	-0.000
185.04	-0.000
185.26	-0.000
185.48	-0.000
185.69	-0.000
185.91	-0.000
186.12	-0.000
186.34	-0.000
186.55	-0.000
186.77	-0.000
186.98	-0.000
187.20	-0.000
187.42	-0.000
187.63	-0.000
187.85	-0.000
188.06	-0.000
188.28	-0.000
188.49	-0.000
188.71	-0.000
188.92	-0.000
189.14	-0.000
189.36	-0.000
189.57	-0.000
189.79	-0.000
190.00	-0.000
190.22	-0.000
190.43	-0.000
190.65	-0.000
190.86	-0.000
191.08	-0.000
191.29	-0.000
191.51	-0.000
191.72	-0.000
191.94	-0.000
192.16	-0.000
192.37	-0.000
192.59	-0.000
192.80	-0.000
193.02	-0.000
193.23	-0.000
193.45	-0.000
193.66	-0.000
193.88	-0.000
194.09	-0.000
194.31	-0.000
194.52	-0.000
194.74	-0.000
194.95	-0.000
195.17	-0.000
195.38	-0.000
195.60	-0.000
195.81	-0.000
196.03	-0.000
196.25	-0.000
196.46	-0.000
196.68	-0.000
196.89	-0.000
197.11	-0.000
197.32	-0.000
197.54	-0.000
197.75	-0.000
197.97	-0.000
198.18	-0.000
198.40	-0.000
198.61	-0.000
198.83	-0.000
199.04	-0.000
199.26	-0.000
199.47	-0.000
199.69	-0.000
199.90	-0.000
200.12	-0.000
200.33	-0.000
200.55	-0.000
200.76	-0.000
200.98	-0.000
201.19	-0.000
201.41	-0.000
201.62	-0.000
201.84	-0.000
202.05	-0.000
202.27	-0.000
202.48	-0.000
202.70	-0.000
202.91	-0.000
203.13	-0.000
203.34	-0.000
203.56	-0.000
203.77	-0.000
203.99	-0.000
204.20	-0.000
204.42	-0.000
204.63	-0.000
204.85	-0.000
205.06	-0.000
205.28	-0.000
205.49	-0.000
205.71	-0.000
205.92	-0.000
206.14	-0.000
206.35	-0.000
206.56	-0.000
206.78	-0.000
206.99	-0.000
207.21	-0.000
207.42	-0.000
207.64	-0.000
207.85	-0.000
208.07	-0.000
208.28	-0.000
208.50	-0.000
208.71	-0.000
208.93	-0.000
209.14	-0.000
209.36	-0.000
209.57	-0.000
209.79	-0.000
210.00	-0.000
210.22	-0.000
210.43	-0.000
210.64	-0.000
210.86	-0.000
211.07	-0.000
211.29	-0.000
211.50	-0.000
211.72	-0.000
211.93	-0.000
212.15	-0.000
212.36	-0.000
212.58	-0.000
212.79	-0.000
213.01	-0.000
213.22	-0.000
213.43	-0.000
213.65	-0.000
213.86	-0.000
214.08	-0.000
214.29	-0.000
214.51	-0.000
214.72	-0.000
214.94	-0.000
215.15	-0.000
215.36	-0.000
215.58	-0.000
215.79	-0.000
216.01	-0.000
216.22	-0.000
216.44	-0.000
216.65	-0.000
216.87	-0.000
217.08	-0.000
217.29	-0.000
217.51	-0.000
217.72	-0.000
217.94	-0.000
218.15	-0.000
218.37	-0.000
218.58	-0.000
218.80	-0.000
219.01	-0.000
219.22	-0.000
219.44	-0.000
219.65	-0.000
219.87	-0.000
220.08	-0.000
220.30	-0.000
220.51	-0.000
220.72	-0.000
220.94	-0.000
221.15	-0.000
221.37	-0.000
221.58	-0.000
221.79	-0.000
222.01	-0.000
222.22	-0.000
222.44	-0.000
222.65	-0.000
222.87	-0.000
223.08	-0.000
223.29	-0.000
223.51	-0.000
223.72	-0.000
223.94	-0.000
224.15	-0.000
224.36	-0.000
224.58	-0.000
224.79	-0.000
225.01	-0.000
225.22	-0.000
225.44	-0.000
225.65	-0.000
225.86	-0.000
226.08	-0.000
226.29	-0.000
226.51	-0.000
226.72	-0.000
226.93	-0.000
227.15	-0.000
227.36	-0.000
227.58	-0.000
227.79	-0.000
228.00	-0.000
228.22	-0.000
228.43	-0.000
228.65	-0.000
228.86	-0.000
229.07	-0.000
229.29	-0.000
229.50	-0.000
229.72	-0.000
229.93	-0.000
230.14	-0.000
230.36	-0.000
230.57	-0.000
230.78	-0.000
231.00	-0.000
231.21	-0.000
231.43	-0.000
231.64	-0.000
231.85	-0.000
232.07	-0.000
232.28	-0.000
232.50	-0.000
232.71	-0.000
232.92	-0.000
233.14	-0.000
233.35	-0.000
233.56	-0.000
233.78	-0.000
233.99	-0.000
234.21	-0.000
234.42	-0.000
234.63	-0.000
234.85	-0.000
235.06	-0.000
235.27	-0.000
235.49	-0.000
235.70	-0.000
235.91	-0.000
236.13	-0.000
236.34	-0.000
236.56	-0.000
236.77	-0.000
236.98	-0.000
237.20	-0.000
237.41	-0.000
237.62	-0.000
237.84	-0.000
238.05	-0.000
238.26	-0.000
238.48	-0.000
238.69	-0.000
238.91	-0.000
239.12	-0.000
239.33	-0.000
239.55	-0.000
239.76	-0.000
239.97	-0.000
240.19	-0.000
240.40	-0.000
240.61	-0.000
240.83	-0.000
241.04	-0.000
241.25	-0.000
241.47	-0.000
241.68	-0.000
241.89	-0.000
242.11	-0.000
242.32	-0.000
242.53	-0.000
242.75	-0.000
242.96	-0.000
243.17	-0.000
243.39	-0.000
243.60	-0.000
243.81	-0.000
244.03	-0.000
244.24	-0.000
244.45	-0.000
244.67	-0.000
244.88	-0.000
245.09	-0.000
245.31	-0.000
245.52	-0.000
245.73	-0.000
245.95	-0.000
246.16	-0.000
246.37	-0.000
246.59	-0.000
246.80	-0.000
247.01	-0.000
247.23	-0.000
247.44	-0.000
247.65	-0.000
247.87	-0.000
248.08	-0.000
248.29	-0.000
248.51	-0.000
248.72	-0.000
248.93	-0.000
249.15	-0.000
249.36	-0.000
249.57	-0.000
249.78	-0.000
250.00	-0.000
250.21	-0.000
250.42	-0.000
250.64	-0.000
250.85	-0.000
251.06	-0.000
251.28	-0.000
251.49	-0.000
251.70	-0.000
251.92	-0.000
252.13	-0.000
252.34	-0.000
252.55	-0.000
252.77	-0.000
252.98	-0.000
253.19	-0.000
253.41	-0.000
253.62	-0.000
253.83	-0.000
254.05	-0.000
254.26	-0.000
254.47	-0.000
254.68	-0.000
254.90	-0.000
255.11	-0.000
255.32	-0.000
255.54	-0.000
255.75	-0.000
255.96	-0.000
256.17	-0.000
256.39	-0.000
256.60	-0.000
256.81	-0.000
257.03	-0.000
257.24	-0.000
257.45	-0.000
257.66	-0.000
257.88	-0.000
258.09	-0.000
258.30	-0.000
258.51	-0.000
258.73	-0.000
258.94	-0.000
259.15	-0.000
259.37	-0.000
259.58	-0.000
259.79	-0.000
260.00	-0.000
260.22	-0.000
260.43	-0.000
260.64	-0.000
260.85	-0.000
261.07	-0.000
261.28	-0.000
261.49	-0.000
261.71	-0.000
261.92	-0.000
262.13	-0.000
262.34	-0.000
262.56	-0.000
262.77	-0.000
262.98	-0.000
263.19	-0.000
263.41	-0.000
263.62	-0.000
263.83	-0.000
264.04	-0.000
264.26	-0.000
264.47	-0.000
264.68	-0.000
264.89	-0.000
265.11	-0.000
265.32	-0.000
265.53	-0.000
265.74	-0.000
265.96	-0.000
266.17	-0.000
266.38	-0.000
266.59	-0.000
266.81	-0.000
267.02	-0.000
267.23	-0.000
267.44	-0.000
267.65	-0.000
267.87	-0.000
268.08	-0.000
268.29	-0.000
268.50	-0.000
268.72	-0.000
268.93	-0.000
269.14	-0.000
269.35	-0.000
269.57	-0.000
269.78	-0.000
269.99	-0.000
270.20	-0.000
270.41	-0.000
270.63	-0.000
270.84	-0.000
271.05	-0.000
271.26	-0.000
271.48	-0.000
271.69	-0.000
271.90	-0.000
272.11	-0.000
272.32	-0.000
272.54	-0.000
272.75	-0.000
272.96	-0.000
273.17	-0.000
273.39	-0.000
273.60	-0.000
273.81	-0.000
274.02	-0.000
274.23	-0.000
274.45	-0.000
274.66	-0.000
274.87	-0.000
275.08	-0.000
275.29	-0.000
275.51	-0.000
275.72	-0.000
275.93	-0.000
276.14	-0.000
276.35	-0.000
276.57	-0.000
276.78	-0.000
276.99	-0.000
277.20	-0.000
277.41	-0.000
277.63	-0.000
277.84	-0.000
278.05	-0.000
278.26	-0.000
278.47	-0.000
278.69	-0.000
278.90	-0.000
279.11	-0.000
279.32	-0.000
279.53	-0.000
279.74	-0.000
279.96	-0.000
280.17	-0.000
280.38	-0.000
280.59	-0.000
280.80	-0.000
281.02	-0.000
281.23	-0.000
281.44	-0.000
281.65	-0.000
281.86	-0.000
282.07	-0.000
282.29	-0.000
282.50	-0.000
282.71	-0.000
282.92	-0.000
283.13	-0.000
283.35	-0.000
283.56	-0.000
283.77	-0.000
283.98	-0.000
284.19	-0.000
284.40	-0.000
284.62	-0.000
284.83	-0.000
285.04	-0.000
285.25	-0.000
285.46	-0.000
285.67	-0.000
285.88	-0.000
286.10	-0.000
286.31	-0.000
286.52	-0.000
286.73	-0.000
286.94	-0.000
287.15	-0.000
287.37	-0.000
287.58	-0.000
287.79	-0.000
288.00	-0.000
288.21	-0.000
288.42	-0.000
288.63	-0.000
288.85	-0.000
289.06	-0.000
289.27	-0.000
289.48	-0.000
289.69	-0.000
289.90	-0.000
290.11	-0.000
290.33	-0.000
290.54	-0.000
290.75	-0.000
290.96	-0.000
291.17	-0.000
291.38	-0.000
291.59	-0.000
291.81	-0.000
292.02	-0.000
292.23	-0.000
292.44	-0.000
292.65	-0.000
292.86	-0.000
293.07	-0.000
293.28	-0.000
293.50	-0.000
293.71	-0.000
293.92	-0.000
294.13	-0.000
294.34	-0.000
294.55	-0.000
294.76	-0.000
294.97	-0.000
295.19	-0.000
295.40	-0.000
295.61	-0.000
295.82	-0.000
296.03	-0.000
296.24	-0.000
296.45	2.210
296.66	1.822
296.87	1.841
297.09	1.915
297.30	2.135
297.51	1.738
297.72	1.709
297.93	1.777
298.14	1.742
298.35	1.704
298.56	1.678
298.77	1.787
298.99	1.769
299.20	1.750
299.41	1.733
299.62	1.679
299.83	1.666
300.04	1.604
300.25	1.604
300.46	1.639
300.67	1.617
300.88	1.568
301.10	1.568
301.31	1.631
301.52	1.572
301.73	1.522
301.94	1.531
302.15	1.546
302.36	1.502
302.57	1.443
302.78	1.454
302.99	1.494
303.20	1.518
303.41	1.429
303.63	1.411
303.84	1.417
304.05	1.412
304.26	1.350
304.47	1.357
304.68	1.352
304.89	1.340
305.10	1.301
305.31	1.286
305.52	1.329
305.73	1.319
305.94	1.283
306.15	1.269
306.37	1.290
306.58	1.300
306.79	1.271
307.00	1.296
307.21	1.338
307.42	1.332
307.63	1.297
307.84	1.263
308.05	1.299
308.26	1.301
308.47	1.285
308.68	1.278
308.89	1.270
309.10	1.269
309.31	1.233
309.52	1.221
309.73	1.232
309.95	1.227
310.16	1.199
310.37	1.187
310.58	1.199
310.79	1.197
311.00	1.196
311.21	1.199
311.42	1.198
311.63	1.193
311.84	1.176
312.05	1.175
312.26	1.194
312.47	1.206
312.68	1.186
312.89	1.174
313.10	1.176
313.31	1.149
313.52	1.156
313.73	1.155
313.94	1.156
314.15	1.140
314.36	1.122
314.57	1.116
314.78	1.101
314.99	1.095
315.21	1.082
315.42	1.089
315.63	1.102
315.84	1.078
316.05	1.067
316.26	1.072
316.47	1.087
316.68	1.084
316.89	1.065
317.10	1.087
317.31	1.093
317.52	1.095
317.73	1.073
317.94	1.071
318.15	1.113
318.36	1.114
318.57	1.100
318.78	1.090
318.99	1.122
319.20	1.120
319.41	1.086
319.62	1.086
319.83	1.100
320.04	1.097
320.25	1.084
320.46	1.050
320.67	1.051
320.88	1.046
321.09	1.033
321.30	1.018
321.51	1.034
321.72	1.032
321.93	1.018
322.14	1.008
322.35	1.034
322.56	1.038
322.77	1.026
322.98	1.038
323.19	1.045
323.40	1.052
323.61	1.034
323.82	1.028
324.03	1.033
324.24	1.030
324.45	1.018
324.66	0.998
324.87	0.993
325.08	0.993
325.29	0.975
325.50	0.967
325.71	0.970
325.92	0.977
326.13	0.965
326.34	0.964
326.55	0.972
326.76	0.971
326.97	0.961
327.18	0.956
327.39	0.981
327.60	0.982
327.80	0.985
328.01	0.984
328.22	0.982
328.43	0.986
328.64	0.976
328.85	0.979
329.06	0.980
329.27	0.980
329.48	0.978
329.69	0.957
329.90	0.967
330.11	0.959
330.32	0.951
330.53	0.944
330.74	0.942
330.95	0.940
331.16	0.927
331.37	0.936
331.58	0.935
331.79	0.935
332.00	0.927
332.21	0.919
332.42	0.923
332.63	0.915
332.83	0.914
333.04	0.916
333.25	0.928
333.46	0.927
333.67	0.912
333.88	0.913
334.09	0.922
334.30	0.920
334.51	0.912
334.72	0.907
334.93	0.910
335.14	0.908
335.35	0.902
335.56	0.897
335.77	0.904
335.98	0.902
336.18	0.897
336.39	0.889
336.60	0.892
336.81	0.890
337.02	0.889
337.23	0.893
337.44	0.896
337.65	0.896
337.86	0.888
338.07	0.882
338.28	0.886
338.49	0.884
338.70	0.877
338.91	0.884
339.11	0.890
339.32	0.886
339.53	0.876
339.74	0.873
339.95	0.870
340.16	0.868
340.37	0.862
340.58	0.861
340.79	0.863
341.00	0.864
341.21	0.853
341.41	0.853
341.62	0.855
341.83	0.855
342.04	0.850
342.25	0.861
342.46	0.864
342.67	0.863
342.88	0.857
343.09	0.856
343.30	0.861
343.50	0.865
343.71	0.855
343.92	0.854
344.13	0.858
344.34	0.858
344.55	0.841
344.76	0.841
344.97	0.844
345.18	0.844
345.38	0.842
345.59	0.838
345.80	0.837
346.01	0.835
346.22	0.831
346.43	0.825
346.64	0.833
346.85	0.832
347.06	0.825
347.26	0.825
347.47	0.828
347.68	0.823
347.89	0.820
348.10	0.815
348.31	0.821
348.52	0.820
348.73	0.817
348.93	0.813
349.14	0.814
349.35	0.814
349.56	0.809
349.77	0.804
349.98	0.809
350.19	0.807
350.39	0.803
350.60	0.799
350.81	0.814
351.02	0.813
351.23	0.810
351.44	0.814
351.65	0.817
351.86	0.815
352.06	0.813
352.27	0.813
352.48	0.814
352.69	0.814
352.90	0.808
353.11	0.795
353.31	0.802
353.52	0.798
353.73	0.790
353.94	0.791
354.15	0.795
354.36	0.796
354.57	0.788
354.77	0.790
354.98	0.788
355.19	0.787
355.40	0.787
355.61	0.792
355.82	0.796
356.02	0.796
356.23	0.790
356.44	0.792
356.65	0.794
356.86	0.794
357.07	0.788
357.27	0.792
357.48	0.794
357.69	0.790
357.90	0.775
358.11	0.772
358.32	0.774
358.52	0.777
358.73	0.767
358.94	0.769
359.15	0.774
359.36	0.774
359.56	0.770
359.77	0.767
359.98	0.773
360.19	0.773
360.40	0.771
360.61	0.772
360.81	0.771
361.02	0.772
361.23	0.764
361.44	0.761
361.65	0.762
361.85	0.761
362.06	0.760
362.27	0.762
362.48	0.761
362.69	0.762
362.89	0.756
363.10	0.757
363.31	0.760
363.52	0.763
363.73	0.759
363.93	0.758
364.14	0.759
364.35	0.760
364.56	0.752
364.77	0.754
364.97	0.755
365.18	0.756
365.39	0.752
365.60	0.749
365.81	0.750
366.01	0.750
366.22	0.747
366.43	0.746
366.64	0.747
366.84	0.753
367.05	0.750
367.26	0.750
367.47	0.751
367.68	0.751
367.88	0.748
368.09	0.745
368.30	0.748
368.51	0.748
368.71	0.747
368.92	0.752
369.13	0.749
369.34	0.748
369.55	0.748
369.75	0.748
369.96	0.754
370.17	0.754
370.38	0.751
370.58	0.750
370.79	0.754
371.00	0.753
371.21	0.745
371.41	0.750
371.62	0.755
371.83	0.750
372.04	0.749
372.24	0.743
372.45	0.744
372.66	0.744
372.87	0.742
373.07	0.739
373.28	0.739
373.49	0.742
373.70	0.733
373.90	0.731
374.11	0.739
374.32	0.739
374.53	0.737
374.73	0.736
374.94	0.739
375.15	0.740
375.36	0.738
375.56	0.746
375.77	0.745
375.98	0.746
376.19	0.744
376.39	0.739
376.60	0.741
376.81	0.742
377.02	0.741
377.22	0.739
377.43	0.738
377.64	0.738
377.84	0.729
378.05	0.735
378.26	0.740
378.47	0.739
378.67	0.737
378.88	0.733
379.09	0.733
379.30	0.734
379.50	0.732
379.71	0.734
379.92	0.737
380.12	0.736
380.33	0.728
380.54	0.724
380.75	0.730
380.95	0.730
381.16	0.729
381.37	0.730
381.57	0.731
381.78	0.732
381.99	0.733
382.20	0.732
382.40	0.736
382.61	0.737
382.82	0.734
383.02	0.728
383.23	0.730
383.44	0.731
383.64	0.729
383.85	0.731
384.06	0.734
384.27	0.731
384.47	0.730
384.68	0.729
384.89	0.734
385.09	0.734
385.30	0.733
385.51	0.733
385.71	0.735
385.92	0.736
386.13	0.736
386.33	0.738
386.54	0.739
386.75	0.738
386.95	0.734
387.16	0.729
387.37	0.732
387.58	0.732
387.78	0.730
387.99	0.728
388.20	0.730
388.40	0.727
388.61	0.722
388.82	0.726
389.02	0.728
389.23	0.728
389.44	0.727
389.64	0.728
389.85	0.739
390.06	0.739
390.26	0.740
390.47	0.739
390.68	0.741
390.88	0.739
391.09	0.735
391.30	0.734
391.50	0.735
391.71	0.734
391.92	0.732
392.12	0.723
392.33	0.724
392.53	0.724
392.74	0.725
392.95	0.724
393.15	0.727
393.36	0.730
393.57	0.728
393.77	0.730
393.98	0.731
394.19	0.731
394.39	0.731
394.60	0.732
394.81	0.734
395.01	0.731
395.22	0.730
395.43	0.731
395.63	0.735
395.84	0.736
396.04	0.733
396.25	0.736
396.46	0.737
396.66	0.735
396.87	0.733
397.08	0.731
397.28	0.733
397.49	0.734
397.69	0.730
397.90	0.725
398.11	0.726
398.31	0.726
398.52	0.722
398.73	0.724
398.93	0.723
399.14	0.722
399.34	0.721
399.55	0.722
399.76	0.722
399.96	0.723
400.17	0.723
400.37	0.721
400.58	0.728
400.79	0.730
400.99	0.727
401.20	0.733
401.41	0.736
401.61	0.736
401.82	0.741
402.02	0.741
402.23	0.743
402.44	0.743
402.64	0.743
402.85	0.737
403.05	0.736
403.26	0.735
403.47	0.729
403.67	0.728
403.88	0.728
404.08	0.722
404.29	0.721
404.50	0.720
404.70	0.721
404.91	0.720
405.11	0.717
405.32	0.718
405.52	0.718
405.73	0.718
405.94	0.716
406.14	0.719
406.35	0.721
406.55	0.720
406.76	0.718
406.97	0.719
407.17	0.722
407.38	0.721
407.58	0.719
407.79	0.722
407.99	0.725
408.20	0.726
408.41	0.722
408.61	0.720
408.82	0.721
409.02	0.721
409.23	0.719
409.43	0.717
409.64	0.719
409.84	0.719
410.05	0.716
410.26	0.714
410.46	0.714
410.67	0.714
410.87	0.716
411.08	0.718
411.28	0.719
411.49	0.720
411.69	0.718
411.90	0.720
412.11	0.721
412.31	0.722
412.52	0.720
412.72	0.721
412.93	0.721
413.13	0.720
413.34	0.717
413.54	0.718
413.75	0.719
413.95	0.719
414.16	0.715
414.37	0.718
414.57	0.719
414.78	0.722
414.98	0.720
415.19	0.721
415.39	0.718
415.60	0.719
415.80	0.719
416.01	0.717
416.21	0.719
416.42	0.719
416.62	0.714
416.83	0.713
417.03	0.713
417.24	0.713
417.44	0.711
417.65	0.710
417.86	0.711
418.06	0.709
418.27	0.708
418.47	0.710
418.68	0.710
418.88	0.711
419.09	0.709
419.29	0.710
419.50	0.710
419.70	0.710
419.91	0.709
420.11	0.707
420.32	0.709
420.52	0.708
420.73	0.707
420.93	0.708
421.14	0.709
421.34	0.708
421.55	0.705
421.75	0.705
421.96	0.706
422.16	0.706
422.37	0.705
422.57	0.701
422.78	0.703
422.98	0.699
423.19	0.697
423.39	0.696
423.60	0.699
423.80	0.701
424.01	0.699
424.21	0.702
424.42	0.702
424.62	0.702
424.83	0.701
425.03	0.701
425.23	0.703
425.44	0.703
425.64	0.704
425.85	0.702
426.05	0.703
426.26	0.703
426.46	0.699
426.67	0.698
426.87	0.704
427.08	0.704
427.28	0.702
427.49	0.703
427.69	0.704
427.90	0.703
428.10	0.700
428.31	0.700
428.51	0.701
428.71	0.700
428.92	0.701
429.12	0.698
429.33	0.699
429.53	0.703
429.74	0.707
429.94	0.708
430.15	0.707
430.35	0.707
430.56	0.704
430.76	0.703
430.96	0.703
431.17	0.700
431.37	0.697
431.58	0.696
431.78	0.692
431.99	0.685
432.19	0.686
432.40	0.689
432.60	0.689
432.80	0.692
433.01	0.690
433.21	0.690
433.42	0.692
433.62	0.692
433.83	0.692
434.03	0.695
434.23	0.697
434.44	0.696
434.64	0.693
434.85	0.698
435.05	0.699
435.26	0.699
435.46	0.697
435.66	0.697
435.87	0.697
436.07	0.696
436.28	0.692
436.48	0.690
436.69	0.689
436.89	0.689
437.09	0.683
437.30	0.682
437.50	0.682
437.71	0.694
437.91	0.693
438.11	0.694
438.32	0.698
438.52	0.698
438.73	0.697
438.93	0.695
439.13	0.695
439.34	0.698
439.54	0.696
439.75	0.697
439.95	0.687
440.15	0.691
440.36	0.689
440.56	0.687
440.77	0.688
440.97	0.688
441.17	0.687
441.38	0.688
441.58	0.685
441.79	0.685
441.99	0.683
442.19	0.682
442.40	0.679
442.60	0.680
442.81	0.677
443.01	0.678
443.21	0.678
443.42	0.677
443.62	0.676
443.82	0.676
444.03	0.677
444.23	0.677
444.44	0.677
444.64	0.676
444.84	0.676
445.05	0.676
445.25	0.674
445.45	0.674
445.66	0.676
445.86	0.675
446.06	0.676
446.27	0.675
446.47	0.678
446.68	0.677
446.88	0.675
447.08	0.675
447.29	0.677
447.49	0.677
447.69	0.677
447.90	0.675
448.10	0.678
448.30	0.676
448.51	0.677
448.71	0.674
448.91	0.677
449.12	0.676
449.32	0.677
449.52	0.676
449.73	0.680
449.93	0.679
450.14	0.679
450.34	0.679
450.54	0.681
450.75	0.679
450.95	0.678
451.15	0.677
451.36	0.679
451.56	0.677
451.76	0.677
451.97	0.673
452.17	0.674
452.37	0.672
452.58	0.668
452.78	0.668
452.98	0.670
453.19	0.669
453.39	0.669
453.59	0.667
453.79	0.668
454.00	0.668
454.20	0.667
454.40	0.667
454.61	0.670
454.81	0.670
455.01	0.669
455.22	0.670
455.42	0.672
455.62	0.671
455.83	0.670
456.03	0.673
456.23	0.674
456.44	0.674
456.64	0.673
456.84	0.672
457.04	0.673
457.25	0.672
457.45	0.669
457.65	0.668
457.86	0.668
458.06	0.668
458.26	0.664
458.47	0.663
458.67	0.664
458.87	0.664
459.07	0.662
459.28	0.664
459.48	0.666
459.68	0.666
459.89	0.665
460.09	0.663
460.29	0.664
460.49	0.665
460.70	0.665
460.90	0.664
461.10	0.664
461.31	0.664
461.51	0.661
461.71	0.663
461.91	0.663
462.12	0.663
462.32	0.663
462.52	0.663
462.72	0.666
462.93	0.666
463.13	0.665
463.33	0.666
463.53	0.667
463.74	0.667
463.94	0.662
464.14	0.663
464.35	0.665
464.55	0.665
464.75	0.663
464.95	0.661
465.16	0.662
465.36	0.661
465.56	0.661
465.76	0.660
465.97	0.660
466.17	0.661
466.37	0.659
466.57	0.660
466.78	0.660
466.98	0.660
467.18	0.658
467.38	0.657
467.59	0.658
467.79	0.660
467.99	0.659
468.19	0.660
468.39	0.663
468.60	0.662
468.80	0.660
469.00	0.662
469.20	0.663
469.41	0.663
469.61	0.663
469.81	0.663
470.01	0.662
470.22	0.663
470.42	0.661
470.62	0.659
470.82	0.661
471.02	0.660
471.23	0.658
471.43	0.659
471.63	0.661
471.83	0.661
472.04	0.659
472.24	0.658
472.44	0.663
472.64	0.664
472.84	0.662
473.05	0.662
473.25	0.664
473.45	0.664
473.65	0.662
473.85	0.663
474.06	0.664
474.26	0.664
474.46	0.665
474.66	0.661
474.86	0.661
475.07	0.661
475.27	0.660
475.47	0.657
475.67	0.657
475.87	0.659
476.08	0.656
476.28	0.657
476.48	0.658
476.68	0.656
476.88	0.654
477.09	0.656
477.29	0.657
477.49	0.657
477.69	0.657
477.89	0.656
478.09	0.655
478.30	0.657
478.50	0.654
478.70	0.654
478.90	0.654
479.10	0.657
479.31	0.658
479.51	0.656
479.71	0.656
479.91	0.657
480.11	0.656
480.31	0.657
480.52	0.656
480.72	0.656
480.92	0.655
481.12	0.653
481.32	0.651
481.52	0.649
481.72	0.649
481.93	0.653
482.13	0.652
482.33	0.652
482.53	0.650
482.73	0.651
482.93	0.652
483.14	0.652
483.34	0.651
483.54	0.652
483.74	0.651
483.94	0.650
484.14	0.646
484.34	0.647
484.55	0.648
484.75	0.647
484.95	0.645
485.15	0.645
485.35	0.645
485.55	0.645
485.75	0.643
485.96	0.643
486.16	0.645
486.36	0.644
486.56	0.642
486.76	0.642
486.96	0.642
487.16	0.641
487.36	0.638
487.57	0.638
487.77	0.638
487.97	0.639
488.17	0.637
488.37	0.636
488.57	0.636
488.77	0.636
488.97	0.635
489.18	0.634
489.38	0.637
489.58	0.638
489.78	0.638
489.98	0.638
490.18	0.637
490.38	0.639
490.58	0.638
490.78	0.639
490.98	0.640
491.19	0.640
491.39	0.640
491.59	0.639
491.79	0.641
491.99	0.642
492.19	0.641
492.39	0.645
492.59	0.645
492.79	0.646
492.99	0.647
493.20	0.647
493.40	0.648
493.60	0.649
493.80	0.648
494.00	0.645
494.20	0.646
494.40	0.645
494.60	0.642
494.80	0.646
495.00	0.645
495.20	0.643
495.40	0.642
495.61	0.643
495.81	0.643
496.01	0.646
496.21	0.647
496.41	0.646
496.61	0.647
496.81	0.646
497.01	0.640
497.21	0.640
497.41	0.640
497.61	0.640
497.81	0.637
498.01	0.637
498.21	0.635
498.41	0.632
498.61	0.632
498.82	0.634
499.02	0.636
499.22	0.637
499.42	0.637
499.62	0.638
499.82	0.639
500.02	0.640
500.22	0.639
500.42	0.642
500.62	0.642
500.82	0.642
501.02	0.640
501.22	0.640
501.42	0.640
501.62	0.642
501.82	0.641
502.02	0.642
502.22	0.641
502.42	0.643
502.62	0.640
502.82	0.641
503.02	0.642
503.22	0.642
503.42	0.640
503.63	0.640
503.83	0.638
504.03	0.636
504.23	0.635
504.43	0.635
504.63	0.636
504.83	0.636
505.03	0.635
505.23	0.637
505.43	0.638
505.63	0.639
505.83	0.639
506.03	0.640
506.23	0.642
506.43	0.643
506.63	0.642
506.83	0.640
507.03	0.642
507.23	0.642
507.43	0.639
507.63	0.639
507.83	0.640
508.03	0.640
508.23	0.640
508.43	0.638
508.63	0.640
508.83	0.640
509.03	0.641
509.23	0.640
509.43	0.641
509.63	0.642
509.83	0.641
510.03	0.643
510.23	0.644
510.43	0.645
510.63	0.646
510.83	0.646
511.03	0.648
511.23	0.646
511.43	0.645
511.63	0.646
511.83	0.648
512.03	0.648
512.22	0.645
512.42	0.644
512.62	0.645
512.82	0.644
513.02	0.643
513.22	0.642
513.42	0.644
513.62	0.647
513.82	0.645
514.02	0.645
514.22	0.646
514.42	0.646
514.62	0.646
514.82	0.646
515.02	0.649
515.22	0.651
515.42	0.650
515.62	0.653
515.82	0.652
516.02	0.653
516.22	0.654
516.42	0.655
516.62	0.657
516.82	0.658
517.01	0.656
517.21	0.656
517.41	0.659
517.61	0.660
517.81	0.657
518.01	0.655
518.21	0.655
518.41	0.653
518.61	0.652
518.81	0.652
519.01	0.653
519.21	0.653
519.41	0.651
519.61	0.646
519.81	0.647
520.00	0.648
520.20	0.649
520.40	0.651
520.60	0.653
520.80	0.652
521.00	0.653
521.20	0.653
521.40	0.658
521.60	0.659
521.80	0.658
522.00	0.659
522.20	0.661
522.39	0.661
522.59	0.658
522.79	0.659
522.99	0.661
523.19	0.659
523.39	0.657
523.59	0.655
523.79	0.658
523.99	0.660
524.19	0.659
524.38	0.658
524.58	0.659
524.78	0.660
524.98	0.658
525.18	0.660
525.38	0.661
525.58	0.662
525.78	0.660
525.98	0.659
526.18	0.659
526.37	0.658
526.57	0.660
526.77	0.660
526.97	0.660
527.17	0.660
527.37	0.657
527.57	0.659
527.77	0.660
527.96	0.660
528.16	0.659
528.36	0.660
528.56	0.662
528.76	0.659
528.96	0.658
529.16	0.659
529.36	0.661
529.55	0.661
529.75	0.658
529.95	0.658
530.15	0.659
530.35	0.662
530.55	0.659
530.75	0.659
530.94	0.660
531.14	0.661
531.34	0.661
531.54	0.659
531.74	0.663
531.94	0.666
532.13	0.666
532.33	0.668
532.53	0.667
532.73	0.667
532.93	0.665
533.13	0.666
533.33	0.666
533.52	0.666
533.72	0.670
533.92	0.667
534.12	0.665
534.32	0.664
534.52	0.663
534.71	0.664
534.91	0.666
535.11	0.667
535.31	0.665
535.51	0.667
535.71	0.668
535.90	0.666
536.10	0.667
536.30	0.669
536.50	0.669
536.70	0.669
536.89	0.668
537.09	0.667
537.29	0.669
537.49	0.670
537.69	0.668
537.89	0.668
538.08	0.668
538.28	0.666
538.48	0.667
538.68	0.668
538.88	0.670
539.07	0.670
539.27	0.668
539.47	0.668
539.67	0.667
539.87	0.669
540.06	0.667
540.26	0.668
540.46	0.669
540.66	0.667
540.86	0.665
541.05	0.664
541.25	0.666
541.45	0.666
541.65	0.664
541.84	0.667
542.04	0.667
542.24	0.667
542.44	0.667
542.64	0.668
542.83	0.670
543.03	0.671
543.23	0.669
543.43	0.670
543.62	0.671
543.82	0.672
544.02	0.670
544.22	0.671
544.42	0.674
544.61	0.675
544.81	0.671
545.01	0.670
545.21	0.672
545.40	0.672
545.60	0.670
545.80	0.673
546.00	0.673
546.19	0.673
546.39	0.671
546.59	0.669
546.79	0.669
546.98	0.669
547.18	0.669
547.38	0.670
547.58	0.672
547.77	0.672
547.97	0.668
548.17	0.669
548.37	0.670
548.56	0.670
548.76	0.670
548.96	0.672
549.16	0.674
549.35	0.674
549.55	0.672
549.75	0.672
549.95	0.676
550.14	0.676
550.34	0.676
550.54	0.681
550.73	0.684
550.93	0.685
551.13	0.682
551.33	0.681
551.52	0.682
551.72	0.682
551.92	0.680
552.12	0.681
552.31	0.681
552.51	0.681
552.71	0.676
552.90	0.676
553.10	0.677
553.30	0.677
553.50	0.676
553.69	0.677
553.89	0.677
554.09	0.677
554.28	0.674
554.48	0.675
554.68	0.677
554.87	0.677
555.07	0.674
555.27	0.673
555.47	0.675
555.66	0.676
555.86	0.674
556.06	0.677
556.25	0.677
556.45	0.685
556.65	0.683
556.84	0.686
557.04	0.689
557.24	0.691
557.43	0.691
557.63	0.693
557.83	0.695
558.02	0.696
558.22	0.700
558.42	0.702
558.61	0.694
558.81	0.695
559.01	0.692
559.21	0.691
559.40	0.692
559.60	0.693
559.80	0.690
559.99	0.691
560.19	0.693
560.39	0.688
560.58	0.685
560.78	0.685
560.97	0.688
561.17	0.686
561.37	0.684
561.56	0.684
561.76	0.685
561.96	0.685
562.15	0.683
562.35	0.685
562.55	0.685
562.74	0.685
562.94	0.684
563.14	0.682
563.33	0.683
563.53	0.683
563.73	0.681
563.92	0.683
564.12	0.686
564.31	0.687
564.51	0.685
564.71	0.686
564.90	0.689
565.10	0.690
565.30	0.693
565.49	0.694
565.69	0.696
565.89	0.697
566.08	0.694
566.28	0.696
566.47	0.697
566.67	0.696
566.87	0.694
567.06	0.696
567.26	0.702
567.46	0.698
567.65	0.697
567.85	0.698
568.04	0.701
568.24	0.700
568.44	0.697
568.63	0.696
568.83	0.696
569.02	0.695
569.22	0.691
569.42	0.687
569.61	0.689
569.81	0.688
570.00	0.686
570.20	0.687
570.40	0.689
570.59	0.689
570.79	0.687
570.98	0.686
571.18	0.687
571.38	0.687
571.57	0.684
571.77	0.682
571.96	0.686
572.16	0.683
572.35	0.677
572.55	0.678
572.75	0.676
572.94	0.675
573.14	0.674
573.33	0.674
573.53	0.674
573.73	0.674
573.92	0.672
574.12	0.670
574.31	0.673
574.51	0.675
574.70	0.672
574.90	0.674
575.09	0.676
575.29	0.676
575.49	0.673
575.68	0.674
575.88	0.675
576.07	0.677
576.27	0.674
576.46	0.673
576.66	0.672
576.86	0.671
577.05	0.669
577.25	0.666
577.44	0.667
577.64	0.667
577.83	0.666
578.03	0.667
578.22	0.667
578.42	0.667
578.61	0.665
578.81	0.666
579.00	0.666
579.20	0.665
579.40	0.664
579.59	0.664
579.79	0.664
579.98	0.663
580.18	0.663
580.37	0.662
580.57	0.664
580.76	0.669
580.96	0.668
581.15	0.669
581.35	0.670
581.54	0.670
581.74	0.670
581.93	0.672
582.13	0.672
582.32	0.669
582.52	0.668
582.71	0.667
582.91	0.662
583.10	0.661
583.30	0.660
583.49	0.659
583.69	0.663
583.88	0.664
584.08	0.663
584.27	0.665
584.47	0.668
584.66	0.670
584.86	0.669
585.05	0.671
585.25	0.673
585.44	0.673
585.64	0.673
585.83	0.669
586.03	0.669
586.22	0.667
586.42	0.663
586.61	0.664
586.81	0.665
587.00	0.665
587.20	0.663
587.39	0.663
587.59	0.665
587.78	0.665
587.98	0.666
588.17	0.667
588.37	0.669
588.56	0.671
588.76	0.668
588.95	0.668
589.15	0.672
589.34	0.675
589.54	0.674
589.73	0.675
589.92	0.678
590.12	0.678
590.31	0.677
590.51	0.682
590.70	0.684
590.90	0.685
591.09	0.683
591.29	0.681
591.48	0.681
591.68	0.682
591.87	0.680
592.06	0.680
592.26	0.682
592.45	0.681
592.65	0.675
592.84	0.674
593.04	0.676
593.23	0.678
593.43	0.676
593.62	0.675
593.81	0.675
594.01	0.674
594.20	0.671
594.40	0.670
594.59	0.672
594.79	0.672
594.98	0.671
595.17	0.670
595.37	0.671
595.56	0.673
595.76	0.672
595.95	0.675
596.14	0.678
596.34	0.680
596.53	0.679
596.73	0.680
596.92	0.682
597.12	0.684
597.31	0.684
597.50	0.684
597.70	0.685
597.89	0.684
598.09	0.681
598.28	0.682
598.47	0.684
598.67	0.682
598.86	0.679
599.06	0.681
599.25	0.681
599.44	0.679
599.64	0.677
599.83	0.674
600.03	0.677
600.22	0.677
600.41	0.677
600.61	0.675
600.80	0.677
601.00	0.678
601.19	0.674
601.38	0.672
601.58	0.674
601.77	0.675
601.96	0.678
602.16	0.678
602.35	0.687
602.55	0.685
602.74	0.686
602.93	0.688
603.13	0.693
603.32	0.694
603.51	0.694
603.71	0.698
603.90	0.699
604.09	0.700
604.29	0.697
604.48	0.692
604.68	0.693
604.87	0.692
605.06	0.688
605.26	0.684
605.45	0.685
605.64	0.683
605.84	0.679
606.03	0.678
606.22	0.675
606.42	0.674
606.61	0.671
606.80	0.671
607.00	0.672
607.19	0.673
607.38	0.672
607.58	0.673
607.77	0.675
607.96	0.675
608.16	0.673
608.35	0.678
608.54	0.681
608.74	0.684
608.93	0.689
609.12	0.691
609.32	0.693
609.51	0.696
609.70	0.695
609.90	0.697
610.09	0.702
610.28	0.707
610.48	0.701
610.67	0.702
610.86	0.703
611.06	0.698
611.25	0.696
611.44	0.697
611.64	0.697
611.83	0.700
612.02	0.697
612.21	0.696
612.41	0.695
612.60	0.695
612.79	0.691
612.99	0.691
613.18	0.693
613.37	0.691
613.57	0.688
613.76	0.689
613.95	0.687
614.14	0.686
614.34	0.683
614.53	0.684
614.72	0.686
614.92	0.686
615.11	0.683
615.30	0.680
615.49	0.682
615.69	0.684
615.88	0.680
616.07	0.682
616.26	0.683
616.46	0.685
616.65	0.681
616.84	0.680
617.04	0.681
617.23	0.684
617.42	0.684
617.61	0.687
617.81	0.688
618.00	0.691
618.19	0.690
618.38	0.693
618.58	0.697
618.77	0.698
618.96	0.697
619.15	0.700
619.35	0.701
619.54	0.702
619.73	0.698
619.92	0.701
620.12	0.705
620.31	0.705
620.50	0.700
620.69	0.700
620.89	0.703
621.08	0.703
621.27	0.703
621.46	0.702
621.66	0.705
621.85	0.705
622.04	0.701
622.23	0.702
622.43	0.703
622.62	0.703
622.81	0.702
623.00	0.702
623.19	0.705
623.39	0.704
623.58	0.701
623.77	0.700
623.96	0.703
624.16	0.703
624.35	0.698
624.54	0.701
624.73	0.704
624.92	0.701
625.12	0.699
625.31	0.699
625.50	0.702
625.69	0.703
625.88	0.699
626.08	0.698
626.27	0.699
626.46	0.700
626.65	0.697
626.84	0.697
627.04	0.702
627.23	0.703
627.42	0.699
627.61	0.701
627.80	0.703
628.00	0.704
628.19	0.703
628.38	0.705
628.57	0.707
628.76	0.707
628.96	0.704
629.15	0.705
629.34	0.707
629.53	0.707
629.72	0.702
629.91	0.703
630.11	0.706
630.30	0.706
630.49	0.709
630.68	0.709
630.87	0.713
631.06	0.715
631.26	0.710
631.45	0.712
631.64	0.719
631.83	0.721
632.02	0.719
632.21	0.718
632.41	0.725
632.60	0.719
632.79	0.718
632.98	0.719
633.17	0.719
633.36	0.720
633.55	0.717
633.75	0.713
633.94	0.714
634.13	0.714
634.32	0.711
634.51	0.706
634.70	0.708
634.89	0.707
635.09	0.703
635.28	0.704
635.47	0.705
635.66	0.708
635.85	0.705
636.04	0.706
636.23	0.711
636.43	0.712
636.62	0.711
636.81	0.710
637.00	0.711
637.19	0.715
637.38	0.712
637.57	0.711
637.76	0.712
637.95	0.713
638.15	0.709
638.34	0.706
638.53	0.709
638.72	0.710
638.91	0.708
639.10	0.707
639.29	0.706
639.48	0.708
639.67	0.709
639.87	0.709
640.06	0.714
640.25	0.714
640.44	0.715
640.63	0.716
640.82	0.719
641.01	0.719
641.20	0.719
641.39	0.721
641.58	0.722
641.78	0.720
641.97	0.716
642.16	0.728
642.35	0.730
642.54	0.729
642.73	0.723
642.92	0.721
643.11	0.724
643.30	0.723
643.49	0.719
643.68	0.722
643.87	0.723
644.06	0.723
644.25	0.704
644.45	0.705
644.64	0.706
644.83	0.707
645.02	0.705
645.21	0.705
645.40	0.707
645.59	0.707
645.78	0.701
645.97	0.703
646.16	0.704
646.35	0.703
646.54	0.702
646.73	0.703
646.92	0.705
647.11	0.703
647.30	0.700
647.49	0.702
647.68	0.701
647.88	0.700
648.07	0.694
648.26	0.698
648.45	0.699
648.64	0.696
648.83	0.693
649.02	0.694
649.21	0.704
649.40	0.702
649.59	0.698
649.78	0.699
649.97	0.712
650.16	0.711
650.35	0.705
650.54	0.707
650.73	0.715
650.92	0.711
651.11	0.705
651.30	0.703
651.49	0.707
651.68	0.707
651.87	0.705
652.06	0.696
652.25	0.699
652.44	0.703
652.63	0.703
652.82	0.704
653.01	0.705
653.20	0.705
653.39	0.694
653.58	0.692
653.77	0.691
653.96	0.686
654.15	0.678
654.34	0.676
654.53	0.671
654.72	0.664
654.91	0.654
655.10	0.650
655.29	0.647
655.48	0.645
655.67	0.639
655.86	0.636
656.05	0.634
656.24	0.634
656.43	0.629
656.62	0.627
656.81	0.626
657.00	0.622
657.19	0.619
657.38	0.619
657.57	0.617
657.76	0.618
657.95	0.616
658.14	0.619
658.33	0.621
658.51	0.626
658.70	0.626
658.89	0.629
659.08	0.640
659.27	0.648
659.46	0.649
659.65	0.657
659.84	0.660
660.03	0.663
660.22	0.665
660.41	0.669
660.60	0.668
660.79	0.670
660.98	0.675
661.17	0.673
661.36	0.671
661.55	0.672
661.74	0.669
661.92	0.672
662.11	0.674
662.30	0.673
662.49	0.666
662.68	0.665
662.87	0.668
663.06	0.663
663.25	0.665
663.44	0.666
663.63	0.667
663.82	0.666
664.01	0.661
664.20	0.659
664.38	0.660
664.57	0.661
664.76	0.661
664.95	0.661
665.14	0.665
665.33	0.660
665.52	0.667
665.71	0.671
665.90	0.671
666.09	0.672
666.28	0.671
666.46	0.670
666.65	0.671
666.84	0.669
667.03	0.664
667.22	0.662
667.41	0.665
667.60	0.655
667.79	0.648
667.98	0.650
668.16	0.651
668.35	0.650
668.54	0.647
668.73	0.647
668.92	0.648
669.11	0.647
669.30	0.642
669.49	0.638
669.67	0.640
669.86	0.642
670.05	0.638
670.24	0.636
670.43	0.634
670.62	0.633
670.81	0.628
671.00	0.629
671.18	0.629
671.37	0.628
671.56	0.626
671.75	0.624
671.94	0.621
672.13	0.620
672.32	0.615
672.50	0.615
672.69	0.615
672.88	0.615
673.07	0.611
673.26	0.612
673.45	0.613
673.63	0.613
673.82	0.610
674.01	0.611
674.20	0.611
674.39	0.611
674.58	0.610
674.76	0.609
674.95	0.608
675.14	0.608
675.33	0.604
675.52	0.603
675.71	0.603
675.89	0.603
676.08	0.599
676.27	0.599
676.46	0.600
676.65	0.599
676.84	0.599
677.02	0.601
677.21	0.603
677.40	0.602
677.59	0.600
677.78	0.601
677.96	0.603
678.15	0.603
678.34	0.601
678.53	0.601
678.72	0.602
678.90	0.598
679.09	0.594
679.28	0.591
679.47	0.590
679.66	0.589
679.84	0.586
680.03	0.583
680.22	0.581
680.41	0.583
680.60	0.579
680.78	0.578
680.97	0.580
681.16	0.580
681.35	0.579
681.53	0.578
681.72	0.579
681.91	0.582
682.10	0.580
682.29	0.583
682.47	0.580
682.66	0.578
682.85	0.577
683.04	0.575
683.22	0.575
683.41	0.577
683.60	0.576
683.79	0.577
683.97	0.576
684.16	0.576
684.35	0.572
684.54	0.573
684.72	0.574
684.91	0.574
685.10	0.572
685.29	0.574
685.47	0.571
685.66	0.569
685.85	0.565
686.04	0.564
686.22	0.567
686.41	0.569
686.60	0.566
686.79	0.569
686.97	0.570
687.16	0.571
687.35	0.569
687.54	0.572
687.72	0.576
687.91	0.576
688.10	0.577
688.29	0.577
688.47	0.575
688.66	0.576
688.85	0.573
689.03	0.571
689.22	0.576
689.41	0.576
689.60	0.571
689.78	0.569
689.97	0.570
690.16	0.567
690.34	0.564
690.53	0.563
690.72	0.563
690.91	0.561
691.09	0.559
691.28	0.553
691.47	0.551
691.65	0.550
691.84	0.547
692.03	0.546
692.21	0.544
692.40	0.544
692.59	0.541
692.77	0.540
692.96	0.540
693.15	0.541
693.34	0.538
693.52	0.538
693.71	0.539
693.90	0.540
694.08	0.541
694.27	0.542
694.46	0.550
694.64	0.551
694.83	0.551
695.02	0.551
695.20	0.551
695.39	0.551
695.58	0.551
695.76	0.552
695.95	0.550
696.14	0.549
696.32	0.548
696.51	0.538
696.70	0.538
696.88	0.539
697.07	0.537
697.26	0.539
697.44	0.539
697.63	0.538
697.81	0.536
698.00	0.536
698.19	0.535
698.37	0.535
698.56	0.535
698.75	0.535
698.93	0.535
699.12	0.535
699.31	0.534
699.49	0.533
699.68	0.534
699.87	0.537
700.05	0.537
700.24	0.536
700.42	0.538
700.61	0.537
700.80	0.536
700.98	0.536
701.17	0.538
701.36	0.537
701.54	0.536
701.73	0.537
701.91	0.534
702.10	0.534
702.29	0.532
702.47	0.531
702.66	0.532
702.84	0.533
703.03	0.531
703.22	0.531
703.40	0.531
703.59	0.533
703.77	0.532
703.96	0.532
704.15	0.533
704.33	0.533
704.52	0.532
704.70	0.531
704.89	0.531
705.08	0.530
705.26	0.527
705.45	0.527
705.63	0.527
705.82	0.524
706.00	0.523
706.19	0.523
706.38	0.523
706.56	0.523
706.75	0.521
706.93	0.520
707.12	0.521
707.30	0.521
707.49	0.518
707.68	0.516
707.86	0.515
708.05	0.514
708.23	0.511
708.42	0.511
708.60	0.512
708.79	0.512
708.98	0.511
709.16	0.509
709.35	0.511
709.53	0.514
709.72	0.514
709.90	0.516
710.09	0.518
710.27	0.520
710.46	0.524
710.64	0.523
710.83	0.525
711.02	0.527
711.20	0.526
711.39	0.524
711.57	0.522
711.76	0.523
711.94	0.521
712.13	0.521
712.31	0.521
712.50	0.516
712.68	0.514
712.87	0.515
713.05	0.515
713.24	0.516
713.42	0.515
713.61	0.516
713.79	0.516
713.98	0.516
714.16	0.517
714.35	0.517
714.54	0.518
714.72	0.517
714.91	0.516
715.09	0.521
715.28	0.524
715.46	0.524
715.65	0.522
715.83	0.522
716.02	0.524
716.20	0.521
716.39	0.521
716.57	0.522
716.76	0.524
716.94	0.524
717.12	0.517
717.31	0.519
717.49	0.521
717.68	0.523
717.86	0.523
718.05	0.524
718.23	0.527
718.42	0.529
718.60	0.530
718.79	0.537
718.97	0.540
719.16	0.540
719.34	0.537
719.53	0.537
719.71	0.537
719.90	0.538
720.08	0.536
720.27	0.536
720.45	0.534
720.63	0.534
720.82	0.528
721.00	0.530
721.19	0.532
721.37	0.532
721.56	0.533
721.74	0.535
721.93	0.544
722.11	0.549
722.30	0.549
722.48	0.554
722.66	0.554
722.85	0.555
723.03	0.555
723.22	0.554
723.40	0.556
723.59	0.556
723.77	0.560
723.95	0.554
724.14	0.556
724.32	0.559
724.51	0.558
724.69	0.559
724.88	0.559
725.06	0.558
725.24	0.560
725.43	0.562
725.61	0.564
725.80	0.559
725.98	0.558
726.16	0.554
726.35	0.559
726.53	0.558
726.72	0.558
726.90	0.567
727.09	0.568
727.27	0.574
727.45	0.570
727.64	0.578
727.82	0.585
728.01	0.589
728.19	0.588
728.37	0.592
728.56	0.596
728.74	0.603
728.92	0.592
729.11	0.595
729.29	0.592
729.48	0.595
729.66	0.586
729.84	0.585
730.03	0.588
730.21	0.591
730.40	0.583
730.58	0.584
730.76	0.582
730.95	0.584
731.13	0.584
731.31	0.597
731.50	0.605
731.68	0.609
731.86	0.606
732.05	0.619
732.23	0.620
732.42	0.623
732.60	0.627
732.78	0.632
732.97	0.649
733.15	0.656
733.33	0.645
733.52	0.652
733.70	0.663
733.88	0.671
734.07	0.658
734.25	0.682
734.43	0.689
734.62	0.693
734.80	0.689
734.98	0.680
735.17	0.686
735.35	0.696
735.53	0.686
735.72	0.687
735.90	0.707
736.08	0.726
736.27	0.705
736.45	0.713
736.63	0.725
736.82	0.733
737.00	0.734
737.18	0.741
737.37	0.767
737.55	0.787
737.73	0.782
737.92	0.785
738.10	0.780
738.28	0.799
738.46	0.787
738.65	0.798
738.83	0.817
739.01	0.869
739.20	0.861
739.38	0.847
739.56	0.834
739.75	0.841
739.93	0.809
740.11	0.833
740.29	0.828
740.48	0.839
740.66	0.817
740.84	0.813
741.03	0.775
741.21	0.784
741.39	0.766
741.57	0.779
741.76	0.791
741.94	0.800
742.12	0.770
742.31	0.775
742.49	0.791
742.67	0.816
742.85	0.825
743.04	0.830
743.22	0.834
743.40	0.882
743.58	0.869
743.77	0.886
743.95	0.917
744.13	0.962
744.31	0.952
744.50	0.946
744.68	0.940
744.86	0.921
745.04	0.938
745.23	1.008
745.41	0.989
745.59	0.989
745.77	0.956
745.96	0.946
746.14	0.949
746.32	0.944
746.50	0.935
746.69	0.917
746.87	0.926
747.05	0.910
747.23	0.841
747.42	0.826
747.60	0.847
747.78	0.853
747.96	0.881
748.14	0.844
748.33	0.868
748.51	0.862
748.69	0.859
748.87	0.880
749.06	0.871
749.24	0.872
749.42	0.861
749.60	0.851
749.78	0.854
749.97	0.809
750.15	0.805
750.33	0.808
750.51	0.833
750.69	0.838
750.88	0.843
751.06	0.855
751.24	0.877
751.42	0.869
751.60	0.862
751.79	0.924
751.97	0.965
752.15	0.963
752.33	0.933
752.51	0.989
752.69	0.999
752.88	0.975
753.06	1.022
753.24	0.997
753.42	1.036
753.60	1.186
753.78	1.069
753.97	1.087
754.15	1.099
754.33	1.124
754.51	1.012
754.69	0.997
754.87	1.021
755.06	0.954
755.24	0.954
755.42	0.957
755.60	0.866
755.78	0.870
755.96	0.825
756.15	0.823
756.33	0.823
756.51	0.841
756.69	0.831
756.87	0.796
757.05	0.813
757.23	0.802
757.42	0.772
757.60	0.769
757.78	0.760
757.96	0.756
758.14	0.745
758.32	0.734
758.50	0.745
758.69	0.744
758.87	0.739
759.05	0.742
759.23	0.749
759.41	0.749
759.59	0.746
759.77	0.763
759.95	0.792
760.13	0.835
760.32	0.835
760.50	0.828
760.68	0.845
760.86	0.846
761.04	0.820
761.22	0.822
761.40	0.864
761.58	0.864
761.76	0.843
761.95	0.822
762.13	0.782
762.31	0.784
762.49	0.757
762.67	0.775
762.85	0.788
763.03	0.785
763.21	0.767
763.39	0.752
763.57	0.753
763.75	0.747
763.94	0.734
764.12	0.734
764.30	0.751
764.48	0.757
764.66	0.724
764.84	0.721
765.02	0.753
765.20	0.764
765.38	0.747
765.56	0.751
765.74	0.787
765.92	0.787
766.10	0.793
766.28	0.788
766.46	0.812
766.65	0.812
766.83	0.802
767.01	0.785
767.19	0.788
767.37	0.787
767.55	0.777
767.73	0.761
767.91	0.765
768.09	0.756
768.27	0.746
768.45	0.735
768.63	0.742
768.81	0.745
768.99	0.724
769.17	0.744
769.35	0.757
769.53	0.755
769.71	0.735
769.89	0.742
770.07	0.744
770.25	0.730
770.43	0.709
770.61	0.728
770.79	0.732
770.97	0.741
771.15	0.716
771.33	0.717
771.51	0.719
771.69	0.729
771.87	0.736
772.05	0.739
772.24	0.747
772.42	0.754
772.60	0.735
772.78	0.790
772.96	0.812
773.14	0.805
773.32	0.785
773.49	0.792
773.67	0.790
773.85	0.773
774.03	0.766
774.21	0.789
774.39	0.800
774.57	0.822
774.75	0.758
774.93	0.753
775.11	0.775
775.29	0.783
775.47	0.782
775.65	0.792
775.83	0.806
776.01	0.827
776.19	0.791
776.37	0.790
776.55	0.787
776.73	0.784
776.91	0.782
777.09	0.764
777.27	0.760
777.45	0.750
777.63	0.731
777.81	0.729
777.99	0.716
778.17	0.716
778.35	0.700
778.53	0.686
778.71	0.691
778.89	0.680
779.07	0.674
779.24	0.680
779.42	0.679
779.60	0.696
779.78	0.692
779.96	0.696
780.14	0.699
780.32	0.716
780.50	0.704
780.68	0.702
780.86	0.693
781.04	0.708
781.22	0.713
781.40	0.722
781.58	0.711
781.75	0.706
781.93	0.692
782.11	0.692
782.29	0.679
782.47	0.677
782.65	0.667
782.83	0.692
783.01	0.684
783.19	0.678
783.37	0.666
783.55	0.670
783.72	0.682
783.90	0.691
784.08	0.687
784.26	0.699
784.44	0.718
784.62	0.722
784.80	0.692
784.98	0.697
785.16	0.703
785.33	0.717
785.51	0.707
785.69	0.697
785.87	0.696
786.05	0.708
786.23	0.705
786.41	0.703
786.59	0.707
786.77	0.710
786.94	0.701
787.12	0.701
787.30	0.700
787.48	0.697
787.66	0.686
787.84	0.687
788.02	0.676
788.19	0.674
788.37	0.661
788.55	0.664
788.73	0.662
788.91	0.656
789.09	0.643
789.27	0.633
789.44	0.643
789.62	0.650
789.80	0.657
789.98	0.677
790.16	0.665
790.34	0.663
790.51	0.651
790.69	0.668
790.87	0.672
791.05	0.669
791.23	0.664
791.41	0.663
791.58	0.667
791.76	0.648
791.94	0.624
792.12	0.631
792.30	0.632
792.48	0.632
792.65	0.627
792.83	0.633
793.01	0.638
793.19	0.637
793.37	0.625
793.54	0.622
793.72	0.634
793.90	0.631
794.08	0.623
794.26	0.622
794.43	0.627
794.61	0.613
794.79	0.603
794.97	0.601
795.15	0.606
795.32	0.608
795.50	0.600
795.68	0.593
795.86	0.597
796.04	0.599
796.21	0.593
796.39	0.593
796.57	0.604
796.75	0.611
796.92	0.614
797.10	0.616
797.28	0.617
797.46	0.619
797.64	0.621
797.81	0.629
797.99	0.632
798.17	0.636
798.35	0.630
798.52	0.634
798.70	0.630
798.88	0.637
799.06	0.637
799.23	0.642
799.41	0.649
799.59	0.645
799.77	0.634
799.94	0.642
800.12	0.652
800.30	0.669
800.48	0.670
800.65	0.670
800.83	0.660
801.01	0.654
801.19	0.654
801.36	0.650
801.54	0.649
801.72	0.659
801.90	0.647
802.07	0.640
802.25	0.625
802.43	0.608
802.60	0.606
802.78	0.612
802.96	0.616
803.14	0.609
803.31	0.608
803.49	0.610
803.67	0.605
803.84	0.610
804.02	0.603
804.20	0.607
804.38	0.612
804.55	0.612
804.73	0.601
804.91	0.601
805.08	0.613
805.26	0.610
805.44	0.672
805.61	0.676
805.79	0.675
805.97	0.676
806.15	0.669
806.32	0.665
806.50	0.671
806.68	0.672
806.85	0.665
807.03	0.656
807.21	0.668
807.38	0.604
807.56	0.595
807.74	0.603
807.91	0.608
808.09	0.609
808.27	0.627
808.44	0.650
808.62	0.658
808.80	0.658
808.97	0.655
809.15	0.653
809.33	0.667
809.50	0.674
809.68	0.662
809.86	0.669
810.03	0.698
810.21	0.678
810.39	0.662
810.56	0.668
810.74	0.687
810.91	0.753
811.09	0.740
811.27	0.760
811.44	0.765
811.62	0.767
811.80	0.753
811.97	0.724
812.15	0.725
812.33	0.720
812.50	0.705
812.68	0.696
812.85	0.643
813.03	0.645
813.21	0.616
813.38	0.611
813.56	0.611
813.74	0.620
813.91	0.628
814.09	0.653
814.26	0.646
814.44	0.650
814.62	0.642
814.79	0.646
814.97	0.650
815.14	0.655
815.32	0.656
815.50	0.673
815.67	0.675
815.85	0.668
816.02	0.657
816.20	0.664
816.38	0.676
816.55	0.682
816.73	0.683
816.90	0.690
817.08	0.714
817.26	0.724
817.43	0.706
817.61	0.728
817.78	0.744
817.96	0.728
818.13	0.719
818.31	0.718
818.49	0.724
818.66	0.716
818.84	0.707
819.01	0.690
819.19	0.693
819.36	0.693
819.54	0.668
819.71	0.705
819.89	0.715
820.07	0.727
820.24	0.724
820.42	0.727
820.59	0.744
820.77	0.766
820.94	0.756
821.12	0.773
821.29	0.788
821.47	0.786
821.64	0.730
821.82	0.744
822.00	0.739
822.17	0.737
822.35	0.730
822.52	0.731
822.70	0.722
822.87	0.732
823.05	0.716
823.22	0.724
823.40	0.748
823.57	0.770
823.75	0.753
823.92	0.776
824.10	0.792
824.27	0.829
824.45	0.819
824.62	0.872
824.80	0.885
824.97	0.897
825.15	0.892
825.32	0.905
825.50	0.908
825.67	0.917
825.85	0.899
826.02	0.914
826.20	0.936
826.37	1.046
826.55	0.975
826.72	1.134
826.90	1.177
827.07	1.223
827.25	1.172
827.42	1.295
827.60	1.394
827.77	1.520
827.95	1.506
828.12	1.560
828.30	1.312
828.47	1.399
828.65	1.131
828.82	1.177
829.00	1.220
829.17	1.268
829.34	1.258
829.52	1.292
829.69	-0.000
829.87	-0.000
830.04	-0.000
830.22	-0.000
830.39	-0.000
830.57	-0.000
830.74	-0.000
830.92	-0.000
831.09	-0.000
831.26	-0.000
831.44	-0.000
831.61	-0.000
831.79	-0.000
831.96	-0.000
832.14	-0.000
832.31	-0.000
832.49	-0.000
832.66	-0.000
832.83	-0.000
833.01	-0.000
833.18	-0.000
833.36	-0.000
833.53	-0.000
833.70	-0.000
833.88	-0.000
834.05	-0.000
834.23	-0.000
834.40	-0.000
834.58	-0.000
834.75	-0.000
834.92	-0.000
835.10	-0.000
835.27	-0.000
835.45	-0.000
835.62	-0.000
835.79	-0.000
835.97	-0.000
836.14	-0.000
836.32	-0.000
836.49	-0.000
836.66	-0.000
836.84	-0.000
837.01	-0.000
837.18	-0.000
837.36	-0.000
837.53	-0.000
837.71	-0.000
837.88	-0.000
838.05	-0.000
838.23	-0.000
838.40	-0.000
838.58	-0.000
838.75	-0.000
838.92	-0.000
839.10	-0.000
839.27	-0.000
839.44	-0.000
839.62	-0.000
839.79	-0.000
839.96	-0.000
840.14	-0.000
840.31	-0.000
840.48	-0.000
840.66	-0.000
840.83	-0.000
841.01	-0.000
841.18	-0.000
841.35	-0.000
841.53	-0.000
841.70	-0.000
841.87	-0.000
842.05	-0.000
842.22	-0.000
842.39	-0.000
842.57	-0.000
842.74	-0.000
842.91	-0.000
843.09	-0.000
843.26	-0.000
843.43	-0.000
843.60	-0.000
843.78	-0.000
843.95	-0.000
844.12	-0.000
844.30	-0.000
844.47	-0.000
844.64	-0.000
844.82	-0.000
844.99	-0.000
845.16	-0.000
845.34	-0.000
845.51	-0.000
845.68	-0.000
845.85	-0.000
846.03	-0.000
846.20	-0.000
846.37	-0.000
846.55	-0.000
846.72	-0.000
846.89	-0.000
847.06	-0.000
847.24	-0.000
847.41	-0.000
847.58	-0.000
847.76	-0.000
847.93	-0.000
848.10	-0.000
848.27	-0.000
848.45	-0.000
848.62	-0.000
848.79	-0.000
848.97	-0.000
849.14	-0.000
849.31	-0.000
849.48	-0.000
849.66	-0.000
849.83	-0.000
850.00	-0.000
850.17	-0.000
850.35	-0.000
850.52	-0.000
850.69	-0.000
850.86	-0.000
851.04	-0.000
851.21	-0.000
851.38	-0.000
851.55	-0.000
851.72	-0.000
851.90	-0.000
852.07	-0.000
852.24	-0.000
852.41	-0.000
852.59	-0.000
852.76	-0.000
852.93	-0.000
853.10	-0.000
853.28	-0.000
853.45	-0.000
853.62	-0.000
853.79	-0.000
853.96	-0.000
854.14	-0.000
854.31	-0.000
854.48	-0.000
854.65	-0.000
854.82	-0.000
855.00	-0.000
855.17	-0.000
855.34	-0.000
855.51	-0.000
855.68	-0.000
855.86	-0.000
856.03	-0.000
856.20	-0.000
856.37	-0.000
856.54	-0.000
856.72	-0.000
856.89	-0.000
857.06	-0.000
857.23	-0.000
857.40	-0.000
857.57	-0.000
857.75	-0.000
857.92	-0.000
858.09	-0.000
858.26	-0.000
858.43	-0.000
858.60	-0.000
858.78	-0.000
858.95	-0.000
859.12	-0.000
859.29	-0.000
859.46	-0.000
859.63	-0.000
859.81	-0.000
859.98	-0.000
860.15	-0.000
860.32	-0.000
860.49	-0.000
860.66	-0.000
860.83	-0.000
861.01	-0.000
861.18	-0.000
861.35	-0.000
861.52	-0.000
861.69	-0.000
861.86	-0.000
862.03	-0.000
862.21	-0.000
862.38	-0.000
862.55	-0.000
862.72	-0.000
862.89	-0.000
863.06	-0.000
863.23	-0.000
863.40	-0.000
863.58	-0.000
863.75	-0.000
863.92	-0.000
864.09	-0.000
864.26	-0.000
864.43	-0.000
864.60	-0.000
864.77	-0.000
864.94	-0.000
865.11	-0.000
865.29	-0.000
865.46	-0.000
865.63	-0.000
865.80	-0.000
865.97	-0.000
866.14	-0.000
866.31	-0.000
866.48	-0.000
866.65	-0.000
866.82	-0.000
866.99	-0.000
867.16	-0.000
867.34	-0.000
867.51	-0.000
867.68	-0.000
867.85	-0.000
868.02	-0.000
868.19	-0.000
868.36	-0.000
868.53	-0.000
868.70	-0.000
868.87	-0.000
869.04	-0.000
869.21	-0.000
869.38	-0.000
869.55	-0.000
869.72	-0.000
869.89	-0.000
870.06	-0.000
870.24	-0.000
870.41	-0.000
870.58	-0.000
870.75	-0.000
870.92	-0.000
871.09	-0.000
871.26	-0.000
871.43	-0.000
871.60	-0.000
871.77	-0.000
871.94	-0.000
872.11	-0.000
872.28	-0.000
872.45	-0.000
872.62	-0.000
872.79	-0.000
872.96	-0.000
873.13	-0.000
873.30	-0.000
873.47	-0.000
873.64	-0.000
873.81	-0.000
873.98	-0.000
874.15	-0.000
874.32	-0.000
874.49	-0.000
874.66	-0.000
874.83	-0.000
875.00	-0.000
875.17	-0.000
875.34	-0.000
875.51	-0.000
875.68	-0.000
875.85	-0.000
876.02	-0.000
876.19	-0.000
876.36	-0.000
876.53	-0.000
876.70	-0.000
876.87	-0.000
877.04	-0.000
877.21	-0.000
877.38	-0.000
877.55	-0.000
877.72	-0.000
877.89	-0.000
878.06	-0.000
878.23	-0.000
878.39	-0.000
878.56	-0.000
878.73	-0.000
878.90	-0.000
879.07	-0.000
879.24	-0.000
879.41	-0.000
879.58	-0.000
879.75	-0.000
879.92	-0.000
880.09	-0.000
880.26	-0.000
880.43	-0.000
880.60	-0.000
880.77	-0.000
880.94	-0.000
881.11	-0.000
881.27	-0.000
881.44	-0.000
881.61	-0.000
881.78	-0.000
881.95	-0.000
882.12	-0.000
882.29	-0.000
882.46	-0.000
882.63	-0.000
882.80	-0.000
882.97	-0.000
883.14	-0.000
883.30	-0.000
883.47	-0.000
883.64	-0.000
883.81	-0.000
883.98	-0.000
884.15	-0.000
884.32	-0.000
884.49	-0.000
884.66	-0.000
884.82	-0.000
884.99	-0.000
885.16	-0.000
885.33	-0.000
885.50	-0.000
885.67	-0.000
885.84	-0.000
886.01	-0.000
886.17	-0.000
886.34	-0.000
886.51	-0.000
886.68	-0.000
886.85	-0.000
887.02	-0.000
887.19	-0.000
887.36	-0.000
887.52	-0.000
887.69	-0.000
887.86	-0.000
888.03	-0.000
888.20	-0.000
888.37	-0.000
888.54	-0.000
888.70	-0.000
888.87	-0.000
889.04	-0.000
889.21	-0.000
889.38	-0.000
889.55	-0.000
889.71	-0.000
889.88	-0.000
890.05	-0.000
890.22	-0.000
890.39	-0.000
>>>>>End Processed Spectral Data<<<<<
