SpectraSuite Data File
++++++++++++++++++++++++++++++++++++
Date: Fri Jun 19 12:56:53 CEST 2015
User: introlabs
Dark Spectrum Present: Yes
Reference Spectrum Present: Yes
Number of Sampled Component Spectra: 1
Spectrometers: USB4H08886
Integration Time (usec): 745692 (USB4H08886)
Spectra Averaged: 5 (USB4H08886)
Boxcar Smoothing: 5 (USB4H08886)
Correct for Electrical Dark: Yes (USB4H08886)
Strobe/Lamp Enabled: No (USB4H08886)
Correct for Detector Non-linearity: Yes (USB4H08886)
Correct for Stray Light: Yes (USB4H08886)
Number of Pixels in Processed Spectrum: 3648
>>>>>Begin Processed Spectral Data<<<<<
178.14	-0.000
178.36	-0.000
178.57	-0.000
178.79	-0.000
179.01	-0.000
179.22	-0.000
179.44	-0.000
179.65	-0.000
179.87	-0.000
180.08	-0.000
180.30	-0.000
180.52	-0.000
180.73	-0.000
180.95	-0.000
181.16	-0.000
181.38	-0.000
181.59	-0.000
181.81	-0.000
182.03	-0.000
182.24	-0.000
182.46	-0.000
182.67	-0.000
182.89	-0.000
183.10	-0.000
183.32	-0.000
183.54	-0.000
183.75	-0.000
183.97	-0.000
184.18	-0.000
184.40	-0.000
184.61	-0.000
184.83	-0.000
185.04	-0.000
185.26	-0.000
185.48	-0.000
185.69	-0.000
185.91	-0.000
186.12	-0.000
186.34	-0.000
186.55	-0.000
186.77	-0.000
186.98	-0.000
187.20	-0.000
187.42	-0.000
187.63	-0.000
187.85	-0.000
188.06	-0.000
188.28	-0.000
188.49	-0.000
188.71	-0.000
188.92	-0.000
189.14	-0.000
189.36	-0.000
189.57	-0.000
189.79	-0.000
190.00	-0.000
190.22	-0.000
190.43	-0.000
190.65	-0.000
190.86	-0.000
191.08	-0.000
191.29	-0.000
191.51	-0.000
191.72	-0.000
191.94	-0.000
192.16	-0.000
192.37	-0.000
192.59	-0.000
192.80	-0.000
193.02	-0.000
193.23	-0.000
193.45	-0.000
193.66	-0.000
193.88	-0.000
194.09	-0.000
194.31	-0.000
194.52	-0.000
194.74	-0.000
194.95	-0.000
195.17	-0.000
195.38	-0.000
195.60	-0.000
195.81	-0.000
196.03	-0.000
196.25	-0.000
196.46	-0.000
196.68	-0.000
196.89	-0.000
197.11	-0.000
197.32	-0.000
197.54	-0.000
197.75	-0.000
197.97	-0.000
198.18	-0.000
198.40	-0.000
198.61	-0.000
198.83	-0.000
199.04	-0.000
199.26	-0.000
199.47	-0.000
199.69	-0.000
199.90	-0.000
200.12	-0.000
200.33	-0.000
200.55	-0.000
200.76	-0.000
200.98	-0.000
201.19	-0.000
201.41	-0.000
201.62	-0.000
201.84	-0.000
202.05	-0.000
202.27	-0.000
202.48	-0.000
202.70	-0.000
202.91	-0.000
203.13	-0.000
203.34	-0.000
203.56	-0.000
203.77	-0.000
203.99	-0.000
204.20	-0.000
204.42	-0.000
204.63	-0.000
204.85	-0.000
205.06	-0.000
205.28	-0.000
205.49	-0.000
205.71	-0.000
205.92	-0.000
206.14	-0.000
206.35	-0.000
206.56	-0.000
206.78	-0.000
206.99	-0.000
207.21	-0.000
207.42	-0.000
207.64	-0.000
207.85	-0.000
208.07	-0.000
208.28	-0.000
208.50	-0.000
208.71	-0.000
208.93	-0.000
209.14	-0.000
209.36	-0.000
209.57	-0.000
209.79	-0.000
210.00	-0.000
210.22	-0.000
210.43	-0.000
210.64	-0.000
210.86	-0.000
211.07	-0.000
211.29	-0.000
211.50	-0.000
211.72	-0.000
211.93	-0.000
212.15	-0.000
212.36	-0.000
212.58	-0.000
212.79	-0.000
213.01	-0.000
213.22	-0.000
213.43	-0.000
213.65	-0.000
213.86	-0.000
214.08	-0.000
214.29	-0.000
214.51	-0.000
214.72	-0.000
214.94	-0.000
215.15	-0.000
215.36	-0.000
215.58	-0.000
215.79	-0.000
216.01	-0.000
216.22	-0.000
216.44	-0.000
216.65	-0.000
216.87	-0.000
217.08	-0.000
217.29	-0.000
217.51	-0.000
217.72	-0.000
217.94	-0.000
218.15	-0.000
218.37	-0.000
218.58	-0.000
218.80	-0.000
219.01	-0.000
219.22	-0.000
219.44	-0.000
219.65	-0.000
219.87	-0.000
220.08	-0.000
220.30	-0.000
220.51	-0.000
220.72	-0.000
220.94	-0.000
221.15	-0.000
221.37	-0.000
221.58	-0.000
221.79	-0.000
222.01	-0.000
222.22	-0.000
222.44	-0.000
222.65	-0.000
222.87	-0.000
223.08	-0.000
223.29	-0.000
223.51	-0.000
223.72	-0.000
223.94	-0.000
224.15	-0.000
224.36	-0.000
224.58	-0.000
224.79	-0.000
225.01	-0.000
225.22	-0.000
225.44	-0.000
225.65	-0.000
225.86	-0.000
226.08	-0.000
226.29	-0.000
226.51	-0.000
226.72	-0.000
226.93	-0.000
227.15	-0.000
227.36	-0.000
227.58	-0.000
227.79	-0.000
228.00	-0.000
228.22	-0.000
228.43	-0.000
228.65	-0.000
228.86	-0.000
229.07	-0.000
229.29	-0.000
229.50	-0.000
229.72	-0.000
229.93	-0.000
230.14	-0.000
230.36	-0.000
230.57	-0.000
230.78	-0.000
231.00	-0.000
231.21	-0.000
231.43	-0.000
231.64	-0.000
231.85	-0.000
232.07	-0.000
232.28	-0.000
232.50	-0.000
232.71	-0.000
232.92	-0.000
233.14	-0.000
233.35	-0.000
233.56	-0.000
233.78	-0.000
233.99	-0.000
234.21	-0.000
234.42	-0.000
234.63	-0.000
234.85	-0.000
235.06	-0.000
235.27	-0.000
235.49	-0.000
235.70	-0.000
235.91	-0.000
236.13	-0.000
236.34	-0.000
236.56	-0.000
236.77	-0.000
236.98	-0.000
237.20	-0.000
237.41	-0.000
237.62	-0.000
237.84	-0.000
238.05	-0.000
238.26	-0.000
238.48	-0.000
238.69	-0.000
238.91	-0.000
239.12	-0.000
239.33	-0.000
239.55	-0.000
239.76	-0.000
239.97	-0.000
240.19	-0.000
240.40	-0.000
240.61	-0.000
240.83	-0.000
241.04	-0.000
241.25	-0.000
241.47	-0.000
241.68	-0.000
241.89	-0.000
242.11	-0.000
242.32	-0.000
242.53	-0.000
242.75	-0.000
242.96	-0.000
243.17	-0.000
243.39	-0.000
243.60	-0.000
243.81	-0.000
244.03	-0.000
244.24	-0.000
244.45	-0.000
244.67	-0.000
244.88	-0.000
245.09	-0.000
245.31	-0.000
245.52	-0.000
245.73	-0.000
245.95	-0.000
246.16	-0.000
246.37	-0.000
246.59	-0.000
246.80	-0.000
247.01	-0.000
247.23	-0.000
247.44	-0.000
247.65	-0.000
247.87	-0.000
248.08	-0.000
248.29	-0.000
248.51	-0.000
248.72	-0.000
248.93	-0.000
249.15	-0.000
249.36	-0.000
249.57	-0.000
249.78	-0.000
250.00	-0.000
250.21	-0.000
250.42	-0.000
250.64	-0.000
250.85	-0.000
251.06	-0.000
251.28	-0.000
251.49	-0.000
251.70	-0.000
251.92	-0.000
252.13	-0.000
252.34	-0.000
252.55	-0.000
252.77	-0.000
252.98	-0.000
253.19	-0.000
253.41	-0.000
253.62	-0.000
253.83	-0.000
254.05	-0.000
254.26	-0.000
254.47	-0.000
254.68	-0.000
254.90	-0.000
255.11	-0.000
255.32	-0.000
255.54	-0.000
255.75	-0.000
255.96	-0.000
256.17	-0.000
256.39	-0.000
256.60	-0.000
256.81	-0.000
257.03	-0.000
257.24	-0.000
257.45	-0.000
257.66	-0.000
257.88	-0.000
258.09	-0.000
258.30	-0.000
258.51	-0.000
258.73	-0.000
258.94	-0.000
259.15	-0.000
259.37	-0.000
259.58	-0.000
259.79	-0.000
260.00	-0.000
260.22	-0.000
260.43	-0.000
260.64	-0.000
260.85	-0.000
261.07	-0.000
261.28	-0.000
261.49	-0.000
261.71	-0.000
261.92	-0.000
262.13	-0.000
262.34	-0.000
262.56	-0.000
262.77	-0.000
262.98	-0.000
263.19	-0.000
263.41	-0.000
263.62	-0.000
263.83	-0.000
264.04	-0.000
264.26	-0.000
264.47	-0.000
264.68	-0.000
264.89	-0.000
265.11	-0.000
265.32	-0.000
265.53	-0.000
265.74	-0.000
265.96	-0.000
266.17	-0.000
266.38	-0.000
266.59	-0.000
266.81	-0.000
267.02	-0.000
267.23	-0.000
267.44	-0.000
267.65	-0.000
267.87	-0.000
268.08	-0.000
268.29	-0.000
268.50	-0.000
268.72	-0.000
268.93	-0.000
269.14	-0.000
269.35	-0.000
269.57	-0.000
269.78	-0.000
269.99	-0.000
270.20	-0.000
270.41	-0.000
270.63	-0.000
270.84	-0.000
271.05	-0.000
271.26	-0.000
271.48	-0.000
271.69	-0.000
271.90	-0.000
272.11	-0.000
272.32	-0.000
272.54	-0.000
272.75	-0.000
272.96	-0.000
273.17	-0.000
273.39	-0.000
273.60	-0.000
273.81	-0.000
274.02	-0.000
274.23	-0.000
274.45	-0.000
274.66	-0.000
274.87	-0.000
275.08	-0.000
275.29	-0.000
275.51	-0.000
275.72	-0.000
275.93	-0.000
276.14	-0.000
276.35	-0.000
276.57	-0.000
276.78	-0.000
276.99	-0.000
277.20	-0.000
277.41	-0.000
277.63	-0.000
277.84	-0.000
278.05	-0.000
278.26	-0.000
278.47	-0.000
278.69	-0.000
278.90	-0.000
279.11	-0.000
279.32	-0.000
279.53	-0.000
279.74	-0.000
279.96	-0.000
280.17	-0.000
280.38	-0.000
280.59	-0.000
280.80	-0.000
281.02	-0.000
281.23	-0.000
281.44	-0.000
281.65	-0.000
281.86	-0.000
282.07	-0.000
282.29	-0.000
282.50	-0.000
282.71	-0.000
282.92	-0.000
283.13	-0.000
283.35	-0.000
283.56	-0.000
283.77	-0.000
283.98	-0.000
284.19	-0.000
284.40	-0.000
284.62	-0.000
284.83	-0.000
285.04	-0.000
285.25	-0.000
285.46	-0.000
285.67	-0.000
285.88	-0.000
286.10	-0.000
286.31	-0.000
286.52	-0.000
286.73	-0.000
286.94	-0.000
287.15	-0.000
287.37	-0.000
287.58	-0.000
287.79	-0.000
288.00	-0.000
288.21	-0.000
288.42	-0.000
288.63	-0.000
288.85	-0.000
289.06	-0.000
289.27	-0.000
289.48	-0.000
289.69	-0.000
289.90	-0.000
290.11	-0.000
290.33	-0.000
290.54	-0.000
290.75	-0.000
290.96	-0.000
291.17	-0.000
291.38	-0.000
291.59	-0.000
291.81	-0.000
292.02	-0.000
292.23	-0.000
292.44	-0.000
292.65	-0.000
292.86	-0.000
293.07	-0.000
293.28	-0.000
293.50	-0.000
293.71	-0.000
293.92	-0.000
294.13	-0.000
294.34	-0.000
294.55	-0.000
294.76	-0.000
294.97	-0.000
295.19	-0.000
295.40	-0.000
295.61	-0.000
295.82	-0.000
296.03	-0.000
296.24	-0.000
296.45	-0.000
296.66	2.948
296.87	3.997
297.09	-0.000
297.30	-0.000
297.51	2.498
297.72	2.253
297.93	2.983
298.14	2.615
298.35	2.250
298.56	2.175
298.77	3.623
298.99	2.753
299.20	2.402
299.41	2.254
299.62	2.122
299.83	2.071
300.04	1.897
300.25	1.882
300.46	1.989
300.67	1.925
300.88	1.784
301.10	1.770
301.31	1.928
301.52	1.813
301.73	1.699
301.94	1.699
302.15	1.731
302.36	1.653
302.57	1.547
302.78	1.560
302.99	1.622
303.20	1.647
303.41	1.512
303.63	1.477
303.84	1.484
304.05	1.474
304.26	1.392
304.47	1.399
304.68	1.408
304.89	1.400
305.10	1.341
305.31	1.331
305.52	1.385
305.73	1.378
305.94	1.334
306.15	1.322
306.37	1.353
306.58	1.360
306.79	1.320
307.00	1.343
307.21	1.388
307.42	1.381
307.63	1.328
307.84	1.292
308.05	1.336
308.26	1.333
308.47	1.305
308.68	1.296
308.89	1.302
309.10	1.298
309.31	1.249
309.52	1.240
309.73	1.258
309.95	1.255
310.16	1.218
310.37	1.206
310.58	1.226
310.79	1.224
311.00	1.219
311.21	1.223
311.42	1.226
311.63	1.221
311.84	1.198
312.05	1.196
312.26	1.220
312.47	1.234
312.68	1.204
312.89	1.186
313.10	1.196
313.31	1.166
313.52	1.163
313.73	1.165
313.94	1.169
314.15	1.149
314.36	1.123
314.57	1.114
314.78	1.103
314.99	1.095
315.21	1.081
315.42	1.085
315.63	1.100
315.84	1.077
316.05	1.058
316.26	1.067
316.47	1.086
316.68	1.081
316.89	1.059
317.10	1.080
317.31	1.089
317.52	1.091
317.73	1.066
317.94	1.066
318.15	1.111
318.36	1.113
318.57	1.090
318.78	1.080
318.99	1.118
319.20	1.114
319.41	1.076
319.62	1.077
319.83	1.091
320.04	1.085
320.25	1.068
320.46	1.035
320.67	1.039
320.88	1.037
321.09	1.021
321.30	1.006
321.51	1.023
321.72	1.021
321.93	1.002
322.14	0.996
322.35	1.026
322.56	1.027
322.77	1.013
322.98	1.025
323.19	1.034
323.40	1.038
323.61	1.014
323.82	1.010
324.03	1.017
324.24	1.014
324.45	0.998
324.66	0.978
324.87	0.976
325.08	0.975
325.29	0.952
325.50	0.944
325.71	0.951
325.92	0.960
326.13	0.944
326.34	0.944
326.55	0.954
326.76	0.953
326.97	0.941
327.18	0.935
327.39	0.962
327.60	0.964
327.80	0.965
328.01	0.962
328.22	0.961
328.43	0.965
328.64	0.952
328.85	0.957
329.06	0.958
329.27	0.957
329.48	0.950
329.69	0.930
329.90	0.941
330.11	0.935
330.32	0.927
330.53	0.921
330.74	0.921
330.95	0.919
331.16	0.903
331.37	0.911
331.58	0.913
331.79	0.912
332.00	0.903
332.21	0.896
332.42	0.901
332.63	0.891
332.83	0.885
333.04	0.887
333.25	0.901
333.46	0.898
333.67	0.884
333.88	0.886
334.09	0.897
334.30	0.893
334.51	0.884
334.72	0.877
334.93	0.881
335.14	0.881
335.35	0.874
335.56	0.868
335.77	0.878
335.98	0.876
336.18	0.868
336.39	0.861
336.60	0.866
336.81	0.863
337.02	0.862
337.23	0.868
337.44	0.871
337.65	0.873
337.86	0.862
338.07	0.857
338.28	0.865
338.49	0.862
338.70	0.854
338.91	0.862
339.11	0.870
339.32	0.867
339.53	0.853
339.74	0.850
339.95	0.847
340.16	0.844
340.37	0.835
340.58	0.832
340.79	0.837
341.00	0.838
341.21	0.826
341.41	0.825
341.62	0.828
341.83	0.829
342.04	0.824
342.25	0.836
342.46	0.842
342.67	0.841
342.88	0.834
343.09	0.833
343.30	0.842
343.50	0.845
343.71	0.834
343.92	0.832
344.13	0.837
344.34	0.837
344.55	0.819
344.76	0.819
344.97	0.825
345.18	0.823
345.38	0.819
345.59	0.813
345.80	0.812
346.01	0.810
346.22	0.806
346.43	0.800
346.64	0.809
346.85	0.808
347.06	0.800
347.26	0.800
347.47	0.805
347.68	0.801
347.89	0.797
348.10	0.793
348.31	0.801
348.52	0.800
348.73	0.797
348.93	0.794
349.14	0.797
349.35	0.797
349.56	0.790
349.77	0.784
349.98	0.790
350.19	0.788
350.39	0.783
350.60	0.779
350.81	0.795
351.02	0.793
351.23	0.788
351.44	0.791
351.65	0.794
351.86	0.791
352.06	0.789
352.27	0.788
352.48	0.791
352.69	0.790
352.90	0.784
353.11	0.771
353.31	0.779
353.52	0.775
353.73	0.765
353.94	0.766
354.15	0.773
354.36	0.773
354.57	0.764
354.77	0.766
354.98	0.766
355.19	0.764
355.40	0.764
355.61	0.770
355.82	0.775
356.02	0.775
356.23	0.768
356.44	0.770
356.65	0.774
356.86	0.775
357.07	0.768
357.27	0.771
357.48	0.775
357.69	0.770
357.90	0.755
358.11	0.751
358.32	0.756
358.52	0.759
358.73	0.749
358.94	0.751
359.15	0.756
359.36	0.757
359.56	0.751
359.77	0.748
359.98	0.756
360.19	0.755
360.40	0.752
360.61	0.752
360.81	0.752
361.02	0.752
361.23	0.743
361.44	0.742
361.65	0.744
361.85	0.744
362.06	0.742
362.27	0.744
362.48	0.745
362.69	0.747
362.89	0.740
363.10	0.741
363.31	0.747
363.52	0.749
363.73	0.744
363.93	0.745
364.14	0.747
364.35	0.748
364.56	0.737
364.77	0.739
364.97	0.741
365.18	0.741
365.39	0.735
365.60	0.732
365.81	0.734
366.01	0.733
366.22	0.730
366.43	0.729
366.64	0.732
366.84	0.737
367.05	0.733
367.26	0.733
367.47	0.736
367.68	0.735
367.88	0.732
368.09	0.729
368.30	0.732
368.51	0.731
368.71	0.729
368.92	0.734
369.13	0.733
369.34	0.732
369.55	0.731
369.75	0.730
369.96	0.737
370.17	0.737
370.38	0.733
370.58	0.732
370.79	0.738
371.00	0.737
371.21	0.727
371.41	0.732
371.62	0.737
371.83	0.732
372.04	0.729
372.24	0.723
372.45	0.725
372.66	0.725
372.87	0.721
373.07	0.718
373.28	0.719
373.49	0.723
373.70	0.713
373.90	0.713
374.11	0.722
374.32	0.723
374.53	0.722
374.73	0.723
374.94	0.726
375.15	0.727
375.36	0.724
375.56	0.733
375.77	0.733
375.98	0.733
376.19	0.729
376.39	0.723
376.60	0.727
376.81	0.727
377.02	0.724
377.22	0.723
377.43	0.722
377.64	0.721
377.84	0.712
378.05	0.716
378.26	0.724
378.47	0.723
378.67	0.719
378.88	0.716
379.09	0.717
379.30	0.716
379.50	0.713
379.71	0.715
379.92	0.719
380.12	0.718
380.33	0.709
380.54	0.705
380.75	0.713
380.95	0.713
381.16	0.711
381.37	0.711
381.57	0.713
381.78	0.714
381.99	0.714
382.20	0.713
382.40	0.717
382.61	0.717
382.82	0.712
383.02	0.705
383.23	0.709
383.44	0.708
383.64	0.706
383.85	0.709
384.06	0.711
384.27	0.709
384.47	0.706
384.68	0.705
384.89	0.711
385.09	0.711
385.30	0.710
385.51	0.709
385.71	0.714
385.92	0.714
386.13	0.712
386.33	0.714
386.54	0.715
386.75	0.715
386.95	0.711
387.16	0.705
387.37	0.708
387.58	0.707
387.78	0.704
387.99	0.701
388.20	0.703
388.40	0.700
388.61	0.696
388.82	0.698
389.02	0.700
389.23	0.700
389.44	0.699
389.64	0.699
389.85	0.710
390.06	0.710
390.26	0.711
390.47	0.709
390.68	0.712
390.88	0.710
391.09	0.706
391.30	0.705
391.50	0.706
391.71	0.706
391.92	0.703
392.12	0.695
392.33	0.695
392.53	0.694
392.74	0.694
392.95	0.693
393.15	0.696
393.36	0.698
393.57	0.695
393.77	0.698
393.98	0.699
394.19	0.699
394.39	0.698
394.60	0.700
394.81	0.702
395.01	0.699
395.22	0.696
395.43	0.697
395.63	0.702
395.84	0.703
396.04	0.699
396.25	0.701
396.46	0.703
396.66	0.701
396.87	0.698
397.08	0.695
397.28	0.697
397.49	0.699
397.69	0.695
397.90	0.690
398.11	0.691
398.31	0.692
398.52	0.687
398.73	0.688
398.93	0.687
399.14	0.686
399.34	0.684
399.55	0.686
399.76	0.686
399.96	0.687
400.17	0.685
400.37	0.684
400.58	0.691
400.79	0.692
400.99	0.690
401.20	0.695
401.41	0.698
401.61	0.699
401.82	0.703
402.02	0.702
402.23	0.703
402.44	0.702
402.64	0.702
402.85	0.697
403.05	0.695
403.26	0.694
403.47	0.688
403.67	0.686
403.88	0.688
404.08	0.682
404.29	0.680
404.50	0.680
404.70	0.680
404.91	0.678
405.11	0.675
405.32	0.675
405.52	0.676
405.73	0.676
405.94	0.674
406.14	0.676
406.35	0.679
406.55	0.678
406.76	0.675
406.97	0.676
407.17	0.679
407.38	0.679
407.58	0.677
407.79	0.680
407.99	0.683
408.20	0.684
408.41	0.679
408.61	0.676
408.82	0.678
409.02	0.678
409.23	0.676
409.43	0.675
409.64	0.677
409.84	0.676
410.05	0.672
410.26	0.670
410.46	0.670
410.67	0.670
410.87	0.672
411.08	0.674
411.28	0.675
411.49	0.676
411.69	0.673
411.90	0.674
412.11	0.676
412.31	0.677
412.52	0.675
412.72	0.675
412.93	0.676
413.13	0.675
413.34	0.671
413.54	0.672
413.75	0.674
413.95	0.673
414.16	0.670
414.37	0.673
414.57	0.673
414.78	0.675
414.98	0.673
415.19	0.675
415.39	0.673
415.60	0.675
415.80	0.674
416.01	0.673
416.21	0.675
416.42	0.675
416.62	0.670
416.83	0.670
417.03	0.670
417.24	0.670
417.44	0.667
417.65	0.666
417.86	0.666
418.06	0.665
418.27	0.662
418.47	0.664
418.68	0.665
418.88	0.666
419.09	0.664
419.29	0.664
419.50	0.666
419.70	0.666
419.91	0.664
420.11	0.662
420.32	0.665
420.52	0.664
420.73	0.663
420.93	0.665
421.14	0.666
421.34	0.665
421.55	0.661
421.75	0.661
421.96	0.663
422.16	0.663
422.37	0.662
422.57	0.660
422.78	0.661
422.98	0.658
423.19	0.656
423.39	0.655
423.60	0.659
423.80	0.661
424.01	0.659
424.21	0.662
424.42	0.663
424.62	0.663
424.83	0.662
425.03	0.663
425.23	0.665
425.44	0.666
425.64	0.665
425.85	0.664
426.05	0.665
426.26	0.665
426.46	0.661
426.67	0.660
426.87	0.665
427.08	0.666
427.28	0.663
427.49	0.664
427.69	0.664
427.90	0.663
428.10	0.660
428.31	0.660
428.51	0.661
428.71	0.661
428.92	0.662
429.12	0.659
429.33	0.660
429.53	0.664
429.74	0.668
429.94	0.668
430.15	0.668
430.35	0.669
430.56	0.666
430.76	0.665
430.96	0.666
431.17	0.664
431.37	0.661
431.58	0.660
431.78	0.657
431.99	0.651
432.19	0.652
432.40	0.654
432.60	0.655
432.80	0.658
433.01	0.656
433.21	0.656
433.42	0.658
433.62	0.659
433.83	0.659
434.03	0.661
434.23	0.665
434.44	0.664
434.64	0.661
434.85	0.666
435.05	0.667
435.26	0.667
435.46	0.665
435.66	0.664
435.87	0.665
436.07	0.664
436.28	0.660
436.48	0.657
436.69	0.657
436.89	0.657
437.09	0.652
437.30	0.651
437.50	0.652
437.71	0.664
437.91	0.663
438.11	0.664
438.32	0.669
438.52	0.669
438.73	0.668
438.93	0.666
439.13	0.667
439.34	0.670
439.54	0.668
439.75	0.668
439.95	0.658
440.15	0.662
440.36	0.660
440.56	0.658
440.77	0.659
440.97	0.658
441.17	0.657
441.38	0.659
441.58	0.655
441.79	0.655
441.99	0.653
442.19	0.652
442.40	0.650
442.60	0.650
442.81	0.647
443.01	0.648
443.21	0.649
443.42	0.648
443.62	0.646
443.82	0.648
444.03	0.650
444.23	0.650
444.44	0.651
444.64	0.650
444.84	0.652
445.05	0.652
445.25	0.649
445.45	0.650
445.66	0.653
445.86	0.652
446.06	0.652
446.27	0.652
446.47	0.655
446.68	0.653
446.88	0.652
447.08	0.651
447.29	0.653
447.49	0.653
447.69	0.652
447.90	0.651
448.10	0.655
448.30	0.653
448.51	0.653
448.71	0.651
448.91	0.654
449.12	0.653
449.32	0.654
449.52	0.653
449.73	0.657
449.93	0.657
450.14	0.658
450.34	0.657
450.54	0.660
450.75	0.657
450.95	0.656
451.15	0.656
451.36	0.658
451.56	0.655
451.76	0.654
451.97	0.651
452.17	0.653
452.37	0.651
452.58	0.647
452.78	0.647
452.98	0.650
453.19	0.649
453.39	0.650
453.59	0.649
453.79	0.650
454.00	0.650
454.20	0.649
454.40	0.649
454.61	0.651
454.81	0.652
455.01	0.650
455.22	0.650
455.42	0.653
455.62	0.651
455.83	0.651
456.03	0.653
456.23	0.655
456.44	0.655
456.64	0.654
456.84	0.654
457.04	0.655
457.25	0.655
457.45	0.651
457.65	0.650
457.86	0.651
458.06	0.650
458.26	0.645
458.47	0.645
458.67	0.647
458.87	0.647
459.07	0.644
459.28	0.646
459.48	0.648
459.68	0.648
459.89	0.647
460.09	0.647
460.29	0.648
460.49	0.649
460.70	0.648
460.90	0.647
461.10	0.647
461.31	0.647
461.51	0.645
461.71	0.647
461.91	0.649
462.12	0.649
462.32	0.647
462.52	0.648
462.72	0.651
462.93	0.652
463.13	0.651
463.33	0.652
463.53	0.654
463.74	0.653
463.94	0.648
464.14	0.648
464.35	0.649
464.55	0.649
464.75	0.647
464.95	0.645
465.16	0.647
465.36	0.646
465.56	0.645
465.76	0.644
465.97	0.645
466.17	0.646
466.37	0.643
466.57	0.645
466.78	0.646
466.98	0.646
467.18	0.644
467.38	0.642
467.59	0.644
467.79	0.646
467.99	0.645
468.19	0.646
468.39	0.649
468.60	0.650
468.80	0.647
469.00	0.648
469.20	0.649
469.41	0.649
469.61	0.649
469.81	0.649
470.01	0.649
470.22	0.649
470.42	0.647
470.62	0.645
470.82	0.646
471.02	0.646
471.23	0.643
471.43	0.644
471.63	0.647
471.83	0.646
472.04	0.644
472.24	0.643
472.44	0.648
472.64	0.649
472.84	0.647
473.05	0.646
473.25	0.650
473.45	0.650
473.65	0.648
473.85	0.648
474.06	0.651
474.26	0.650
474.46	0.651
474.66	0.648
474.86	0.649
475.07	0.649
475.27	0.646
475.47	0.643
475.67	0.644
475.87	0.647
476.08	0.643
476.28	0.643
476.48	0.645
476.68	0.643
476.88	0.641
477.09	0.642
477.29	0.644
477.49	0.644
477.69	0.643
477.89	0.644
478.09	0.643
478.30	0.645
478.50	0.642
478.70	0.642
478.90	0.642
479.10	0.645
479.31	0.646
479.51	0.644
479.71	0.644
479.91	0.644
480.11	0.643
480.31	0.643
480.52	0.642
480.72	0.642
480.92	0.641
481.12	0.640
481.32	0.638
481.52	0.636
481.72	0.636
481.93	0.639
482.13	0.640
482.33	0.640
482.53	0.638
482.73	0.638
482.93	0.640
483.14	0.639
483.34	0.638
483.54	0.639
483.74	0.638
483.94	0.637
484.14	0.633
484.34	0.633
484.55	0.633
484.75	0.633
484.95	0.631
485.15	0.631
485.35	0.632
485.55	0.631
485.75	0.629
485.96	0.630
486.16	0.632
486.36	0.632
486.56	0.630
486.76	0.630
486.96	0.631
487.16	0.630
487.36	0.628
487.57	0.628
487.77	0.629
487.97	0.629
488.17	0.627
488.37	0.626
488.57	0.627
488.77	0.627
488.97	0.626
489.18	0.626
489.38	0.628
489.58	0.629
489.78	0.628
489.98	0.627
490.18	0.627
490.38	0.628
490.58	0.626
490.78	0.627
490.98	0.629
491.19	0.629
491.39	0.628
491.59	0.627
491.79	0.630
491.99	0.630
492.19	0.630
492.39	0.634
492.59	0.634
492.79	0.636
492.99	0.636
493.20	0.636
493.40	0.637
493.60	0.638
493.80	0.636
494.00	0.634
494.20	0.635
494.40	0.635
494.60	0.632
494.80	0.637
495.00	0.636
495.20	0.634
495.40	0.633
495.61	0.634
495.81	0.634
496.01	0.637
496.21	0.638
496.41	0.637
496.61	0.637
496.81	0.637
497.01	0.631
497.21	0.631
497.41	0.632
497.61	0.632
497.81	0.630
498.01	0.630
498.21	0.629
498.41	0.627
498.61	0.627
498.82	0.628
499.02	0.630
499.22	0.631
499.42	0.629
499.62	0.631
499.82	0.631
500.02	0.633
500.22	0.631
500.42	0.633
500.62	0.634
500.82	0.634
501.02	0.632
501.22	0.632
501.42	0.633
501.62	0.635
501.82	0.634
502.02	0.634
502.22	0.634
502.42	0.636
502.62	0.632
502.82	0.633
503.02	0.633
503.22	0.633
503.42	0.631
503.63	0.631
503.83	0.629
504.03	0.628
504.23	0.626
504.43	0.627
504.63	0.628
504.83	0.628
505.03	0.627
505.23	0.629
505.43	0.630
505.63	0.631
505.83	0.631
506.03	0.633
506.23	0.635
506.43	0.635
506.63	0.634
506.83	0.633
507.03	0.635
507.23	0.636
507.43	0.633
507.63	0.634
507.83	0.634
508.03	0.635
508.23	0.634
508.43	0.632
508.63	0.635
508.83	0.635
509.03	0.636
509.23	0.635
509.43	0.636
509.63	0.636
509.83	0.634
510.03	0.636
510.23	0.638
510.43	0.639
510.63	0.639
510.83	0.638
511.03	0.640
511.23	0.638
511.43	0.637
511.63	0.639
511.83	0.642
512.03	0.642
512.22	0.638
512.42	0.638
512.62	0.639
512.82	0.639
513.02	0.638
513.22	0.637
513.42	0.640
513.62	0.642
513.82	0.640
514.02	0.639
514.22	0.640
514.42	0.641
514.62	0.640
514.82	0.641
515.02	0.644
515.22	0.647
515.42	0.645
515.62	0.648
515.82	0.647
516.02	0.648
516.22	0.648
516.42	0.649
516.62	0.651
516.82	0.653
517.01	0.651
517.21	0.650
517.41	0.654
517.61	0.654
517.81	0.650
518.01	0.649
518.21	0.649
518.41	0.648
518.61	0.647
518.81	0.647
519.01	0.648
519.21	0.648
519.41	0.648
519.61	0.643
519.81	0.645
520.00	0.645
520.20	0.645
520.40	0.648
520.60	0.650
520.80	0.649
521.00	0.649
521.20	0.650
521.40	0.655
521.60	0.655
521.80	0.653
522.00	0.654
522.20	0.657
522.39	0.656
522.59	0.653
522.79	0.654
522.99	0.656
523.19	0.655
523.39	0.652
523.59	0.650
523.79	0.653
523.99	0.656
524.19	0.655
524.38	0.653
524.58	0.655
524.78	0.655
524.98	0.653
525.18	0.655
525.38	0.657
525.58	0.658
525.78	0.655
525.98	0.653
526.18	0.653
526.37	0.652
526.57	0.654
526.77	0.654
526.97	0.655
527.17	0.655
527.37	0.651
527.57	0.653
527.77	0.656
527.96	0.656
528.16	0.655
528.36	0.656
528.56	0.658
528.76	0.655
528.96	0.654
529.16	0.655
529.36	0.659
529.55	0.658
529.75	0.655
529.95	0.655
530.15	0.656
530.35	0.659
530.55	0.656
530.75	0.657
530.94	0.659
531.14	0.659
531.34	0.658
531.54	0.655
531.74	0.659
531.94	0.662
532.13	0.659
532.33	0.661
532.53	0.660
532.73	0.659
532.93	0.657
533.13	0.657
533.33	0.658
533.52	0.658
533.72	0.662
533.92	0.660
534.12	0.659
534.32	0.660
534.52	0.658
534.71	0.660
534.91	0.664
535.11	0.665
535.31	0.663
535.51	0.665
535.71	0.668
535.90	0.665
536.10	0.666
536.30	0.667
536.50	0.668
536.70	0.668
536.89	0.665
537.09	0.665
537.29	0.667
537.49	0.667
537.69	0.665
537.89	0.665
538.08	0.666
538.28	0.663
538.48	0.663
538.68	0.665
538.88	0.667
539.07	0.668
539.27	0.665
539.47	0.664
539.67	0.665
539.87	0.665
540.06	0.663
540.26	0.664
540.46	0.666
540.66	0.664
540.86	0.660
541.05	0.661
541.25	0.662
541.45	0.663
541.65	0.661
541.84	0.663
542.04	0.664
542.24	0.665
542.44	0.664
542.64	0.664
542.83	0.667
543.03	0.668
543.23	0.665
543.43	0.666
543.62	0.668
543.82	0.668
544.02	0.666
544.22	0.667
544.42	0.670
544.61	0.670
544.81	0.667
545.01	0.666
545.21	0.669
545.40	0.669
545.60	0.666
545.80	0.670
546.00	0.671
546.19	0.670
546.39	0.668
546.59	0.665
546.79	0.668
546.98	0.668
547.18	0.667
547.38	0.668
547.58	0.671
547.77	0.672
547.97	0.667
548.17	0.669
548.37	0.670
548.56	0.670
548.76	0.669
548.96	0.671
549.16	0.674
549.35	0.673
549.55	0.670
549.75	0.671
549.95	0.675
550.14	0.675
550.34	0.672
550.54	0.677
550.73	0.682
550.93	0.683
551.13	0.680
551.33	0.678
551.52	0.679
551.72	0.680
551.92	0.677
552.12	0.677
552.31	0.678
552.51	0.679
552.71	0.674
552.90	0.673
553.10	0.675
553.30	0.675
553.50	0.674
553.69	0.675
553.89	0.676
554.09	0.676
554.28	0.672
554.48	0.674
554.68	0.677
554.87	0.677
555.07	0.673
555.27	0.673
555.47	0.675
555.66	0.675
555.86	0.674
556.06	0.676
556.25	0.678
556.45	0.686
556.65	0.684
556.84	0.687
557.04	0.690
557.24	0.692
557.43	0.692
557.63	0.695
557.83	0.697
558.02	0.697
558.22	0.700
558.42	0.701
558.61	0.694
558.81	0.694
559.01	0.689
559.21	0.689
559.40	0.690
559.60	0.689
559.80	0.685
559.99	0.686
560.19	0.689
560.39	0.683
560.58	0.679
560.78	0.680
560.97	0.684
561.17	0.683
561.37	0.681
561.56	0.682
561.76	0.685
561.96	0.686
562.15	0.683
562.35	0.686
562.55	0.687
562.74	0.687
562.94	0.686
563.14	0.684
563.33	0.684
563.53	0.684
563.73	0.681
563.92	0.683
564.12	0.685
564.31	0.687
564.51	0.684
564.71	0.685
564.90	0.689
565.10	0.689
565.30	0.691
565.49	0.693
565.69	0.695
565.89	0.695
566.08	0.691
566.28	0.692
566.47	0.694
566.67	0.692
566.87	0.689
567.06	0.691
567.26	0.698
567.46	0.693
567.65	0.692
567.85	0.693
568.04	0.696
568.24	0.696
568.44	0.693
568.63	0.691
568.83	0.692
569.02	0.691
569.22	0.686
569.42	0.682
569.61	0.685
569.81	0.683
570.00	0.681
570.20	0.682
570.40	0.684
570.59	0.684
570.79	0.681
570.98	0.680
571.18	0.682
571.38	0.682
571.57	0.678
571.77	0.677
571.96	0.681
572.16	0.678
572.35	0.672
572.55	0.673
572.75	0.672
572.94	0.671
573.14	0.670
573.33	0.670
573.53	0.670
573.73	0.670
573.92	0.667
574.12	0.665
574.31	0.668
574.51	0.669
574.70	0.666
574.90	0.667
575.09	0.670
575.29	0.669
575.49	0.666
575.68	0.667
575.88	0.669
576.07	0.670
576.27	0.668
576.46	0.667
576.66	0.666
576.86	0.666
577.05	0.663
577.25	0.661
577.44	0.664
577.64	0.664
577.83	0.662
578.03	0.662
578.22	0.662
578.42	0.662
578.61	0.660
578.81	0.661
579.00	0.661
579.20	0.661
579.40	0.660
579.59	0.658
579.79	0.659
579.98	0.658
580.18	0.658
580.37	0.658
580.57	0.661
580.76	0.665
580.96	0.663
581.15	0.664
581.35	0.666
581.54	0.666
581.74	0.665
581.93	0.667
582.13	0.668
582.32	0.665
582.52	0.663
582.71	0.662
582.91	0.659
583.10	0.659
583.30	0.657
583.49	0.657
583.69	0.661
583.88	0.662
584.08	0.660
584.27	0.662
584.47	0.666
584.66	0.667
584.86	0.665
585.05	0.667
585.25	0.670
585.44	0.670
585.64	0.667
585.83	0.664
586.03	0.665
586.22	0.664
586.42	0.660
586.61	0.662
586.81	0.665
587.00	0.665
587.20	0.662
587.39	0.663
587.59	0.665
587.78	0.666
587.98	0.667
588.17	0.667
588.37	0.670
588.56	0.673
588.76	0.668
588.95	0.668
589.15	0.672
589.34	0.675
589.54	0.672
589.73	0.673
589.92	0.677
590.12	0.676
590.31	0.673
590.51	0.678
590.70	0.679
590.90	0.679
591.09	0.677
591.29	0.676
591.48	0.676
591.68	0.677
591.87	0.675
592.06	0.675
592.26	0.677
592.45	0.677
592.65	0.671
592.84	0.671
593.04	0.674
593.23	0.677
593.43	0.673
593.62	0.674
593.81	0.674
594.01	0.674
594.20	0.672
594.40	0.672
594.59	0.674
594.79	0.675
594.98	0.673
595.17	0.672
595.37	0.672
595.56	0.674
595.76	0.672
595.95	0.674
596.14	0.677
596.34	0.678
596.53	0.675
596.73	0.676
596.92	0.678
597.12	0.680
597.31	0.680
597.50	0.679
597.70	0.681
597.89	0.681
598.09	0.677
598.28	0.679
598.47	0.681
598.67	0.680
598.86	0.676
599.06	0.677
599.25	0.678
599.44	0.677
599.64	0.674
599.83	0.672
600.03	0.675
600.22	0.676
600.41	0.675
600.61	0.674
600.80	0.677
601.00	0.678
601.19	0.674
601.38	0.673
601.58	0.676
601.77	0.677
601.96	0.678
602.16	0.678
602.35	0.688
602.55	0.685
602.74	0.685
602.93	0.687
603.13	0.692
603.32	0.693
603.51	0.691
603.71	0.695
603.90	0.697
604.09	0.697
604.29	0.694
604.48	0.688
604.68	0.690
604.87	0.688
605.06	0.684
605.26	0.681
605.45	0.682
605.64	0.682
605.84	0.676
606.03	0.676
606.22	0.675
606.42	0.675
606.61	0.671
606.80	0.671
607.00	0.673
607.19	0.674
607.38	0.672
607.58	0.673
607.77	0.676
607.96	0.677
608.16	0.676
608.35	0.680
608.54	0.683
608.74	0.686
608.93	0.691
609.12	0.695
609.32	0.697
609.51	0.701
609.70	0.700
609.90	0.702
610.09	0.706
610.28	0.711
610.48	0.704
610.67	0.705
610.86	0.706
611.06	0.700
611.25	0.697
611.44	0.698
611.64	0.697
611.83	0.699
612.02	0.695
612.21	0.694
612.41	0.693
612.60	0.692
612.79	0.687
612.99	0.687
613.18	0.690
613.37	0.688
613.57	0.686
613.76	0.688
613.95	0.686
614.14	0.686
614.34	0.682
614.53	0.684
614.72	0.688
614.92	0.689
615.11	0.685
615.30	0.682
615.49	0.684
615.69	0.687
615.88	0.683
616.07	0.685
616.26	0.688
616.46	0.689
616.65	0.684
616.84	0.683
617.04	0.685
617.23	0.689
617.42	0.689
617.61	0.693
617.81	0.695
618.00	0.696
618.19	0.694
618.38	0.698
618.58	0.702
618.77	0.703
618.96	0.702
619.15	0.704
619.35	0.706
619.54	0.706
619.73	0.700
619.92	0.701
620.12	0.706
620.31	0.706
620.50	0.701
620.69	0.701
620.89	0.705
621.08	0.705
621.27	0.705
621.46	0.704
621.66	0.709
621.85	0.709
622.04	0.706
622.23	0.706
622.43	0.708
622.62	0.707
622.81	0.706
623.00	0.706
623.19	0.710
623.39	0.708
623.58	0.705
623.77	0.703
623.96	0.706
624.16	0.707
624.35	0.701
624.54	0.704
624.73	0.709
624.92	0.707
625.12	0.704
625.31	0.704
625.50	0.708
625.69	0.709
625.88	0.705
626.08	0.704
626.27	0.707
626.46	0.707
626.65	0.704
626.84	0.704
627.04	0.710
627.23	0.710
627.42	0.705
627.61	0.707
627.80	0.710
628.00	0.710
628.19	0.707
628.38	0.710
628.57	0.714
628.76	0.713
628.96	0.709
629.15	0.709
629.34	0.713
629.53	0.713
629.72	0.707
629.91	0.707
630.11	0.713
630.30	0.713
630.49	0.716
630.68	0.717
630.87	0.720
631.06	0.723
631.26	0.717
631.45	0.719
631.64	0.728
631.83	0.730
632.02	0.726
632.21	0.726
632.41	0.734
632.60	0.728
632.79	0.726
632.98	0.727
633.17	0.727
633.36	0.729
633.55	0.724
633.75	0.720
633.94	0.723
634.13	0.723
634.32	0.719
634.51	0.713
634.70	0.716
634.89	0.715
635.09	0.711
635.28	0.713
635.47	0.715
635.66	0.718
635.85	0.714
636.04	0.714
636.23	0.721
636.43	0.723
636.62	0.721
636.81	0.720
637.00	0.724
637.19	0.727
637.38	0.722
637.57	0.722
637.76	0.725
637.95	0.726
638.15	0.722
638.34	0.717
638.53	0.721
638.72	0.724
638.91	0.720
639.10	0.718
639.29	0.719
639.48	0.719
639.67	0.719
639.87	0.717
640.06	0.723
640.25	0.723
640.44	0.723
640.63	0.724
640.82	0.726
641.01	0.725
641.20	0.724
641.39	0.726
641.58	0.729
641.78	0.728
641.97	0.724
642.16	0.739
642.35	0.741
642.54	0.740
642.73	0.734
642.92	0.732
643.11	0.737
643.30	0.737
643.49	0.732
643.68	0.734
643.87	0.737
644.06	0.737
644.25	0.715
644.45	0.717
644.64	0.718
644.83	0.720
645.02	0.716
645.21	0.716
645.40	0.717
645.59	0.716
645.78	0.709
645.97	0.711
646.16	0.713
646.35	0.712
646.54	0.709
646.73	0.710
646.92	0.712
647.11	0.711
647.30	0.706
647.49	0.709
647.68	0.709
647.88	0.708
648.07	0.699
648.26	0.702
648.45	0.705
648.64	0.701
648.83	0.698
649.02	0.700
649.21	0.712
649.40	0.711
649.59	0.706
649.78	0.707
649.97	0.723
650.16	0.723
650.35	0.716
650.54	0.718
650.73	0.728
650.92	0.725
651.11	0.717
651.30	0.714
651.49	0.718
651.68	0.719
651.87	0.714
652.06	0.704
652.25	0.707
652.44	0.710
652.63	0.705
652.82	0.704
653.01	0.704
653.20	0.701
653.39	0.688
653.58	0.686
653.77	0.686
653.96	0.681
654.15	0.673
654.34	0.671
654.53	0.667
654.72	0.662
654.91	0.652
655.10	0.649
655.29	0.648
655.48	0.646
655.67	0.640
655.86	0.638
656.05	0.637
656.24	0.636
656.43	0.630
656.62	0.630
656.81	0.631
657.00	0.631
657.19	0.629
657.38	0.629
657.57	0.629
657.76	0.632
657.95	0.630
658.14	0.634
658.33	0.638
658.51	0.644
658.70	0.644
658.89	0.645
659.08	0.653
659.27	0.660
659.46	0.659
659.65	0.666
659.84	0.669
660.03	0.672
660.22	0.673
660.41	0.677
660.60	0.676
660.79	0.677
660.98	0.682
661.17	0.680
661.36	0.681
661.55	0.682
661.74	0.678
661.92	0.681
662.11	0.684
662.30	0.682
662.49	0.674
662.68	0.674
662.87	0.678
663.06	0.672
663.25	0.673
663.44	0.673
663.63	0.675
663.82	0.673
664.01	0.668
664.20	0.666
664.38	0.668
664.57	0.669
664.76	0.669
664.95	0.669
665.14	0.675
665.33	0.670
665.52	0.677
665.71	0.680
665.90	0.681
666.09	0.682
666.28	0.680
666.46	0.679
666.65	0.680
666.84	0.678
667.03	0.671
667.22	0.669
667.41	0.672
667.60	0.661
667.79	0.654
667.98	0.656
668.16	0.657
668.35	0.657
668.54	0.652
668.73	0.654
668.92	0.655
669.11	0.653
669.30	0.647
669.49	0.643
669.67	0.646
669.86	0.647
670.05	0.644
670.24	0.642
670.43	0.640
670.62	0.639
670.81	0.633
671.00	0.635
671.18	0.635
671.37	0.634
671.56	0.632
671.75	0.630
671.94	0.628
672.13	0.626
672.32	0.621
672.50	0.620
672.69	0.621
672.88	0.623
673.07	0.618
673.26	0.621
673.45	0.623
673.63	0.623
673.82	0.619
674.01	0.620
674.20	0.620
674.39	0.619
674.58	0.618
674.76	0.618
674.95	0.616
675.14	0.616
675.33	0.610
675.52	0.609
675.71	0.609
675.89	0.608
676.08	0.603
676.27	0.602
676.46	0.604
676.65	0.603
676.84	0.602
677.02	0.604
677.21	0.607
677.40	0.606
677.59	0.604
677.78	0.605
677.96	0.608
678.15	0.607
678.34	0.604
678.53	0.605
678.72	0.606
678.90	0.602
679.09	0.598
679.28	0.594
679.47	0.594
679.66	0.594
679.84	0.590
680.03	0.587
680.22	0.586
680.41	0.589
680.60	0.584
680.78	0.584
680.97	0.587
681.16	0.588
681.35	0.586
681.53	0.585
681.72	0.587
681.91	0.589
682.10	0.586
682.29	0.589
682.47	0.587
682.66	0.587
682.85	0.584
683.04	0.582
683.22	0.582
683.41	0.584
683.60	0.583
683.79	0.584
683.97	0.583
684.16	0.582
684.35	0.578
684.54	0.579
684.72	0.580
684.91	0.581
685.10	0.579
685.29	0.581
685.47	0.579
685.66	0.577
685.85	0.573
686.04	0.573
686.22	0.576
686.41	0.579
686.60	0.575
686.79	0.578
686.97	0.579
687.16	0.580
687.35	0.577
687.54	0.581
687.72	0.585
687.91	0.584
688.10	0.586
688.29	0.585
688.47	0.583
688.66	0.583
688.85	0.578
689.03	0.576
689.22	0.582
689.41	0.582
689.60	0.577
689.78	0.575
689.97	0.576
690.16	0.573
690.34	0.569
690.53	0.569
690.72	0.569
690.91	0.567
691.09	0.565
691.28	0.558
691.47	0.556
691.65	0.555
691.84	0.552
692.03	0.551
692.21	0.549
692.40	0.549
692.59	0.546
692.77	0.545
692.96	0.547
693.15	0.549
693.34	0.546
693.52	0.546
693.71	0.548
693.90	0.549
694.08	0.550
694.27	0.551
694.46	0.560
694.64	0.562
694.83	0.561
695.02	0.560
695.20	0.560
695.39	0.559
695.58	0.558
695.76	0.559
695.95	0.558
696.14	0.557
696.32	0.555
696.51	0.545
696.70	0.545
696.88	0.546
697.07	0.544
697.26	0.545
697.44	0.547
697.63	0.546
697.81	0.544
698.00	0.543
698.19	0.543
698.37	0.544
698.56	0.543
698.75	0.542
698.93	0.543
699.12	0.542
699.31	0.541
699.49	0.541
699.68	0.542
699.87	0.545
700.05	0.544
700.24	0.543
700.42	0.545
700.61	0.544
700.80	0.542
700.98	0.542
701.17	0.544
701.36	0.543
701.54	0.542
701.73	0.543
701.91	0.541
702.10	0.540
702.29	0.537
702.47	0.536
702.66	0.538
702.84	0.540
703.03	0.538
703.22	0.539
703.40	0.540
703.59	0.541
703.77	0.540
703.96	0.540
704.15	0.542
704.33	0.542
704.52	0.541
704.70	0.540
704.89	0.540
705.08	0.539
705.26	0.534
705.45	0.534
705.63	0.534
705.82	0.531
706.00	0.530
706.19	0.529
706.38	0.529
706.56	0.528
706.75	0.526
706.93	0.525
707.12	0.528
707.30	0.528
707.49	0.524
707.68	0.522
707.86	0.522
708.05	0.522
708.23	0.519
708.42	0.519
708.60	0.523
708.79	0.523
708.98	0.522
709.16	0.520
709.35	0.523
709.53	0.527
709.72	0.526
709.90	0.528
710.09	0.530
710.27	0.532
710.46	0.535
710.64	0.533
710.83	0.535
711.02	0.536
711.20	0.535
711.39	0.533
711.57	0.531
711.76	0.531
711.94	0.529
712.13	0.530
712.31	0.530
712.50	0.525
712.68	0.522
712.87	0.523
713.05	0.523
713.24	0.524
713.42	0.523
713.61	0.523
713.79	0.525
713.98	0.524
714.16	0.525
714.35	0.525
714.54	0.526
714.72	0.527
714.91	0.524
715.09	0.530
715.28	0.533
715.46	0.533
715.65	0.530
715.83	0.530
716.02	0.533
716.20	0.529
716.39	0.528
716.57	0.529
716.76	0.532
716.94	0.533
717.12	0.524
717.31	0.525
717.49	0.529
717.68	0.531
717.86	0.530
718.05	0.533
718.23	0.536
718.42	0.538
718.60	0.538
718.79	0.547
718.97	0.550
719.16	0.551
719.34	0.549
719.53	0.548
719.71	0.549
719.90	0.550
720.08	0.546
720.27	0.546
720.45	0.547
720.63	0.545
720.82	0.538
721.00	0.541
721.19	0.545
721.37	0.544
721.56	0.543
721.74	0.546
721.93	0.556
722.11	0.562
722.30	0.561
722.48	0.566
722.66	0.568
722.85	0.567
723.03	0.567
723.22	0.564
723.40	0.568
723.59	0.568
723.77	0.572
723.95	0.564
724.14	0.567
724.32	0.568
724.51	0.567
724.69	0.569
724.88	0.570
725.06	0.567
725.24	0.568
725.43	0.570
725.61	0.573
725.80	0.566
725.98	0.563
726.16	0.560
726.35	0.566
726.53	0.564
726.72	0.562
726.90	0.573
727.09	0.576
727.27	0.582
727.45	0.578
727.64	0.587
727.82	0.596
728.01	0.602
728.19	0.598
728.37	0.604
728.56	0.609
728.74	0.617
728.92	0.603
729.11	0.606
729.29	0.606
729.48	0.607
729.66	0.597
729.84	0.595
730.03	0.600
730.21	0.603
730.40	0.591
730.58	0.593
730.76	0.592
730.95	0.596
731.13	0.594
731.31	0.607
731.50	0.618
731.68	0.621
731.86	0.617
732.05	0.632
732.23	0.637
732.42	0.641
732.60	0.644
732.78	0.649
732.97	0.669
733.15	0.677
733.33	0.663
733.52	0.670
733.70	0.682
733.88	0.692
734.07	0.675
734.25	0.702
734.43	0.714
734.62	0.718
734.80	0.713
734.98	0.702
735.17	0.709
735.35	0.718
735.53	0.705
735.72	0.710
735.90	0.737
736.08	0.756
736.27	0.729
736.45	0.739
736.63	0.752
736.82	0.763
737.00	0.762
737.18	0.775
737.37	0.810
737.55	0.835
737.73	0.826
737.92	0.828
738.10	0.826
738.28	0.849
738.46	0.834
738.65	0.849
738.83	0.874
739.01	0.934
739.20	0.917
739.38	0.897
739.56	0.891
739.75	0.896
739.93	0.855
740.11	0.882
740.29	0.888
740.48	0.892
740.66	0.864
740.84	0.859
741.03	0.828
741.21	0.842
741.39	0.822
741.57	0.837
741.76	0.861
741.94	0.869
742.12	0.830
742.31	0.833
742.49	0.861
742.67	0.887
742.85	0.900
743.04	0.902
743.22	0.919
743.40	0.976
743.58	0.950
743.77	0.963
743.95	1.010
744.13	1.066
744.31	1.039
744.50	1.029
744.68	1.041
744.86	1.011
745.04	1.018
745.23	1.093
745.41	1.076
745.59	1.082
745.77	1.040
745.96	1.019
746.14	1.039
746.32	1.040
746.50	1.023
746.69	0.995
746.87	1.018
747.05	1.005
747.23	0.918
747.42	0.907
747.60	0.948
747.78	0.954
747.96	0.991
748.14	0.934
748.33	0.971
748.51	0.964
748.69	0.953
748.87	0.987
749.06	0.987
749.24	0.986
749.42	0.963
749.60	0.934
749.78	0.949
749.97	0.897
750.15	0.891
750.33	0.895
750.51	0.934
750.69	0.942
750.88	0.935
751.06	0.948
751.24	0.987
751.42	0.978
751.60	0.965
751.79	1.052
751.97	1.120
752.15	1.117
752.33	1.068
752.51	1.146
752.69	1.176
752.88	1.137
753.06	1.188
753.24	1.147
753.42	1.208
753.60	1.473
753.78	1.231
753.97	1.255
754.15	1.284
754.33	1.322
754.51	1.135
754.69	1.112
754.87	1.150
755.06	1.060
755.24	1.058
755.42	1.059
755.60	0.951
755.78	0.964
755.96	0.895
756.15	0.897
756.33	0.905
756.51	0.925
756.69	0.908
756.87	0.874
757.05	0.897
757.23	0.877
757.42	0.837
757.60	0.833
757.78	0.821
757.96	0.821
758.14	0.799
758.32	0.783
758.50	0.801
758.69	0.799
758.87	0.787
759.05	0.793
759.23	0.807
759.41	0.810
759.59	0.801
759.77	0.827
759.95	0.858
760.13	0.911
760.32	0.909
760.50	0.902
760.68	0.933
760.86	0.931
761.04	0.894
761.22	0.894
761.40	0.953
761.58	0.951
761.76	0.918
761.95	0.899
762.13	0.857
762.31	0.856
762.49	0.823
762.67	0.841
762.85	0.860
763.03	0.854
763.21	0.831
763.39	0.809
763.57	0.817
763.75	0.808
763.94	0.791
764.12	0.792
764.30	0.818
764.48	0.820
764.66	0.775
764.84	0.771
765.02	0.818
765.20	0.827
765.38	0.802
765.56	0.808
765.74	0.854
765.92	0.853
766.10	0.856
766.28	0.855
766.46	0.890
766.65	0.895
766.83	0.880
767.01	0.858
767.19	0.870
767.37	0.870
767.55	0.851
767.73	0.831
767.91	0.839
768.09	0.828
768.27	0.813
768.45	0.802
768.63	0.809
768.81	0.812
768.99	0.782
769.17	0.810
769.35	0.828
769.53	0.823
769.71	0.801
769.89	0.811
770.07	0.818
770.25	0.796
770.43	0.773
770.61	0.800
770.79	0.811
770.97	0.823
771.15	0.785
771.33	0.790
771.51	0.798
771.69	0.810
771.87	0.815
772.05	0.823
772.24	0.836
772.42	0.842
772.60	0.813
772.78	0.878
772.96	0.915
773.14	0.909
773.32	0.882
773.49	0.890
773.67	0.888
773.85	0.864
774.03	0.847
774.21	0.884
774.39	0.900
774.57	0.929
774.75	0.841
774.93	0.836
775.11	0.865
775.29	0.871
775.47	0.868
775.65	0.880
775.83	0.905
776.01	0.934
776.19	0.873
776.37	0.877
776.55	0.876
776.73	0.873
776.91	0.861
777.09	0.843
777.27	0.844
777.45	0.831
777.63	0.804
777.81	0.800
777.99	0.786
778.17	0.787
778.35	0.761
778.53	0.749
778.71	0.761
778.89	0.748
779.07	0.736
779.24	0.741
779.42	0.743
779.60	0.760
779.78	0.754
779.96	0.760
780.14	0.770
780.32	0.794
780.50	0.773
780.68	0.772
780.86	0.767
781.04	0.787
781.22	0.790
781.40	0.806
781.58	0.801
781.75	0.792
781.93	0.771
782.11	0.770
782.29	0.756
782.47	0.756
782.65	0.740
782.83	0.771
783.01	0.764
783.19	0.753
783.37	0.734
783.55	0.736
783.72	0.759
783.90	0.771
784.08	0.759
784.26	0.770
784.44	0.794
784.62	0.796
784.80	0.756
784.98	0.762
785.16	0.772
785.33	0.788
785.51	0.770
785.69	0.754
785.87	0.754
786.05	0.768
786.23	0.760
786.41	0.758
786.59	0.767
786.77	0.768
786.94	0.753
787.12	0.754
787.30	0.758
787.48	0.754
787.66	0.740
787.84	0.740
788.02	0.729
788.19	0.729
788.37	0.711
788.55	0.711
788.73	0.712
788.91	0.706
789.09	0.689
789.27	0.678
789.44	0.694
789.62	0.701
789.80	0.709
789.98	0.737
790.16	0.722
790.34	0.719
790.51	0.706
790.69	0.727
790.87	0.737
791.05	0.735
791.23	0.725
791.41	0.725
791.58	0.733
791.76	0.710
791.94	0.676
792.12	0.686
792.30	0.691
792.48	0.688
792.65	0.679
792.83	0.686
793.01	0.695
793.19	0.695
793.37	0.676
793.54	0.672
793.72	0.685
793.90	0.682
794.08	0.671
794.26	0.672
794.43	0.683
794.61	0.664
794.79	0.650
794.97	0.648
795.15	0.656
795.32	0.661
795.50	0.649
795.68	0.644
795.86	0.651
796.04	0.652
796.21	0.645
796.39	0.642
796.57	0.661
796.75	0.671
796.92	0.672
797.10	0.676
797.28	0.680
797.46	0.684
797.64	0.683
797.81	0.692
797.99	0.697
798.17	0.700
798.35	0.691
798.52	0.692
798.70	0.687
798.88	0.695
799.06	0.693
799.23	0.696
799.41	0.707
799.59	0.699
799.77	0.685
799.94	0.694
800.12	0.708
800.30	0.730
800.48	0.728
800.65	0.728
800.83	0.718
801.01	0.710
801.19	0.708
801.36	0.704
801.54	0.710
801.72	0.721
801.90	0.704
802.07	0.698
802.25	0.683
802.43	0.664
802.60	0.660
802.78	0.668
802.96	0.675
803.14	0.668
803.31	0.663
803.49	0.662
803.67	0.660
803.84	0.666
804.02	0.656
804.20	0.659
804.38	0.668
804.55	0.664
804.73	0.647
804.91	0.646
805.08	0.661
805.26	0.658
805.44	0.719
805.61	0.723
805.79	0.723
805.97	0.723
806.15	0.713
806.32	0.708
806.50	0.718
806.68	0.718
806.85	0.710
807.03	0.700
807.21	0.719
807.38	0.651
807.56	0.639
807.74	0.650
807.91	0.658
808.09	0.659
808.27	0.679
808.44	0.706
808.62	0.716
808.80	0.714
808.97	0.707
809.15	0.702
809.33	0.724
809.50	0.731
809.68	0.713
809.86	0.723
810.03	0.761
810.21	0.736
810.39	0.716
810.56	0.724
810.74	0.754
810.91	0.836
811.09	0.820
811.27	0.843
811.44	0.853
811.62	0.853
811.80	0.831
811.97	0.796
812.15	0.799
812.33	0.790
812.50	0.774
812.68	0.759
812.85	0.698
813.03	0.700
813.21	0.664
813.38	0.658
813.56	0.664
813.74	0.675
813.91	0.681
814.09	0.715
814.26	0.711
814.44	0.714
814.62	0.702
814.79	0.705
814.97	0.715
815.14	0.718
815.32	0.721
815.50	0.739
815.67	0.745
815.85	0.738
816.02	0.721
816.20	0.729
816.38	0.747
816.55	0.755
816.73	0.756
816.90	0.768
817.08	0.808
817.26	0.815
817.43	0.791
817.61	0.813
817.78	0.838
817.96	0.816
818.13	0.804
818.31	0.805
818.49	0.820
818.66	0.808
818.84	0.789
819.01	0.761
819.19	0.768
819.36	0.768
819.54	0.738
819.71	0.784
819.89	0.800
820.07	0.813
820.24	0.801
820.42	0.805
820.59	0.829
820.77	0.853
820.94	0.841
821.12	0.866
821.29	0.892
821.47	0.891
821.64	0.815
821.82	0.832
822.00	0.830
822.17	0.830
822.35	0.816
822.52	0.819
822.70	0.810
822.87	0.825
823.05	0.796
823.22	0.809
823.40	0.845
823.57	0.872
823.75	0.846
823.92	0.883
824.10	0.909
824.27	0.965
824.45	0.951
824.62	1.032
824.80	1.056
824.97	1.080
825.15	1.055
825.32	1.077
825.50	1.082
825.67	1.103
825.85	1.059
826.02	1.085
826.20	1.122
826.37	1.316
826.55	1.191
826.72	1.543
826.90	1.782
827.07	2.074
827.25	1.754
827.42	-0.000
827.60	-0.000
827.77	-0.000
827.95	-0.000
828.12	-0.000
828.30	-0.000
828.47	-0.000
828.65	1.827
828.82	2.292
829.00	-0.000
829.17	-0.000
829.34	-0.000
829.52	-0.000
829.69	-0.000
829.87	-0.000
830.04	-0.000
830.22	-0.000
830.39	-0.000
830.57	-0.000
830.74	-0.000
830.92	-0.000
831.09	-0.000
831.26	-0.000
831.44	-0.000
831.61	-0.000
831.79	-0.000
831.96	-0.000
832.14	-0.000
832.31	-0.000
832.49	-0.000
832.66	-0.000
832.83	-0.000
833.01	-0.000
833.18	-0.000
833.36	-0.000
833.53	-0.000
833.70	-0.000
833.88	-0.000
834.05	-0.000
834.23	-0.000
834.40	-0.000
834.58	-0.000
834.75	-0.000
834.92	-0.000
835.10	-0.000
835.27	-0.000
835.45	-0.000
835.62	-0.000
835.79	-0.000
835.97	-0.000
836.14	-0.000
836.32	-0.000
836.49	-0.000
836.66	-0.000
836.84	-0.000
837.01	-0.000
837.18	-0.000
837.36	-0.000
837.53	-0.000
837.71	-0.000
837.88	-0.000
838.05	-0.000
838.23	-0.000
838.40	-0.000
838.58	-0.000
838.75	-0.000
838.92	-0.000
839.10	-0.000
839.27	-0.000
839.44	-0.000
839.62	-0.000
839.79	-0.000
839.96	-0.000
840.14	-0.000
840.31	-0.000
840.48	-0.000
840.66	-0.000
840.83	-0.000
841.01	-0.000
841.18	-0.000
841.35	-0.000
841.53	-0.000
841.70	-0.000
841.87	-0.000
842.05	-0.000
842.22	-0.000
842.39	-0.000
842.57	-0.000
842.74	-0.000
842.91	-0.000
843.09	-0.000
843.26	-0.000
843.43	-0.000
843.60	-0.000
843.78	-0.000
843.95	-0.000
844.12	-0.000
844.30	-0.000
844.47	-0.000
844.64	-0.000
844.82	-0.000
844.99	-0.000
845.16	-0.000
845.34	-0.000
845.51	-0.000
845.68	-0.000
845.85	-0.000
846.03	-0.000
846.20	-0.000
846.37	-0.000
846.55	-0.000
846.72	-0.000
846.89	-0.000
847.06	-0.000
847.24	-0.000
847.41	-0.000
847.58	-0.000
847.76	-0.000
847.93	-0.000
848.10	-0.000
848.27	-0.000
848.45	-0.000
848.62	-0.000
848.79	-0.000
848.97	-0.000
849.14	-0.000
849.31	-0.000
849.48	-0.000
849.66	-0.000
849.83	-0.000
850.00	-0.000
850.17	-0.000
850.35	-0.000
850.52	-0.000
850.69	-0.000
850.86	-0.000
851.04	-0.000
851.21	-0.000
851.38	-0.000
851.55	-0.000
851.72	-0.000
851.90	-0.000
852.07	-0.000
852.24	-0.000
852.41	-0.000
852.59	-0.000
852.76	-0.000
852.93	-0.000
853.10	-0.000
853.28	-0.000
853.45	-0.000
853.62	-0.000
853.79	-0.000
853.96	-0.000
854.14	-0.000
854.31	-0.000
854.48	-0.000
854.65	-0.000
854.82	-0.000
855.00	-0.000
855.17	-0.000
855.34	-0.000
855.51	-0.000
855.68	-0.000
855.86	-0.000
856.03	-0.000
856.20	-0.000
856.37	-0.000
856.54	-0.000
856.72	-0.000
856.89	-0.000
857.06	-0.000
857.23	-0.000
857.40	-0.000
857.57	-0.000
857.75	-0.000
857.92	-0.000
858.09	-0.000
858.26	-0.000
858.43	-0.000
858.60	-0.000
858.78	-0.000
858.95	-0.000
859.12	-0.000
859.29	-0.000
859.46	-0.000
859.63	-0.000
859.81	-0.000
859.98	-0.000
860.15	-0.000
860.32	-0.000
860.49	-0.000
860.66	-0.000
860.83	-0.000
861.01	-0.000
861.18	-0.000
861.35	-0.000
861.52	-0.000
861.69	-0.000
861.86	-0.000
862.03	-0.000
862.21	-0.000
862.38	-0.000
862.55	-0.000
862.72	-0.000
862.89	-0.000
863.06	-0.000
863.23	-0.000
863.40	-0.000
863.58	-0.000
863.75	-0.000
863.92	-0.000
864.09	-0.000
864.26	-0.000
864.43	-0.000
864.60	-0.000
864.77	-0.000
864.94	-0.000
865.11	-0.000
865.29	-0.000
865.46	-0.000
865.63	-0.000
865.80	-0.000
865.97	-0.000
866.14	-0.000
866.31	-0.000
866.48	-0.000
866.65	-0.000
866.82	-0.000
866.99	-0.000
867.16	-0.000
867.34	-0.000
867.51	-0.000
867.68	-0.000
867.85	-0.000
868.02	-0.000
868.19	-0.000
868.36	-0.000
868.53	-0.000
868.70	-0.000
868.87	-0.000
869.04	-0.000
869.21	-0.000
869.38	-0.000
869.55	-0.000
869.72	-0.000
869.89	-0.000
870.06	-0.000
870.24	-0.000
870.41	-0.000
870.58	-0.000
870.75	-0.000
870.92	-0.000
871.09	-0.000
871.26	-0.000
871.43	-0.000
871.60	-0.000
871.77	-0.000
871.94	-0.000
872.11	-0.000
872.28	-0.000
872.45	-0.000
872.62	-0.000
872.79	-0.000
872.96	-0.000
873.13	-0.000
873.30	-0.000
873.47	-0.000
873.64	-0.000
873.81	-0.000
873.98	-0.000
874.15	-0.000
874.32	-0.000
874.49	-0.000
874.66	-0.000
874.83	-0.000
875.00	-0.000
875.17	-0.000
875.34	-0.000
875.51	-0.000
875.68	-0.000
875.85	-0.000
876.02	-0.000
876.19	-0.000
876.36	-0.000
876.53	-0.000
876.70	-0.000
876.87	-0.000
877.04	-0.000
877.21	-0.000
877.38	-0.000
877.55	-0.000
877.72	-0.000
877.89	-0.000
878.06	-0.000
878.23	-0.000
878.39	-0.000
878.56	-0.000
878.73	-0.000
878.90	-0.000
879.07	-0.000
879.24	-0.000
879.41	-0.000
879.58	-0.000
879.75	-0.000
879.92	-0.000
880.09	-0.000
880.26	-0.000
880.43	-0.000
880.60	-0.000
880.77	-0.000
880.94	-0.000
881.11	-0.000
881.27	-0.000
881.44	-0.000
881.61	-0.000
881.78	-0.000
881.95	-0.000
882.12	-0.000
882.29	-0.000
882.46	-0.000
882.63	-0.000
882.80	-0.000
882.97	-0.000
883.14	-0.000
883.30	-0.000
883.47	-0.000
883.64	-0.000
883.81	-0.000
883.98	-0.000
884.15	-0.000
884.32	-0.000
884.49	-0.000
884.66	-0.000
884.82	-0.000
884.99	-0.000
885.16	-0.000
885.33	-0.000
885.50	-0.000
885.67	-0.000
885.84	-0.000
886.01	-0.000
886.17	-0.000
886.34	-0.000
886.51	-0.000
886.68	-0.000
886.85	-0.000
887.02	-0.000
887.19	-0.000
887.36	-0.000
887.52	-0.000
887.69	-0.000
887.86	-0.000
888.03	-0.000
888.20	-0.000
888.37	-0.000
888.54	-0.000
888.70	-0.000
888.87	-0.000
889.04	-0.000
889.21	-0.000
889.38	-0.000
889.55	-0.000
889.71	-0.000
889.88	-0.000
890.05	-0.000
890.22	-0.000
890.39	-0.000
>>>>>End Processed Spectral Data<<<<<
