SpectraSuite Data File
++++++++++++++++++++++++++++++++++++
Date: Fri Jun 19 15:28:39 CEST 2015
User: introlabs
Dark Spectrum Present: Yes
Reference Spectrum Present: Yes
Number of Sampled Component Spectra: 1
Spectrometers: USB4H08886
Integration Time (usec): 745692 (USB4H08886)
Spectra Averaged: 5 (USB4H08886)
Boxcar Smoothing: 5 (USB4H08886)
Correct for Electrical Dark: Yes (USB4H08886)
Strobe/Lamp Enabled: No (USB4H08886)
Correct for Detector Non-linearity: Yes (USB4H08886)
Correct for Stray Light: Yes (USB4H08886)
Number of Pixels in Processed Spectrum: 3648
>>>>>Begin Processed Spectral Data<<<<<
178.14	-0.000
178.36	-0.000
178.57	-0.000
178.79	-0.000
179.01	-0.000
179.22	-0.000
179.44	-0.000
179.65	-0.000
179.87	-0.000
180.08	-0.000
180.30	-0.000
180.52	-0.000
180.73	-0.000
180.95	-0.000
181.16	-0.000
181.38	-0.000
181.59	-0.000
181.81	-0.000
182.03	-0.000
182.24	-0.000
182.46	-0.000
182.67	-0.000
182.89	-0.000
183.10	-0.000
183.32	-0.000
183.54	-0.000
183.75	-0.000
183.97	-0.000
184.18	-0.000
184.40	-0.000
184.61	-0.000
184.83	-0.000
185.04	-0.000
185.26	-0.000
185.48	-0.000
185.69	-0.000
185.91	-0.000
186.12	-0.000
186.34	-0.000
186.55	-0.000
186.77	-0.000
186.98	-0.000
187.20	-0.000
187.42	-0.000
187.63	-0.000
187.85	-0.000
188.06	-0.000
188.28	-0.000
188.49	-0.000
188.71	-0.000
188.92	-0.000
189.14	-0.000
189.36	-0.000
189.57	-0.000
189.79	-0.000
190.00	-0.000
190.22	-0.000
190.43	-0.000
190.65	-0.000
190.86	-0.000
191.08	-0.000
191.29	-0.000
191.51	-0.000
191.72	-0.000
191.94	-0.000
192.16	-0.000
192.37	-0.000
192.59	-0.000
192.80	-0.000
193.02	-0.000
193.23	-0.000
193.45	-0.000
193.66	-0.000
193.88	-0.000
194.09	-0.000
194.31	-0.000
194.52	-0.000
194.74	-0.000
194.95	-0.000
195.17	-0.000
195.38	-0.000
195.60	-0.000
195.81	-0.000
196.03	-0.000
196.25	-0.000
196.46	-0.000
196.68	-0.000
196.89	-0.000
197.11	-0.000
197.32	-0.000
197.54	-0.000
197.75	-0.000
197.97	-0.000
198.18	-0.000
198.40	-0.000
198.61	-0.000
198.83	-0.000
199.04	-0.000
199.26	-0.000
199.47	-0.000
199.69	-0.000
199.90	-0.000
200.12	-0.000
200.33	-0.000
200.55	-0.000
200.76	-0.000
200.98	-0.000
201.19	-0.000
201.41	-0.000
201.62	-0.000
201.84	-0.000
202.05	-0.000
202.27	-0.000
202.48	-0.000
202.70	-0.000
202.91	-0.000
203.13	-0.000
203.34	-0.000
203.56	-0.000
203.77	-0.000
203.99	-0.000
204.20	-0.000
204.42	-0.000
204.63	-0.000
204.85	-0.000
205.06	-0.000
205.28	-0.000
205.49	-0.000
205.71	-0.000
205.92	-0.000
206.14	-0.000
206.35	-0.000
206.56	-0.000
206.78	-0.000
206.99	-0.000
207.21	-0.000
207.42	-0.000
207.64	-0.000
207.85	-0.000
208.07	-0.000
208.28	-0.000
208.50	-0.000
208.71	-0.000
208.93	-0.000
209.14	-0.000
209.36	-0.000
209.57	-0.000
209.79	-0.000
210.00	-0.000
210.22	-0.000
210.43	-0.000
210.64	-0.000
210.86	-0.000
211.07	-0.000
211.29	-0.000
211.50	-0.000
211.72	-0.000
211.93	-0.000
212.15	-0.000
212.36	-0.000
212.58	-0.000
212.79	-0.000
213.01	-0.000
213.22	-0.000
213.43	-0.000
213.65	-0.000
213.86	-0.000
214.08	-0.000
214.29	-0.000
214.51	-0.000
214.72	-0.000
214.94	-0.000
215.15	-0.000
215.36	-0.000
215.58	-0.000
215.79	-0.000
216.01	-0.000
216.22	-0.000
216.44	-0.000
216.65	-0.000
216.87	-0.000
217.08	-0.000
217.29	-0.000
217.51	-0.000
217.72	-0.000
217.94	-0.000
218.15	-0.000
218.37	-0.000
218.58	-0.000
218.80	-0.000
219.01	-0.000
219.22	-0.000
219.44	-0.000
219.65	-0.000
219.87	-0.000
220.08	-0.000
220.30	-0.000
220.51	-0.000
220.72	-0.000
220.94	-0.000
221.15	-0.000
221.37	-0.000
221.58	-0.000
221.79	-0.000
222.01	-0.000
222.22	-0.000
222.44	-0.000
222.65	-0.000
222.87	-0.000
223.08	-0.000
223.29	-0.000
223.51	-0.000
223.72	-0.000
223.94	-0.000
224.15	-0.000
224.36	-0.000
224.58	-0.000
224.79	-0.000
225.01	-0.000
225.22	-0.000
225.44	-0.000
225.65	-0.000
225.86	-0.000
226.08	-0.000
226.29	-0.000
226.51	-0.000
226.72	-0.000
226.93	-0.000
227.15	-0.000
227.36	-0.000
227.58	-0.000
227.79	-0.000
228.00	-0.000
228.22	-0.000
228.43	-0.000
228.65	-0.000
228.86	-0.000
229.07	-0.000
229.29	-0.000
229.50	-0.000
229.72	-0.000
229.93	-0.000
230.14	-0.000
230.36	-0.000
230.57	-0.000
230.78	-0.000
231.00	-0.000
231.21	-0.000
231.43	-0.000
231.64	-0.000
231.85	-0.000
232.07	-0.000
232.28	-0.000
232.50	-0.000
232.71	-0.000
232.92	-0.000
233.14	-0.000
233.35	-0.000
233.56	-0.000
233.78	-0.000
233.99	-0.000
234.21	-0.000
234.42	-0.000
234.63	-0.000
234.85	-0.000
235.06	-0.000
235.27	-0.000
235.49	-0.000
235.70	-0.000
235.91	-0.000
236.13	-0.000
236.34	-0.000
236.56	-0.000
236.77	-0.000
236.98	-0.000
237.20	-0.000
237.41	-0.000
237.62	-0.000
237.84	-0.000
238.05	-0.000
238.26	-0.000
238.48	-0.000
238.69	-0.000
238.91	-0.000
239.12	-0.000
239.33	-0.000
239.55	-0.000
239.76	-0.000
239.97	-0.000
240.19	-0.000
240.40	-0.000
240.61	-0.000
240.83	-0.000
241.04	-0.000
241.25	-0.000
241.47	-0.000
241.68	-0.000
241.89	-0.000
242.11	-0.000
242.32	-0.000
242.53	-0.000
242.75	-0.000
242.96	-0.000
243.17	-0.000
243.39	-0.000
243.60	-0.000
243.81	-0.000
244.03	-0.000
244.24	-0.000
244.45	-0.000
244.67	-0.000
244.88	-0.000
245.09	-0.000
245.31	-0.000
245.52	-0.000
245.73	-0.000
245.95	-0.000
246.16	-0.000
246.37	-0.000
246.59	-0.000
246.80	-0.000
247.01	-0.000
247.23	-0.000
247.44	-0.000
247.65	-0.000
247.87	-0.000
248.08	-0.000
248.29	-0.000
248.51	-0.000
248.72	-0.000
248.93	-0.000
249.15	-0.000
249.36	-0.000
249.57	-0.000
249.78	-0.000
250.00	-0.000
250.21	-0.000
250.42	-0.000
250.64	-0.000
250.85	-0.000
251.06	-0.000
251.28	-0.000
251.49	-0.000
251.70	-0.000
251.92	-0.000
252.13	-0.000
252.34	-0.000
252.55	-0.000
252.77	-0.000
252.98	-0.000
253.19	-0.000
253.41	-0.000
253.62	-0.000
253.83	-0.000
254.05	-0.000
254.26	-0.000
254.47	-0.000
254.68	-0.000
254.90	-0.000
255.11	-0.000
255.32	-0.000
255.54	-0.000
255.75	-0.000
255.96	-0.000
256.17	-0.000
256.39	-0.000
256.60	-0.000
256.81	-0.000
257.03	-0.000
257.24	-0.000
257.45	-0.000
257.66	-0.000
257.88	-0.000
258.09	-0.000
258.30	-0.000
258.51	-0.000
258.73	-0.000
258.94	-0.000
259.15	-0.000
259.37	-0.000
259.58	-0.000
259.79	-0.000
260.00	-0.000
260.22	-0.000
260.43	-0.000
260.64	-0.000
260.85	-0.000
261.07	-0.000
261.28	-0.000
261.49	-0.000
261.71	-0.000
261.92	-0.000
262.13	-0.000
262.34	-0.000
262.56	-0.000
262.77	-0.000
262.98	-0.000
263.19	-0.000
263.41	-0.000
263.62	-0.000
263.83	-0.000
264.04	-0.000
264.26	-0.000
264.47	-0.000
264.68	-0.000
264.89	-0.000
265.11	-0.000
265.32	-0.000
265.53	-0.000
265.74	-0.000
265.96	-0.000
266.17	-0.000
266.38	-0.000
266.59	-0.000
266.81	-0.000
267.02	-0.000
267.23	-0.000
267.44	-0.000
267.65	-0.000
267.87	-0.000
268.08	-0.000
268.29	-0.000
268.50	-0.000
268.72	-0.000
268.93	-0.000
269.14	-0.000
269.35	-0.000
269.57	-0.000
269.78	-0.000
269.99	-0.000
270.20	-0.000
270.41	-0.000
270.63	-0.000
270.84	-0.000
271.05	-0.000
271.26	-0.000
271.48	-0.000
271.69	-0.000
271.90	-0.000
272.11	-0.000
272.32	-0.000
272.54	-0.000
272.75	-0.000
272.96	-0.000
273.17	-0.000
273.39	-0.000
273.60	-0.000
273.81	-0.000
274.02	-0.000
274.23	-0.000
274.45	-0.000
274.66	-0.000
274.87	-0.000
275.08	-0.000
275.29	-0.000
275.51	-0.000
275.72	-0.000
275.93	-0.000
276.14	-0.000
276.35	-0.000
276.57	-0.000
276.78	-0.000
276.99	-0.000
277.20	-0.000
277.41	-0.000
277.63	-0.000
277.84	-0.000
278.05	-0.000
278.26	-0.000
278.47	-0.000
278.69	-0.000
278.90	-0.000
279.11	-0.000
279.32	-0.000
279.53	-0.000
279.74	-0.000
279.96	-0.000
280.17	-0.000
280.38	-0.000
280.59	-0.000
280.80	-0.000
281.02	-0.000
281.23	-0.000
281.44	-0.000
281.65	-0.000
281.86	-0.000
282.07	-0.000
282.29	-0.000
282.50	-0.000
282.71	-0.000
282.92	-0.000
283.13	-0.000
283.35	-0.000
283.56	-0.000
283.77	-0.000
283.98	-0.000
284.19	-0.000
284.40	-0.000
284.62	-0.000
284.83	-0.000
285.04	-0.000
285.25	-0.000
285.46	-0.000
285.67	-0.000
285.88	-0.000
286.10	-0.000
286.31	-0.000
286.52	-0.000
286.73	-0.000
286.94	-0.000
287.15	-0.000
287.37	-0.000
287.58	-0.000
287.79	-0.000
288.00	-0.000
288.21	-0.000
288.42	-0.000
288.63	-0.000
288.85	-0.000
289.06	-0.000
289.27	-0.000
289.48	-0.000
289.69	-0.000
289.90	-0.000
290.11	-0.000
290.33	-0.000
290.54	-0.000
290.75	-0.000
290.96	-0.000
291.17	-0.000
291.38	-0.000
291.59	-0.000
291.81	-0.000
292.02	-0.000
292.23	-0.000
292.44	-0.000
292.65	-0.000
292.86	-0.000
293.07	-0.000
293.28	-0.000
293.50	-0.000
293.71	-0.000
293.92	-0.000
294.13	-0.000
294.34	-0.000
294.55	-0.000
294.76	-0.000
294.97	-0.000
295.19	-0.000
295.40	-0.000
295.61	-0.000
295.82	-0.000
296.03	-0.000
296.24	-0.000
296.45	2.048
296.66	1.767
296.87	1.781
297.09	1.830
297.30	2.014
297.51	1.694
297.72	1.669
297.93	1.755
298.14	1.702
298.35	1.660
298.56	1.637
298.77	1.736
298.99	1.703
299.20	1.690
299.41	1.674
299.62	1.622
299.83	1.604
300.04	1.554
300.25	1.543
300.46	1.584
300.67	1.564
300.88	1.516
301.10	1.523
301.31	1.586
301.52	1.533
301.73	1.487
301.94	1.497
302.15	1.507
302.36	1.464
302.57	1.413
302.78	1.420
302.99	1.454
303.20	1.476
303.41	1.392
303.63	1.376
303.84	1.377
304.05	1.372
304.26	1.314
304.47	1.320
304.68	1.317
304.89	1.310
305.10	1.272
305.31	1.261
305.52	1.304
305.73	1.297
305.94	1.262
306.15	1.255
306.37	1.277
306.58	1.286
306.79	1.259
307.00	1.280
307.21	1.315
307.42	1.309
307.63	1.276
307.84	1.241
308.05	1.274
308.26	1.275
308.47	1.256
308.68	1.250
308.89	1.245
309.10	1.244
309.31	1.208
309.52	1.198
309.73	1.210
309.95	1.204
310.16	1.180
310.37	1.170
310.58	1.184
310.79	1.181
311.00	1.180
311.21	1.183
311.42	1.182
311.63	1.176
311.84	1.158
312.05	1.156
312.26	1.179
312.47	1.189
312.68	1.167
312.89	1.151
313.10	1.155
313.31	1.130
313.52	1.133
313.73	1.134
313.94	1.135
314.15	1.120
314.36	1.102
314.57	1.094
314.78	1.082
314.99	1.076
315.21	1.065
315.42	1.072
315.63	1.082
315.84	1.061
316.05	1.049
316.26	1.058
316.47	1.074
316.68	1.069
316.89	1.053
317.10	1.071
317.31	1.076
317.52	1.078
317.73	1.059
317.94	1.059
318.15	1.109
318.36	1.110
318.57	1.092
318.78	1.083
318.99	1.115
319.20	1.114
319.41	1.082
319.62	1.083
319.83	1.096
320.04	1.091
320.25	1.079
320.46	1.037
320.67	1.040
320.88	1.036
321.09	1.021
321.30	1.008
321.51	1.022
321.72	1.021
321.93	1.005
322.14	0.997
322.35	1.020
322.56	1.023
322.77	1.012
322.98	1.022
323.19	1.029
323.40	1.037
323.61	1.017
323.82	1.011
324.03	1.014
324.24	1.011
324.45	1.000
324.66	0.983
324.87	0.977
325.08	0.976
325.29	0.959
325.50	0.952
325.71	0.956
325.92	0.963
326.13	0.950
326.34	0.952
326.55	0.960
326.76	0.959
326.97	0.950
327.18	0.946
327.39	0.971
327.60	0.971
327.80	0.973
328.01	0.970
328.22	0.969
328.43	0.972
328.64	0.960
328.85	0.964
329.06	0.965
329.27	0.963
329.48	0.958
329.69	0.940
329.90	0.950
330.11	0.943
330.32	0.938
330.53	0.931
330.74	0.931
330.95	0.931
331.16	0.915
331.37	0.923
331.58	0.923
331.79	0.923
332.00	0.916
332.21	0.910
332.42	0.914
332.63	0.905
332.83	0.900
333.04	0.902
333.25	0.914
333.46	0.914
333.67	0.901
333.88	0.904
334.09	0.913
334.30	0.909
334.51	0.900
334.72	0.896
334.93	0.899
335.14	0.898
335.35	0.891
335.56	0.887
335.77	0.894
335.98	0.893
336.18	0.888
336.39	0.880
336.60	0.884
336.81	0.882
337.02	0.880
337.23	0.886
337.44	0.889
337.65	0.891
337.86	0.880
338.07	0.875
338.28	0.878
338.49	0.876
338.70	0.868
338.91	0.876
339.11	0.883
339.32	0.880
339.53	0.868
339.74	0.866
339.95	0.862
340.16	0.861
340.37	0.854
340.58	0.852
340.79	0.855
341.00	0.856
341.21	0.845
341.41	0.844
341.62	0.845
341.83	0.846
342.04	0.840
342.25	0.850
342.46	0.853
342.67	0.852
342.88	0.847
343.09	0.847
343.30	0.853
343.50	0.857
343.71	0.847
343.92	0.846
344.13	0.850
344.34	0.850
344.55	0.835
344.76	0.834
344.97	0.838
345.18	0.836
345.38	0.834
345.59	0.828
345.80	0.827
346.01	0.825
346.22	0.822
346.43	0.816
346.64	0.823
346.85	0.822
347.06	0.816
347.26	0.816
347.47	0.819
347.68	0.814
347.89	0.811
348.10	0.805
348.31	0.811
348.52	0.810
348.73	0.807
348.93	0.804
349.14	0.806
349.35	0.806
349.56	0.801
349.77	0.797
349.98	0.803
350.19	0.800
350.39	0.797
350.60	0.792
350.81	0.808
351.02	0.807
351.23	0.803
351.44	0.806
351.65	0.809
351.86	0.807
352.06	0.806
352.27	0.806
352.48	0.807
352.69	0.807
352.90	0.802
353.11	0.788
353.31	0.794
353.52	0.790
353.73	0.782
353.94	0.783
354.15	0.789
354.36	0.787
354.57	0.779
354.77	0.782
354.98	0.781
355.19	0.780
355.40	0.780
355.61	0.785
355.82	0.789
356.02	0.789
356.23	0.782
356.44	0.783
356.65	0.786
356.86	0.785
357.07	0.779
357.27	0.782
357.48	0.784
357.69	0.779
357.90	0.765
358.11	0.762
358.32	0.765
358.52	0.768
358.73	0.758
358.94	0.761
359.15	0.766
359.36	0.766
359.56	0.763
359.77	0.760
359.98	0.767
360.19	0.767
360.40	0.765
360.61	0.765
360.81	0.764
361.02	0.765
361.23	0.757
361.44	0.755
361.65	0.755
361.85	0.755
362.06	0.752
362.27	0.754
362.48	0.753
362.69	0.755
362.89	0.750
363.10	0.751
363.31	0.755
363.52	0.758
363.73	0.754
363.93	0.754
364.14	0.755
364.35	0.757
364.56	0.748
364.77	0.750
364.97	0.752
365.18	0.752
365.39	0.746
365.60	0.743
365.81	0.744
366.01	0.742
366.22	0.739
366.43	0.738
366.64	0.740
366.84	0.744
367.05	0.741
367.26	0.740
367.47	0.741
367.68	0.741
367.88	0.738
368.09	0.735
368.30	0.739
368.51	0.739
368.71	0.738
368.92	0.743
369.13	0.741
369.34	0.740
369.55	0.740
369.75	0.740
369.96	0.747
370.17	0.747
370.38	0.744
370.58	0.743
370.79	0.748
371.00	0.747
371.21	0.739
371.41	0.744
371.62	0.748
371.83	0.744
372.04	0.742
372.24	0.736
372.45	0.738
372.66	0.738
372.87	0.735
373.07	0.732
373.28	0.733
373.49	0.735
373.70	0.727
373.90	0.726
374.11	0.734
374.32	0.733
374.53	0.732
374.73	0.732
374.94	0.734
375.15	0.734
375.36	0.732
375.56	0.741
375.77	0.740
375.98	0.740
376.19	0.738
376.39	0.732
376.60	0.736
376.81	0.737
377.02	0.735
377.22	0.734
377.43	0.734
377.64	0.733
377.84	0.725
378.05	0.731
378.26	0.736
378.47	0.735
378.67	0.732
378.88	0.729
379.09	0.729
379.30	0.730
379.50	0.728
379.71	0.730
379.92	0.733
380.12	0.732
380.33	0.724
380.54	0.721
380.75	0.727
380.95	0.727
381.16	0.725
381.37	0.726
381.57	0.727
381.78	0.727
381.99	0.727
382.20	0.726
382.40	0.728
382.61	0.729
382.82	0.726
383.02	0.719
383.23	0.722
383.44	0.721
383.64	0.720
383.85	0.723
384.06	0.725
384.27	0.723
384.47	0.722
384.68	0.723
384.89	0.728
385.09	0.727
385.30	0.727
385.51	0.726
385.71	0.729
385.92	0.729
386.13	0.728
386.33	0.730
386.54	0.731
386.75	0.730
386.95	0.728
387.16	0.723
387.37	0.726
387.58	0.726
387.78	0.724
387.99	0.722
388.20	0.723
388.40	0.721
388.61	0.717
388.82	0.721
389.02	0.723
389.23	0.722
389.44	0.721
389.64	0.721
389.85	0.731
390.06	0.731
390.26	0.733
390.47	0.733
390.68	0.735
390.88	0.733
391.09	0.729
391.30	0.729
391.50	0.729
391.71	0.729
391.92	0.726
392.12	0.719
392.33	0.720
392.53	0.719
392.74	0.719
392.95	0.718
393.15	0.721
393.36	0.723
393.57	0.720
393.77	0.724
393.98	0.726
394.19	0.725
394.39	0.725
394.60	0.726
394.81	0.727
395.01	0.726
395.22	0.724
395.43	0.725
395.63	0.730
395.84	0.731
396.04	0.727
396.25	0.729
396.46	0.731
396.66	0.729
396.87	0.727
397.08	0.725
397.28	0.726
397.49	0.727
397.69	0.724
397.90	0.719
398.11	0.719
398.31	0.720
398.52	0.717
398.73	0.719
398.93	0.718
399.14	0.717
399.34	0.716
399.55	0.717
399.76	0.718
399.96	0.719
400.17	0.717
400.37	0.716
400.58	0.723
400.79	0.724
400.99	0.721
401.20	0.727
401.41	0.730
401.61	0.731
401.82	0.736
402.02	0.736
402.23	0.737
402.44	0.737
402.64	0.737
402.85	0.732
403.05	0.731
403.26	0.730
403.47	0.724
403.67	0.723
403.88	0.724
404.08	0.718
404.29	0.716
404.50	0.717
404.70	0.717
404.91	0.716
405.11	0.713
405.32	0.713
405.52	0.713
405.73	0.713
405.94	0.711
406.14	0.714
406.35	0.716
406.55	0.715
406.76	0.713
406.97	0.713
407.17	0.716
407.38	0.716
407.58	0.714
407.79	0.716
407.99	0.719
408.20	0.720
408.41	0.716
408.61	0.715
408.82	0.716
409.02	0.716
409.23	0.714
409.43	0.713
409.64	0.715
409.84	0.714
410.05	0.712
410.26	0.710
410.46	0.708
410.67	0.708
410.87	0.709
411.08	0.710
411.28	0.712
411.49	0.713
411.69	0.711
411.90	0.712
412.11	0.714
412.31	0.715
412.52	0.714
412.72	0.715
412.93	0.715
413.13	0.715
413.34	0.711
413.54	0.713
413.75	0.715
413.95	0.714
414.16	0.710
414.37	0.712
414.57	0.713
414.78	0.715
414.98	0.713
415.19	0.715
415.39	0.713
415.60	0.714
415.80	0.713
416.01	0.711
416.21	0.713
416.42	0.714
416.62	0.710
416.83	0.710
417.03	0.709
417.24	0.709
417.44	0.706
417.65	0.705
417.86	0.706
418.06	0.705
418.27	0.703
418.47	0.704
418.68	0.705
418.88	0.705
419.09	0.703
419.29	0.705
419.50	0.706
419.70	0.705
419.91	0.704
420.11	0.701
420.32	0.703
420.52	0.702
420.73	0.702
420.93	0.702
421.14	0.704
421.34	0.703
421.55	0.700
421.75	0.699
421.96	0.700
422.16	0.701
422.37	0.700
422.57	0.697
422.78	0.699
422.98	0.696
423.19	0.693
423.39	0.691
423.60	0.695
423.80	0.696
424.01	0.695
424.21	0.697
424.42	0.698
424.62	0.699
424.83	0.698
425.03	0.697
425.23	0.699
425.44	0.699
425.64	0.699
425.85	0.698
426.05	0.699
426.26	0.699
426.46	0.695
426.67	0.694
426.87	0.699
427.08	0.699
427.28	0.697
427.49	0.698
427.69	0.699
427.90	0.699
428.10	0.696
428.31	0.696
428.51	0.697
428.71	0.696
428.92	0.698
429.12	0.695
429.33	0.695
429.53	0.699
429.74	0.703
429.94	0.703
430.15	0.702
430.35	0.701
430.56	0.698
430.76	0.698
430.96	0.698
431.17	0.695
431.37	0.693
431.58	0.691
431.78	0.688
431.99	0.680
432.19	0.682
432.40	0.684
432.60	0.685
432.80	0.688
433.01	0.686
433.21	0.686
433.42	0.688
433.62	0.689
433.83	0.689
434.03	0.691
434.23	0.694
434.44	0.693
434.64	0.691
434.85	0.696
435.05	0.697
435.26	0.697
435.46	0.695
435.66	0.695
435.87	0.695
436.07	0.695
436.28	0.690
436.48	0.688
436.69	0.687
436.89	0.687
437.09	0.681
437.30	0.680
437.50	0.679
437.71	0.690
437.91	0.689
438.11	0.690
438.32	0.694
438.52	0.694
438.73	0.693
438.93	0.691
439.13	0.691
439.34	0.694
439.54	0.692
439.75	0.693
439.95	0.682
440.15	0.687
440.36	0.686
440.56	0.683
440.77	0.683
440.97	0.683
441.17	0.682
441.38	0.683
441.58	0.680
441.79	0.680
441.99	0.678
442.19	0.678
442.40	0.675
442.60	0.675
442.81	0.673
443.01	0.673
443.21	0.673
443.42	0.673
443.62	0.671
443.82	0.671
444.03	0.672
444.23	0.672
444.44	0.672
444.64	0.670
444.84	0.671
445.05	0.671
445.25	0.669
445.45	0.669
445.66	0.671
445.86	0.670
446.06	0.672
446.27	0.672
446.47	0.675
446.68	0.673
446.88	0.672
447.08	0.672
447.29	0.673
447.49	0.673
447.69	0.673
447.90	0.671
448.10	0.675
448.30	0.672
448.51	0.673
448.71	0.671
448.91	0.673
449.12	0.672
449.32	0.674
449.52	0.673
449.73	0.676
449.93	0.675
450.14	0.676
450.34	0.675
450.54	0.677
450.75	0.674
450.95	0.673
451.15	0.672
451.36	0.675
451.56	0.671
451.76	0.670
451.97	0.668
452.17	0.668
452.37	0.666
452.58	0.663
452.78	0.663
452.98	0.664
453.19	0.664
453.39	0.665
453.59	0.663
453.79	0.665
454.00	0.665
454.20	0.664
454.40	0.664
454.61	0.667
454.81	0.667
455.01	0.666
455.22	0.667
455.42	0.669
455.62	0.667
455.83	0.667
456.03	0.669
456.23	0.670
456.44	0.671
456.64	0.670
456.84	0.670
457.04	0.670
457.25	0.669
457.45	0.666
457.65	0.665
457.86	0.665
458.06	0.664
458.26	0.660
458.47	0.659
458.67	0.660
458.87	0.661
459.07	0.658
459.28	0.660
459.48	0.662
459.68	0.662
459.89	0.661
460.09	0.660
460.29	0.661
460.49	0.662
460.70	0.661
460.90	0.661
461.10	0.661
461.31	0.660
461.51	0.657
461.71	0.659
461.91	0.661
462.12	0.660
462.32	0.660
462.52	0.660
462.72	0.663
462.93	0.662
463.13	0.661
463.33	0.662
463.53	0.664
463.74	0.664
463.94	0.659
464.14	0.660
464.35	0.662
464.55	0.662
464.75	0.660
464.95	0.658
465.16	0.660
465.36	0.659
465.56	0.658
465.76	0.657
465.97	0.657
466.17	0.658
466.37	0.655
466.57	0.656
466.78	0.656
466.98	0.656
467.18	0.654
467.38	0.653
467.59	0.654
467.79	0.656
467.99	0.654
468.19	0.656
468.39	0.658
468.60	0.658
468.80	0.657
469.00	0.658
469.20	0.659
469.41	0.659
469.61	0.659
469.81	0.660
470.01	0.659
470.22	0.660
470.42	0.658
470.62	0.656
470.82	0.657
471.02	0.656
471.23	0.654
471.43	0.655
471.63	0.658
471.83	0.657
472.04	0.656
472.24	0.655
472.44	0.660
472.64	0.660
472.84	0.658
473.05	0.658
473.25	0.661
473.45	0.660
473.65	0.658
473.85	0.658
474.06	0.659
474.26	0.658
474.46	0.659
474.66	0.656
474.86	0.656
475.07	0.656
475.27	0.654
475.47	0.652
475.67	0.652
475.87	0.654
476.08	0.651
476.28	0.652
476.48	0.653
476.68	0.652
476.88	0.650
477.09	0.650
477.29	0.652
477.49	0.652
477.69	0.652
477.89	0.652
478.09	0.651
478.30	0.654
478.50	0.651
478.70	0.651
478.90	0.652
479.10	0.654
479.31	0.655
479.51	0.654
479.71	0.654
479.91	0.654
480.11	0.653
480.31	0.654
480.52	0.653
480.72	0.653
480.92	0.651
481.12	0.650
481.32	0.648
481.52	0.646
481.72	0.646
481.93	0.649
482.13	0.649
482.33	0.648
482.53	0.646
482.73	0.647
482.93	0.648
483.14	0.648
483.34	0.648
483.54	0.649
483.74	0.648
483.94	0.647
484.14	0.643
484.34	0.643
484.55	0.644
484.75	0.644
484.95	0.642
485.15	0.642
485.35	0.642
485.55	0.641
485.75	0.639
485.96	0.639
486.16	0.641
486.36	0.640
486.56	0.639
486.76	0.639
486.96	0.639
487.16	0.638
487.36	0.636
487.57	0.636
487.77	0.637
487.97	0.637
488.17	0.635
488.37	0.634
488.57	0.634
488.77	0.634
488.97	0.633
489.18	0.632
489.38	0.635
489.58	0.636
489.78	0.635
489.98	0.635
490.18	0.635
490.38	0.636
490.58	0.635
490.78	0.636
490.98	0.637
491.19	0.637
491.39	0.636
491.59	0.635
491.79	0.638
491.99	0.638
492.19	0.638
492.39	0.641
492.59	0.640
492.79	0.643
492.99	0.643
493.20	0.643
493.40	0.643
493.60	0.645
493.80	0.644
494.00	0.641
494.20	0.642
494.40	0.642
494.60	0.640
494.80	0.644
495.00	0.643
495.20	0.641
495.40	0.640
495.61	0.642
495.81	0.641
496.01	0.644
496.21	0.645
496.41	0.644
496.61	0.645
496.81	0.643
497.01	0.638
497.21	0.638
497.41	0.638
497.61	0.638
497.81	0.635
498.01	0.636
498.21	0.634
498.41	0.632
498.61	0.631
498.82	0.632
499.02	0.635
499.22	0.635
499.42	0.635
499.62	0.636
499.82	0.637
500.02	0.638
500.22	0.636
500.42	0.638
500.62	0.639
500.82	0.639
501.02	0.638
501.22	0.638
501.42	0.638
501.62	0.640
501.82	0.639
502.02	0.640
502.22	0.639
502.42	0.641
502.62	0.638
502.82	0.639
503.02	0.639
503.22	0.638
503.42	0.637
503.63	0.636
503.83	0.634
504.03	0.633
504.23	0.632
504.43	0.633
504.63	0.634
504.83	0.634
505.03	0.633
505.23	0.635
505.43	0.636
505.63	0.637
505.83	0.637
506.03	0.638
506.23	0.640
506.43	0.640
506.63	0.639
506.83	0.638
507.03	0.640
507.23	0.640
507.43	0.637
507.63	0.638
507.83	0.638
508.03	0.638
508.23	0.637
508.43	0.636
508.63	0.637
508.83	0.638
509.03	0.639
509.23	0.638
509.43	0.639
509.63	0.639
509.83	0.638
510.03	0.641
510.23	0.642
510.43	0.643
510.63	0.643
510.83	0.643
511.03	0.644
511.23	0.642
511.43	0.642
511.63	0.643
511.83	0.646
512.03	0.645
512.22	0.642
512.42	0.642
512.62	0.642
512.82	0.642
513.02	0.642
513.22	0.641
513.42	0.643
513.62	0.646
513.82	0.644
514.02	0.643
514.22	0.645
514.42	0.645
514.62	0.645
514.82	0.645
515.02	0.646
515.22	0.650
515.42	0.648
515.62	0.650
515.82	0.649
516.02	0.650
516.22	0.650
516.42	0.652
516.62	0.654
516.82	0.655
517.01	0.654
517.21	0.654
517.41	0.656
517.61	0.657
517.81	0.653
518.01	0.652
518.21	0.651
518.41	0.651
518.61	0.649
518.81	0.650
519.01	0.650
519.21	0.649
519.41	0.648
519.61	0.643
519.81	0.646
520.00	0.646
520.20	0.647
520.40	0.650
520.60	0.650
520.80	0.649
521.00	0.649
521.20	0.650
521.40	0.655
521.60	0.656
521.80	0.655
522.00	0.655
522.20	0.657
522.39	0.656
522.59	0.653
522.79	0.656
522.99	0.657
523.19	0.656
523.39	0.654
523.59	0.652
523.79	0.654
523.99	0.656
524.19	0.655
524.38	0.654
524.58	0.655
524.78	0.656
524.98	0.654
525.18	0.657
525.38	0.658
525.58	0.659
525.78	0.657
525.98	0.656
526.18	0.656
526.37	0.656
526.57	0.658
526.77	0.658
526.97	0.658
527.17	0.658
527.37	0.654
527.57	0.656
527.77	0.657
527.96	0.657
528.16	0.656
528.36	0.657
528.56	0.658
528.76	0.656
528.96	0.655
529.16	0.656
529.36	0.659
529.55	0.660
529.75	0.657
529.95	0.657
530.15	0.658
530.35	0.660
530.55	0.658
530.75	0.658
530.94	0.660
531.14	0.660
531.34	0.659
531.54	0.657
531.74	0.660
531.94	0.663
532.13	0.661
532.33	0.663
532.53	0.662
532.73	0.662
532.93	0.660
533.13	0.662
533.33	0.661
533.52	0.662
533.72	0.666
533.92	0.663
534.12	0.661
534.32	0.661
534.52	0.659
534.71	0.661
534.91	0.663
535.11	0.665
535.31	0.663
535.51	0.665
535.71	0.666
535.90	0.663
536.10	0.664
536.30	0.666
536.50	0.667
536.70	0.667
536.89	0.665
537.09	0.664
537.29	0.666
537.49	0.667
537.69	0.665
537.89	0.666
538.08	0.665
538.28	0.664
538.48	0.664
538.68	0.666
538.88	0.668
539.07	0.667
539.27	0.666
539.47	0.665
539.67	0.665
539.87	0.666
540.06	0.664
540.26	0.664
540.46	0.666
540.66	0.663
540.86	0.661
541.05	0.662
541.25	0.663
541.45	0.663
541.65	0.662
541.84	0.663
542.04	0.664
542.24	0.665
542.44	0.665
542.64	0.667
542.83	0.669
543.03	0.670
543.23	0.667
543.43	0.668
543.62	0.670
543.82	0.670
544.02	0.669
544.22	0.669
544.42	0.672
544.61	0.673
544.81	0.669
545.01	0.668
545.21	0.670
545.40	0.670
545.60	0.668
545.80	0.671
546.00	0.672
546.19	0.671
546.39	0.670
546.59	0.667
546.79	0.669
546.98	0.669
547.18	0.669
547.38	0.669
547.58	0.672
547.77	0.672
547.97	0.668
548.17	0.669
548.37	0.669
548.56	0.669
548.76	0.669
548.96	0.670
549.16	0.672
549.35	0.672
549.55	0.669
549.75	0.670
549.95	0.673
550.14	0.674
550.34	0.672
550.54	0.677
550.73	0.680
550.93	0.681
551.13	0.678
551.33	0.677
551.52	0.677
551.72	0.678
551.92	0.677
552.12	0.677
552.31	0.678
552.51	0.679
552.71	0.674
552.90	0.675
553.10	0.676
553.30	0.675
553.50	0.674
553.69	0.676
553.89	0.676
554.09	0.676
554.28	0.673
554.48	0.674
554.68	0.675
554.87	0.674
555.07	0.671
555.27	0.671
555.47	0.672
555.66	0.673
555.86	0.671
556.06	0.672
556.25	0.674
556.45	0.682
556.65	0.680
556.84	0.684
557.04	0.687
557.24	0.688
557.43	0.689
557.63	0.692
557.83	0.694
558.02	0.695
558.22	0.700
558.42	0.700
558.61	0.693
558.81	0.693
559.01	0.689
559.21	0.688
559.40	0.689
559.60	0.689
559.80	0.686
559.99	0.686
560.19	0.689
560.39	0.683
560.58	0.681
560.78	0.681
560.97	0.684
561.17	0.683
561.37	0.681
561.56	0.682
561.76	0.683
561.96	0.682
562.15	0.680
562.35	0.681
562.55	0.683
562.74	0.682
562.94	0.682
563.14	0.680
563.33	0.680
563.53	0.681
563.73	0.679
563.92	0.680
564.12	0.683
564.31	0.685
564.51	0.683
564.71	0.684
564.90	0.687
565.10	0.688
565.30	0.690
565.49	0.692
565.69	0.694
565.89	0.694
566.08	0.692
566.28	0.694
566.47	0.696
566.67	0.694
566.87	0.691
567.06	0.693
567.26	0.699
567.46	0.695
567.65	0.695
567.85	0.696
568.04	0.699
568.24	0.698
568.44	0.694
568.63	0.693
568.83	0.695
569.02	0.694
569.22	0.689
569.42	0.685
569.61	0.687
569.81	0.686
570.00	0.684
570.20	0.685
570.40	0.686
570.59	0.686
570.79	0.684
570.98	0.682
571.18	0.683
571.38	0.683
571.57	0.680
571.77	0.678
571.96	0.681
572.16	0.679
572.35	0.674
572.55	0.675
572.75	0.673
572.94	0.672
573.14	0.671
573.33	0.672
573.53	0.672
573.73	0.672
573.92	0.670
574.12	0.668
574.31	0.671
574.51	0.671
574.70	0.668
574.90	0.670
575.09	0.673
575.29	0.673
575.49	0.670
575.68	0.672
575.88	0.672
576.07	0.674
576.27	0.672
576.46	0.670
576.66	0.669
576.86	0.669
577.05	0.667
577.25	0.665
577.44	0.667
577.64	0.666
577.83	0.664
578.03	0.666
578.22	0.666
578.42	0.665
578.61	0.663
578.81	0.663
579.00	0.663
579.20	0.663
579.40	0.662
579.59	0.660
579.79	0.660
579.98	0.660
580.18	0.659
580.37	0.659
580.57	0.661
580.76	0.666
580.96	0.665
581.15	0.665
581.35	0.667
581.54	0.667
581.74	0.667
581.93	0.668
582.13	0.669
582.32	0.666
582.52	0.664
582.71	0.663
582.91	0.659
583.10	0.658
583.30	0.657
583.49	0.657
583.69	0.660
583.88	0.661
584.08	0.660
584.27	0.662
584.47	0.665
584.66	0.666
584.86	0.666
585.05	0.668
585.25	0.670
585.44	0.671
585.64	0.669
585.83	0.666
586.03	0.666
586.22	0.665
586.42	0.661
586.61	0.662
586.81	0.664
587.00	0.663
587.20	0.660
587.39	0.661
587.59	0.662
587.78	0.663
587.98	0.664
588.17	0.664
588.37	0.666
588.56	0.668
588.76	0.665
588.95	0.665
589.15	0.669
589.34	0.671
589.54	0.670
589.73	0.671
589.92	0.675
590.12	0.675
590.31	0.674
590.51	0.680
590.70	0.681
590.90	0.682
591.09	0.680
591.29	0.679
591.48	0.679
591.68	0.680
591.87	0.678
592.06	0.678
592.26	0.680
592.45	0.679
592.65	0.673
592.84	0.672
593.04	0.674
593.23	0.676
593.43	0.674
593.62	0.674
593.81	0.673
594.01	0.672
594.20	0.669
594.40	0.668
594.59	0.669
594.79	0.671
594.98	0.669
595.17	0.668
595.37	0.669
595.56	0.672
595.76	0.671
595.95	0.673
596.14	0.677
596.34	0.678
596.53	0.677
596.73	0.679
596.92	0.680
597.12	0.683
597.31	0.683
597.50	0.682
597.70	0.683
597.89	0.682
598.09	0.679
598.28	0.680
598.47	0.682
598.67	0.680
598.86	0.677
599.06	0.678
599.25	0.678
599.44	0.676
599.64	0.673
599.83	0.671
600.03	0.673
600.22	0.674
600.41	0.673
600.61	0.671
600.80	0.674
601.00	0.674
601.19	0.670
601.38	0.669
601.58	0.672
601.77	0.673
601.96	0.676
602.16	0.676
602.35	0.685
602.55	0.682
602.74	0.683
602.93	0.685
603.13	0.690
603.32	0.692
603.51	0.691
603.71	0.695
603.90	0.697
604.09	0.697
604.29	0.694
604.48	0.689
604.68	0.690
604.87	0.688
605.06	0.685
605.26	0.682
605.45	0.682
605.64	0.681
605.84	0.676
606.03	0.674
606.22	0.672
606.42	0.671
606.61	0.668
606.80	0.668
607.00	0.670
607.19	0.670
607.38	0.669
607.58	0.671
607.77	0.673
607.96	0.673
608.16	0.672
608.35	0.676
608.54	0.679
608.74	0.682
608.93	0.687
609.12	0.689
609.32	0.692
609.51	0.696
609.70	0.694
609.90	0.696
610.09	0.699
610.28	0.705
610.48	0.700
610.67	0.701
610.86	0.702
611.06	0.697
611.25	0.695
611.44	0.696
611.64	0.695
611.83	0.699
612.02	0.695
612.21	0.695
612.41	0.693
612.60	0.692
612.79	0.688
612.99	0.688
613.18	0.690
613.37	0.687
613.57	0.685
613.76	0.686
613.95	0.684
614.14	0.684
614.34	0.681
614.53	0.682
614.72	0.685
614.92	0.685
615.11	0.682
615.30	0.679
615.49	0.680
615.69	0.682
615.88	0.678
616.07	0.679
616.26	0.681
616.46	0.681
616.65	0.678
616.84	0.677
617.04	0.678
617.23	0.681
617.42	0.682
617.61	0.685
617.81	0.686
618.00	0.687
618.19	0.686
618.38	0.689
618.58	0.693
618.77	0.695
618.96	0.694
619.15	0.695
619.35	0.696
619.54	0.697
619.73	0.693
619.92	0.695
620.12	0.700
620.31	0.701
620.50	0.696
620.69	0.696
620.89	0.699
621.08	0.699
621.27	0.700
621.46	0.699
621.66	0.703
621.85	0.703
622.04	0.700
622.23	0.700
622.43	0.700
622.62	0.700
622.81	0.699
623.00	0.699
623.19	0.703
623.39	0.701
623.58	0.699
623.77	0.697
623.96	0.700
624.16	0.700
624.35	0.694
624.54	0.698
624.73	0.701
624.92	0.699
625.12	0.696
625.31	0.696
625.50	0.698
625.69	0.698
625.88	0.695
626.08	0.695
626.27	0.696
626.46	0.697
626.65	0.694
626.84	0.693
627.04	0.698
627.23	0.699
627.42	0.695
627.61	0.697
627.80	0.700
628.00	0.700
628.19	0.699
628.38	0.702
628.57	0.705
628.76	0.703
628.96	0.701
629.15	0.702
629.34	0.704
629.53	0.704
629.72	0.698
629.91	0.699
630.11	0.704
630.30	0.704
630.49	0.706
630.68	0.706
630.87	0.710
631.06	0.713
631.26	0.708
631.45	0.709
631.64	0.718
631.83	0.721
632.02	0.718
632.21	0.717
632.41	0.723
632.60	0.718
632.79	0.718
632.98	0.719
633.17	0.720
633.36	0.721
633.55	0.719
633.75	0.714
633.94	0.716
634.13	0.717
634.32	0.714
634.51	0.708
634.70	0.709
634.89	0.709
635.09	0.705
635.28	0.705
635.47	0.705
635.66	0.707
635.85	0.703
636.04	0.704
636.23	0.707
636.43	0.710
636.62	0.709
636.81	0.709
637.00	0.710
637.19	0.713
637.38	0.710
637.57	0.710
637.76	0.712
637.95	0.713
638.15	0.709
638.34	0.706
638.53	0.708
638.72	0.709
638.91	0.707
639.10	0.705
639.29	0.705
639.48	0.706
639.67	0.706
639.87	0.705
640.06	0.711
640.25	0.711
640.44	0.712
640.63	0.712
640.82	0.714
641.01	0.714
641.20	0.714
641.39	0.714
641.58	0.716
641.78	0.714
641.97	0.711
642.16	0.724
642.35	0.725
642.54	0.723
642.73	0.718
642.92	0.717
643.11	0.720
643.30	0.720
643.49	0.717
643.68	0.719
643.87	0.720
644.06	0.720
644.25	0.701
644.45	0.704
644.64	0.705
644.83	0.706
645.02	0.704
645.21	0.703
645.40	0.704
645.59	0.704
645.78	0.700
645.97	0.702
646.16	0.702
646.35	0.701
646.54	0.699
646.73	0.701
646.92	0.702
647.11	0.701
647.30	0.697
647.49	0.699
647.68	0.697
647.88	0.696
648.07	0.689
648.26	0.693
648.45	0.695
648.64	0.691
648.83	0.689
649.02	0.692
649.21	0.702
649.40	0.701
649.59	0.696
649.78	0.697
649.97	0.710
650.16	0.710
650.35	0.704
650.54	0.707
650.73	0.715
650.92	0.710
651.11	0.703
651.30	0.700
651.49	0.704
651.68	0.705
651.87	0.703
652.06	0.693
652.25	0.697
652.44	0.700
652.63	0.699
652.82	0.701
653.01	0.702
653.20	0.702
653.39	0.691
653.58	0.689
653.77	0.689
653.96	0.684
654.15	0.676
654.34	0.674
654.53	0.669
654.72	0.662
654.91	0.651
655.10	0.647
655.29	0.644
655.48	0.642
655.67	0.637
655.86	0.634
656.05	0.633
656.24	0.632
656.43	0.627
656.62	0.626
656.81	0.625
657.00	0.622
657.19	0.618
657.38	0.617
657.57	0.616
657.76	0.617
657.95	0.615
658.14	0.617
658.33	0.619
658.51	0.624
658.70	0.624
658.89	0.626
659.08	0.635
659.27	0.644
659.46	0.646
659.65	0.653
659.84	0.657
660.03	0.660
660.22	0.661
660.41	0.665
660.60	0.664
660.79	0.667
660.98	0.674
661.17	0.672
661.36	0.671
661.55	0.671
661.74	0.670
661.92	0.672
662.11	0.674
662.30	0.673
662.49	0.666
662.68	0.666
662.87	0.668
663.06	0.662
663.25	0.663
663.44	0.663
663.63	0.664
663.82	0.662
664.01	0.658
664.20	0.656
664.38	0.657
664.57	0.658
664.76	0.658
664.95	0.658
665.14	0.663
665.33	0.659
665.52	0.666
665.71	0.670
665.90	0.670
666.09	0.672
666.28	0.670
666.46	0.669
666.65	0.669
666.84	0.667
667.03	0.662
667.22	0.659
667.41	0.662
667.60	0.652
667.79	0.645
667.98	0.647
668.16	0.647
668.35	0.647
668.54	0.643
668.73	0.643
668.92	0.644
669.11	0.643
669.30	0.638
669.49	0.635
669.67	0.637
669.86	0.639
670.05	0.636
670.24	0.634
670.43	0.632
670.62	0.631
670.81	0.626
671.00	0.627
671.18	0.626
671.37	0.626
671.56	0.624
671.75	0.624
671.94	0.620
672.13	0.618
672.32	0.614
672.50	0.615
672.69	0.614
672.88	0.615
673.07	0.611
673.26	0.613
673.45	0.613
673.63	0.613
673.82	0.609
674.01	0.611
674.20	0.610
674.39	0.610
674.58	0.608
674.76	0.608
674.95	0.607
675.14	0.607
675.33	0.603
675.52	0.601
675.71	0.601
675.89	0.600
676.08	0.596
676.27	0.596
676.46	0.596
676.65	0.596
676.84	0.596
677.02	0.597
677.21	0.599
677.40	0.598
677.59	0.596
677.78	0.596
677.96	0.599
678.15	0.599
678.34	0.597
678.53	0.598
678.72	0.598
678.90	0.594
679.09	0.591
679.28	0.588
679.47	0.588
679.66	0.587
679.84	0.584
680.03	0.581
680.22	0.579
680.41	0.581
680.60	0.577
680.78	0.577
680.97	0.579
681.16	0.579
681.35	0.578
681.53	0.577
681.72	0.578
681.91	0.580
682.10	0.578
682.29	0.581
682.47	0.578
682.66	0.577
682.85	0.576
683.04	0.573
683.22	0.574
683.41	0.575
683.60	0.574
683.79	0.574
683.97	0.574
684.16	0.573
684.35	0.569
684.54	0.571
684.72	0.572
684.91	0.573
685.10	0.572
685.29	0.572
685.47	0.569
685.66	0.568
685.85	0.566
686.04	0.565
686.22	0.567
686.41	0.569
686.60	0.567
686.79	0.569
686.97	0.570
687.16	0.571
687.35	0.569
687.54	0.572
687.72	0.576
687.91	0.576
688.10	0.577
688.29	0.577
688.47	0.575
688.66	0.574
688.85	0.571
689.03	0.569
689.22	0.573
689.41	0.574
689.60	0.569
689.78	0.567
689.97	0.567
690.16	0.564
690.34	0.561
690.53	0.561
690.72	0.561
690.91	0.559
691.09	0.557
691.28	0.550
691.47	0.548
691.65	0.547
691.84	0.544
692.03	0.543
692.21	0.541
692.40	0.540
692.59	0.538
692.77	0.537
692.96	0.538
693.15	0.538
693.34	0.536
693.52	0.536
693.71	0.537
693.90	0.538
694.08	0.539
694.27	0.540
694.46	0.549
694.64	0.550
694.83	0.549
695.02	0.548
695.20	0.548
695.39	0.548
695.58	0.548
695.76	0.549
695.95	0.548
696.14	0.547
696.32	0.545
696.51	0.536
696.70	0.535
696.88	0.537
697.07	0.535
697.26	0.537
697.44	0.538
697.63	0.537
697.81	0.535
698.00	0.535
698.19	0.534
698.37	0.533
698.56	0.533
698.75	0.533
698.93	0.533
699.12	0.532
699.31	0.531
699.49	0.531
699.68	0.532
699.87	0.534
700.05	0.534
700.24	0.533
700.42	0.535
700.61	0.535
700.80	0.533
700.98	0.534
701.17	0.534
701.36	0.533
701.54	0.532
701.73	0.533
701.91	0.531
702.10	0.530
702.29	0.529
702.47	0.528
702.66	0.529
702.84	0.530
703.03	0.528
703.22	0.529
703.40	0.529
703.59	0.530
703.77	0.530
703.96	0.530
704.15	0.530
704.33	0.529
704.52	0.529
704.70	0.529
704.89	0.528
705.08	0.527
705.26	0.524
705.45	0.524
705.63	0.524
705.82	0.521
706.00	0.519
706.19	0.520
706.38	0.520
706.56	0.519
706.75	0.517
706.93	0.516
707.12	0.517
707.30	0.517
707.49	0.515
707.68	0.513
707.86	0.512
708.05	0.512
708.23	0.509
708.42	0.510
708.60	0.512
708.79	0.512
708.98	0.511
709.16	0.510
709.35	0.512
709.53	0.516
709.72	0.515
709.90	0.516
710.09	0.518
710.27	0.520
710.46	0.523
710.64	0.521
710.83	0.522
711.02	0.524
711.20	0.524
711.39	0.522
711.57	0.520
711.76	0.521
711.94	0.519
712.13	0.520
712.31	0.520
712.50	0.516
712.68	0.514
712.87	0.514
713.05	0.514
713.24	0.515
713.42	0.514
713.61	0.515
713.79	0.516
713.98	0.516
714.16	0.516
714.35	0.516
714.54	0.517
714.72	0.518
714.91	0.516
715.09	0.522
715.28	0.525
715.46	0.525
715.65	0.522
715.83	0.522
716.02	0.524
716.20	0.521
716.39	0.520
716.57	0.521
716.76	0.523
716.94	0.523
717.12	0.516
717.31	0.516
717.49	0.519
717.68	0.521
717.86	0.520
718.05	0.522
718.23	0.525
718.42	0.527
718.60	0.528
718.79	0.535
718.97	0.537
719.16	0.538
719.34	0.535
719.53	0.535
719.71	0.534
719.90	0.536
720.08	0.533
720.27	0.534
720.45	0.533
720.63	0.532
720.82	0.526
721.00	0.529
721.19	0.532
721.37	0.532
721.56	0.532
721.74	0.535
721.93	0.543
722.11	0.549
722.30	0.548
722.48	0.552
722.66	0.554
722.85	0.554
723.03	0.554
723.22	0.552
723.40	0.556
723.59	0.556
723.77	0.560
723.95	0.555
724.14	0.557
724.32	0.559
724.51	0.559
724.69	0.560
724.88	0.560
725.06	0.558
725.24	0.560
725.43	0.561
725.61	0.563
725.80	0.557
725.98	0.554
726.16	0.551
726.35	0.556
726.53	0.556
726.72	0.554
726.90	0.565
727.09	0.565
727.27	0.570
727.45	0.566
727.64	0.574
727.82	0.582
728.01	0.586
728.19	0.583
728.37	0.588
728.56	0.591
728.74	0.597
728.92	0.587
729.11	0.589
729.29	0.587
729.48	0.591
729.66	0.581
729.84	0.580
730.03	0.583
730.21	0.585
730.40	0.577
730.58	0.577
730.76	0.576
730.95	0.578
731.13	0.579
731.31	0.591
731.50	0.600
731.68	0.603
731.86	0.601
732.05	0.615
732.23	0.618
732.42	0.621
732.60	0.625
732.78	0.631
732.97	0.647
733.15	0.653
733.33	0.643
733.52	0.649
733.70	0.659
733.88	0.668
734.07	0.653
734.25	0.677
734.43	0.684
734.62	0.688
734.80	0.683
734.98	0.675
735.17	0.680
735.35	0.686
735.53	0.676
735.72	0.680
735.90	0.698
736.08	0.719
736.27	0.698
736.45	0.708
736.63	0.717
736.82	0.728
737.00	0.728
737.18	0.738
737.37	0.767
737.55	0.788
737.73	0.782
737.92	0.786
738.10	0.780
738.28	0.797
738.46	0.784
738.65	0.795
738.83	0.813
739.01	0.860
739.20	0.851
739.38	0.833
739.56	0.822
739.75	0.827
739.93	0.796
740.11	0.818
740.29	0.819
740.48	0.824
740.66	0.807
740.84	0.801
741.03	0.769
741.21	0.782
741.39	0.766
741.57	0.777
741.76	0.790
741.94	0.798
742.12	0.766
742.31	0.770
742.49	0.786
742.67	0.807
742.85	0.824
743.04	0.828
743.22	0.835
743.40	0.884
743.58	0.871
743.77	0.886
743.95	0.913
744.13	0.962
744.31	0.946
744.50	0.947
744.68	0.943
744.86	0.919
745.04	0.929
745.23	0.985
745.41	0.965
745.59	0.971
745.77	0.943
745.96	0.933
746.14	0.936
746.32	0.937
746.50	0.921
746.69	0.903
746.87	0.906
747.05	0.889
747.23	0.827
747.42	0.815
747.60	0.837
747.78	0.841
747.96	0.871
748.14	0.834
748.33	0.855
748.51	0.851
748.69	0.847
748.87	0.870
749.06	0.865
749.24	0.866
749.42	0.854
749.60	0.836
749.78	0.842
749.97	0.800
750.15	0.793
750.33	0.795
750.51	0.818
750.69	0.823
750.88	0.828
751.06	0.840
751.24	0.859
751.42	0.850
751.60	0.841
751.79	0.901
751.97	0.939
752.15	0.938
752.33	0.911
752.51	0.964
752.69	0.973
752.88	0.948
753.06	0.993
753.24	0.974
753.42	1.009
753.60	1.159
753.78	1.040
753.97	1.059
754.15	1.077
754.33	1.105
754.51	0.998
754.69	0.985
754.87	1.006
755.06	0.937
755.24	0.940
755.42	0.948
755.60	0.855
755.78	0.864
755.96	0.812
756.15	0.814
756.33	0.816
756.51	0.833
756.69	0.826
756.87	0.796
757.05	0.810
757.23	0.794
757.42	0.762
757.60	0.761
757.78	0.749
757.96	0.750
758.14	0.735
758.32	0.723
758.50	0.732
758.69	0.729
758.87	0.724
759.05	0.726
759.23	0.733
759.41	0.736
759.59	0.729
759.77	0.747
759.95	0.770
760.13	0.812
760.32	0.812
760.50	0.809
760.68	0.829
760.86	0.829
761.04	0.812
761.22	0.816
761.40	0.854
761.58	0.856
761.76	0.836
761.95	0.821
762.13	0.782
762.31	0.782
762.49	0.756
762.67	0.770
762.85	0.782
763.03	0.777
763.21	0.762
763.39	0.745
763.57	0.746
763.75	0.741
763.94	0.729
764.12	0.727
764.30	0.748
764.48	0.752
764.66	0.719
764.84	0.716
765.02	0.746
765.20	0.754
765.38	0.738
765.56	0.743
765.74	0.778
765.92	0.779
766.10	0.787
766.28	0.777
766.46	0.801
766.65	0.806
766.83	0.793
767.01	0.777
767.19	0.781
767.37	0.782
767.55	0.772
767.73	0.753
767.91	0.756
768.09	0.747
768.27	0.737
768.45	0.727
768.63	0.731
768.81	0.736
768.99	0.716
769.17	0.737
769.35	0.751
769.53	0.747
769.71	0.728
769.89	0.734
770.07	0.735
770.25	0.725
770.43	0.705
770.61	0.722
770.79	0.726
770.97	0.736
771.15	0.710
771.33	0.709
771.51	0.711
771.69	0.725
771.87	0.732
772.05	0.737
772.24	0.742
772.42	0.752
772.60	0.734
772.78	0.788
772.96	0.811
773.14	0.806
773.32	0.790
773.49	0.796
773.67	0.792
773.85	0.774
774.03	0.769
774.21	0.798
774.39	0.806
774.57	0.826
774.75	0.762
774.93	0.758
775.11	0.780
775.29	0.785
775.47	0.790
775.65	0.796
775.83	0.813
776.01	0.832
776.19	0.787
776.37	0.790
776.55	0.790
776.73	0.788
776.91	0.784
777.09	0.767
777.27	0.765
777.45	0.752
777.63	0.732
777.81	0.727
777.99	0.713
778.17	0.711
778.35	0.693
778.53	0.680
778.71	0.681
778.89	0.670
779.07	0.662
779.24	0.662
779.42	0.665
779.60	0.683
779.78	0.680
779.96	0.682
780.14	0.687
780.32	0.706
780.50	0.694
780.68	0.694
780.86	0.685
781.04	0.699
781.22	0.707
781.40	0.715
781.58	0.705
781.75	0.697
781.93	0.684
782.11	0.686
782.29	0.673
782.47	0.672
782.65	0.662
782.83	0.687
783.01	0.679
783.19	0.673
783.37	0.661
783.55	0.663
783.72	0.681
783.90	0.693
784.08	0.688
784.26	0.699
784.44	0.715
784.62	0.717
784.80	0.688
784.98	0.695
785.16	0.700
785.33	0.713
785.51	0.704
785.69	0.690
785.87	0.687
786.05	0.696
786.23	0.694
786.41	0.692
786.59	0.699
786.77	0.700
786.94	0.690
787.12	0.693
787.30	0.693
787.48	0.691
787.66	0.682
787.84	0.682
788.02	0.672
788.19	0.669
788.37	0.656
788.55	0.657
788.73	0.658
788.91	0.652
789.09	0.637
789.27	0.626
789.44	0.637
789.62	0.643
789.80	0.651
789.98	0.673
790.16	0.660
790.34	0.657
790.51	0.644
790.69	0.662
790.87	0.668
791.05	0.666
791.23	0.661
791.41	0.661
791.58	0.666
791.76	0.646
791.94	0.621
792.12	0.631
792.30	0.633
792.48	0.633
792.65	0.627
792.83	0.633
793.01	0.639
793.19	0.638
793.37	0.624
793.54	0.622
793.72	0.633
793.90	0.631
794.08	0.620
794.26	0.619
794.43	0.628
794.61	0.611
794.79	0.601
794.97	0.599
795.15	0.603
795.32	0.609
795.50	0.597
795.68	0.591
795.86	0.595
796.04	0.597
796.21	0.592
796.39	0.590
796.57	0.603
796.75	0.610
796.92	0.612
797.10	0.615
797.28	0.615
797.46	0.620
797.64	0.623
797.81	0.628
797.99	0.630
798.17	0.635
798.35	0.630
798.52	0.634
798.70	0.628
798.88	0.637
799.06	0.638
799.23	0.641
799.41	0.647
799.59	0.642
799.77	0.633
799.94	0.639
800.12	0.647
800.30	0.663
800.48	0.661
800.65	0.659
800.83	0.647
801.01	0.639
801.19	0.639
801.36	0.636
801.54	0.635
801.72	0.644
801.90	0.634
802.07	0.629
802.25	0.612
802.43	0.599
802.60	0.598
802.78	0.606
802.96	0.610
803.14	0.604
803.31	0.604
803.49	0.606
803.67	0.602
803.84	0.607
804.02	0.602
804.20	0.606
804.38	0.611
804.55	0.611
804.73	0.599
804.91	0.599
805.08	0.611
805.26	0.607
805.44	0.668
805.61	0.671
805.79	0.670
805.97	0.668
806.15	0.662
806.32	0.657
806.50	0.661
806.68	0.661
806.85	0.655
807.03	0.644
807.21	0.659
807.38	0.594
807.56	0.585
807.74	0.593
807.91	0.597
808.09	0.599
808.27	0.616
808.44	0.641
808.62	0.646
808.80	0.646
808.97	0.643
809.15	0.639
809.33	0.656
809.50	0.662
809.68	0.652
809.86	0.660
810.03	0.688
810.21	0.670
810.39	0.654
810.56	0.660
810.74	0.681
810.91	0.746
811.09	0.737
811.27	0.755
811.44	0.759
811.62	0.761
811.80	0.747
811.97	0.720
812.15	0.718
812.33	0.713
812.50	0.702
812.68	0.690
812.85	0.639
813.03	0.641
813.21	0.613
813.38	0.609
813.56	0.611
813.74	0.622
813.91	0.629
814.09	0.655
814.26	0.649
814.44	0.651
814.62	0.644
814.79	0.645
814.97	0.648
815.14	0.652
815.32	0.654
815.50	0.670
815.67	0.671
815.85	0.663
816.02	0.654
816.20	0.660
816.38	0.674
816.55	0.679
816.73	0.680
816.90	0.690
817.08	0.714
817.26	0.722
817.43	0.704
817.61	0.725
817.78	0.742
817.96	0.725
818.13	0.717
818.31	0.716
818.49	0.728
818.66	0.720
818.84	0.706
819.01	0.689
819.19	0.690
819.36	0.693
819.54	0.667
819.71	0.703
819.89	0.715
820.07	0.725
820.24	0.721
820.42	0.718
820.59	0.734
820.77	0.755
820.94	0.749
821.12	0.766
821.29	0.775
821.47	0.777
821.64	0.720
821.82	0.730
822.00	0.730
822.17	0.729
822.35	0.726
822.52	0.730
822.70	0.720
822.87	0.727
823.05	0.712
823.22	0.723
823.40	0.744
823.57	0.766
823.75	0.752
823.92	0.771
824.10	0.783
824.27	0.818
824.45	0.810
824.62	0.862
824.80	0.873
824.97	0.886
825.15	0.879
825.32	0.889
825.50	0.885
825.67	0.894
825.85	0.875
826.02	0.894
826.20	0.911
826.37	1.016
826.55	0.949
826.72	1.110
826.90	1.152
827.07	1.192
827.25	1.148
827.42	1.267
827.60	1.362
827.77	1.482
827.95	1.474
828.12	1.521
828.30	1.272
828.47	1.359
828.65	1.099
828.82	1.137
829.00	1.164
829.17	1.236
829.34	1.234
829.52	1.245
829.69	-0.000
829.87	-0.000
830.04	-0.000
830.22	-0.000
830.39	-0.000
830.57	-0.000
830.74	-0.000
830.92	-0.000
831.09	-0.000
831.26	-0.000
831.44	-0.000
831.61	-0.000
831.79	-0.000
831.96	-0.000
832.14	-0.000
832.31	-0.000
832.49	-0.000
832.66	-0.000
832.83	-0.000
833.01	-0.000
833.18	-0.000
833.36	-0.000
833.53	-0.000
833.70	-0.000
833.88	-0.000
834.05	-0.000
834.23	-0.000
834.40	-0.000
834.58	-0.000
834.75	-0.000
834.92	-0.000
835.10	-0.000
835.27	-0.000
835.45	-0.000
835.62	-0.000
835.79	-0.000
835.97	-0.000
836.14	-0.000
836.32	-0.000
836.49	-0.000
836.66	-0.000
836.84	-0.000
837.01	-0.000
837.18	-0.000
837.36	-0.000
837.53	-0.000
837.71	-0.000
837.88	-0.000
838.05	-0.000
838.23	-0.000
838.40	-0.000
838.58	-0.000
838.75	-0.000
838.92	-0.000
839.10	-0.000
839.27	-0.000
839.44	-0.000
839.62	-0.000
839.79	-0.000
839.96	-0.000
840.14	-0.000
840.31	-0.000
840.48	-0.000
840.66	-0.000
840.83	-0.000
841.01	-0.000
841.18	-0.000
841.35	-0.000
841.53	-0.000
841.70	-0.000
841.87	-0.000
842.05	-0.000
842.22	-0.000
842.39	-0.000
842.57	-0.000
842.74	-0.000
842.91	-0.000
843.09	-0.000
843.26	-0.000
843.43	-0.000
843.60	-0.000
843.78	-0.000
843.95	-0.000
844.12	-0.000
844.30	-0.000
844.47	-0.000
844.64	-0.000
844.82	-0.000
844.99	-0.000
845.16	-0.000
845.34	-0.000
845.51	-0.000
845.68	-0.000
845.85	-0.000
846.03	-0.000
846.20	-0.000
846.37	-0.000
846.55	-0.000
846.72	-0.000
846.89	-0.000
847.06	-0.000
847.24	-0.000
847.41	-0.000
847.58	-0.000
847.76	-0.000
847.93	-0.000
848.10	-0.000
848.27	-0.000
848.45	-0.000
848.62	-0.000
848.79	-0.000
848.97	-0.000
849.14	-0.000
849.31	-0.000
849.48	-0.000
849.66	-0.000
849.83	-0.000
850.00	-0.000
850.17	-0.000
850.35	-0.000
850.52	-0.000
850.69	-0.000
850.86	-0.000
851.04	-0.000
851.21	-0.000
851.38	-0.000
851.55	-0.000
851.72	-0.000
851.90	-0.000
852.07	-0.000
852.24	-0.000
852.41	-0.000
852.59	-0.000
852.76	-0.000
852.93	-0.000
853.10	-0.000
853.28	-0.000
853.45	-0.000
853.62	-0.000
853.79	-0.000
853.96	-0.000
854.14	-0.000
854.31	-0.000
854.48	-0.000
854.65	-0.000
854.82	-0.000
855.00	-0.000
855.17	-0.000
855.34	-0.000
855.51	-0.000
855.68	-0.000
855.86	-0.000
856.03	-0.000
856.20	-0.000
856.37	-0.000
856.54	-0.000
856.72	-0.000
856.89	-0.000
857.06	-0.000
857.23	-0.000
857.40	-0.000
857.57	-0.000
857.75	-0.000
857.92	-0.000
858.09	-0.000
858.26	-0.000
858.43	-0.000
858.60	-0.000
858.78	-0.000
858.95	-0.000
859.12	-0.000
859.29	-0.000
859.46	-0.000
859.63	-0.000
859.81	-0.000
859.98	-0.000
860.15	-0.000
860.32	-0.000
860.49	-0.000
860.66	-0.000
860.83	-0.000
861.01	-0.000
861.18	-0.000
861.35	-0.000
861.52	-0.000
861.69	-0.000
861.86	-0.000
862.03	-0.000
862.21	-0.000
862.38	-0.000
862.55	-0.000
862.72	-0.000
862.89	-0.000
863.06	-0.000
863.23	-0.000
863.40	-0.000
863.58	-0.000
863.75	-0.000
863.92	-0.000
864.09	-0.000
864.26	-0.000
864.43	-0.000
864.60	-0.000
864.77	-0.000
864.94	-0.000
865.11	-0.000
865.29	-0.000
865.46	-0.000
865.63	-0.000
865.80	-0.000
865.97	-0.000
866.14	-0.000
866.31	-0.000
866.48	-0.000
866.65	-0.000
866.82	-0.000
866.99	-0.000
867.16	-0.000
867.34	-0.000
867.51	-0.000
867.68	-0.000
867.85	-0.000
868.02	-0.000
868.19	-0.000
868.36	-0.000
868.53	-0.000
868.70	-0.000
868.87	-0.000
869.04	-0.000
869.21	-0.000
869.38	-0.000
869.55	-0.000
869.72	-0.000
869.89	-0.000
870.06	-0.000
870.24	-0.000
870.41	-0.000
870.58	-0.000
870.75	-0.000
870.92	-0.000
871.09	-0.000
871.26	-0.000
871.43	-0.000
871.60	-0.000
871.77	-0.000
871.94	-0.000
872.11	-0.000
872.28	-0.000
872.45	-0.000
872.62	-0.000
872.79	-0.000
872.96	-0.000
873.13	-0.000
873.30	-0.000
873.47	-0.000
873.64	-0.000
873.81	-0.000
873.98	-0.000
874.15	-0.000
874.32	-0.000
874.49	-0.000
874.66	-0.000
874.83	-0.000
875.00	-0.000
875.17	-0.000
875.34	-0.000
875.51	-0.000
875.68	-0.000
875.85	-0.000
876.02	-0.000
876.19	-0.000
876.36	-0.000
876.53	-0.000
876.70	-0.000
876.87	-0.000
877.04	-0.000
877.21	-0.000
877.38	-0.000
877.55	-0.000
877.72	-0.000
877.89	-0.000
878.06	-0.000
878.23	-0.000
878.39	-0.000
878.56	-0.000
878.73	-0.000
878.90	-0.000
879.07	-0.000
879.24	-0.000
879.41	-0.000
879.58	-0.000
879.75	-0.000
879.92	-0.000
880.09	-0.000
880.26	-0.000
880.43	-0.000
880.60	-0.000
880.77	-0.000
880.94	-0.000
881.11	-0.000
881.27	-0.000
881.44	-0.000
881.61	-0.000
881.78	-0.000
881.95	-0.000
882.12	-0.000
882.29	-0.000
882.46	-0.000
882.63	-0.000
882.80	-0.000
882.97	-0.000
883.14	-0.000
883.30	-0.000
883.47	-0.000
883.64	-0.000
883.81	-0.000
883.98	-0.000
884.15	-0.000
884.32	-0.000
884.49	-0.000
884.66	-0.000
884.82	-0.000
884.99	-0.000
885.16	-0.000
885.33	-0.000
885.50	-0.000
885.67	-0.000
885.84	-0.000
886.01	-0.000
886.17	-0.000
886.34	-0.000
886.51	-0.000
886.68	-0.000
886.85	-0.000
887.02	-0.000
887.19	-0.000
887.36	-0.000
887.52	-0.000
887.69	-0.000
887.86	-0.000
888.03	-0.000
888.20	-0.000
888.37	-0.000
888.54	-0.000
888.70	-0.000
888.87	-0.000
889.04	-0.000
889.21	-0.000
889.38	-0.000
889.55	-0.000
889.71	-0.000
889.88	-0.000
890.05	-0.000
890.22	-0.000
890.39	-0.000
>>>>>End Processed Spectral Data<<<<<
