SpectraSuite Data File
++++++++++++++++++++++++++++++++++++
Date: Fri Jun 19 17:00:17 CEST 2015
User: introlabs
Dark Spectrum Present: Yes
Reference Spectrum Present: Yes
Number of Sampled Component Spectra: 1
Spectrometers: USB4H08886
Integration Time (usec): 745692 (USB4H08886)
Spectra Averaged: 5 (USB4H08886)
Boxcar Smoothing: 5 (USB4H08886)
Correct for Electrical Dark: Yes (USB4H08886)
Strobe/Lamp Enabled: No (USB4H08886)
Correct for Detector Non-linearity: Yes (USB4H08886)
Correct for Stray Light: Yes (USB4H08886)
Number of Pixels in Processed Spectrum: 3648
>>>>>Begin Processed Spectral Data<<<<<
178.14	-0.000
178.36	-0.000
178.57	-0.000
178.79	-0.000
179.01	-0.000
179.22	-0.000
179.44	-0.000
179.65	-0.000
179.87	-0.000
180.08	-0.000
180.30	-0.000
180.52	-0.000
180.73	-0.000
180.95	-0.000
181.16	-0.000
181.38	-0.000
181.59	-0.000
181.81	-0.000
182.03	-0.000
182.24	-0.000
182.46	-0.000
182.67	-0.000
182.89	-0.000
183.10	-0.000
183.32	-0.000
183.54	-0.000
183.75	-0.000
183.97	-0.000
184.18	-0.000
184.40	-0.000
184.61	-0.000
184.83	-0.000
185.04	-0.000
185.26	-0.000
185.48	-0.000
185.69	-0.000
185.91	-0.000
186.12	-0.000
186.34	-0.000
186.55	-0.000
186.77	-0.000
186.98	-0.000
187.20	-0.000
187.42	-0.000
187.63	-0.000
187.85	-0.000
188.06	-0.000
188.28	-0.000
188.49	-0.000
188.71	-0.000
188.92	-0.000
189.14	-0.000
189.36	-0.000
189.57	-0.000
189.79	-0.000
190.00	-0.000
190.22	-0.000
190.43	-0.000
190.65	-0.000
190.86	-0.000
191.08	-0.000
191.29	-0.000
191.51	-0.000
191.72	-0.000
191.94	-0.000
192.16	-0.000
192.37	-0.000
192.59	-0.000
192.80	-0.000
193.02	-0.000
193.23	-0.000
193.45	-0.000
193.66	-0.000
193.88	-0.000
194.09	-0.000
194.31	-0.000
194.52	-0.000
194.74	-0.000
194.95	-0.000
195.17	-0.000
195.38	-0.000
195.60	-0.000
195.81	-0.000
196.03	-0.000
196.25	-0.000
196.46	-0.000
196.68	-0.000
196.89	-0.000
197.11	-0.000
197.32	-0.000
197.54	-0.000
197.75	-0.000
197.97	-0.000
198.18	-0.000
198.40	-0.000
198.61	-0.000
198.83	-0.000
199.04	-0.000
199.26	-0.000
199.47	-0.000
199.69	-0.000
199.90	-0.000
200.12	-0.000
200.33	-0.000
200.55	-0.000
200.76	-0.000
200.98	-0.000
201.19	-0.000
201.41	-0.000
201.62	-0.000
201.84	-0.000
202.05	-0.000
202.27	-0.000
202.48	-0.000
202.70	-0.000
202.91	-0.000
203.13	-0.000
203.34	-0.000
203.56	-0.000
203.77	-0.000
203.99	-0.000
204.20	-0.000
204.42	-0.000
204.63	-0.000
204.85	-0.000
205.06	-0.000
205.28	-0.000
205.49	-0.000
205.71	-0.000
205.92	-0.000
206.14	-0.000
206.35	-0.000
206.56	-0.000
206.78	-0.000
206.99	-0.000
207.21	-0.000
207.42	-0.000
207.64	-0.000
207.85	-0.000
208.07	-0.000
208.28	-0.000
208.50	-0.000
208.71	-0.000
208.93	-0.000
209.14	-0.000
209.36	-0.000
209.57	-0.000
209.79	-0.000
210.00	-0.000
210.22	-0.000
210.43	-0.000
210.64	-0.000
210.86	-0.000
211.07	-0.000
211.29	-0.000
211.50	-0.000
211.72	-0.000
211.93	-0.000
212.15	-0.000
212.36	-0.000
212.58	-0.000
212.79	-0.000
213.01	-0.000
213.22	-0.000
213.43	-0.000
213.65	-0.000
213.86	-0.000
214.08	-0.000
214.29	-0.000
214.51	-0.000
214.72	-0.000
214.94	-0.000
215.15	-0.000
215.36	-0.000
215.58	-0.000
215.79	-0.000
216.01	-0.000
216.22	-0.000
216.44	-0.000
216.65	-0.000
216.87	-0.000
217.08	-0.000
217.29	-0.000
217.51	-0.000
217.72	-0.000
217.94	-0.000
218.15	-0.000
218.37	-0.000
218.58	-0.000
218.80	-0.000
219.01	-0.000
219.22	-0.000
219.44	-0.000
219.65	-0.000
219.87	-0.000
220.08	-0.000
220.30	-0.000
220.51	-0.000
220.72	-0.000
220.94	-0.000
221.15	-0.000
221.37	-0.000
221.58	-0.000
221.79	-0.000
222.01	-0.000
222.22	-0.000
222.44	-0.000
222.65	-0.000
222.87	-0.000
223.08	-0.000
223.29	-0.000
223.51	-0.000
223.72	-0.000
223.94	-0.000
224.15	-0.000
224.36	-0.000
224.58	-0.000
224.79	-0.000
225.01	-0.000
225.22	-0.000
225.44	-0.000
225.65	-0.000
225.86	-0.000
226.08	-0.000
226.29	-0.000
226.51	-0.000
226.72	-0.000
226.93	-0.000
227.15	-0.000
227.36	-0.000
227.58	-0.000
227.79	-0.000
228.00	-0.000
228.22	-0.000
228.43	-0.000
228.65	-0.000
228.86	-0.000
229.07	-0.000
229.29	-0.000
229.50	-0.000
229.72	-0.000
229.93	-0.000
230.14	-0.000
230.36	-0.000
230.57	-0.000
230.78	-0.000
231.00	-0.000
231.21	-0.000
231.43	-0.000
231.64	-0.000
231.85	-0.000
232.07	-0.000
232.28	-0.000
232.50	-0.000
232.71	-0.000
232.92	-0.000
233.14	-0.000
233.35	-0.000
233.56	-0.000
233.78	-0.000
233.99	-0.000
234.21	-0.000
234.42	-0.000
234.63	-0.000
234.85	-0.000
235.06	-0.000
235.27	-0.000
235.49	-0.000
235.70	-0.000
235.91	-0.000
236.13	-0.000
236.34	-0.000
236.56	-0.000
236.77	-0.000
236.98	-0.000
237.20	-0.000
237.41	-0.000
237.62	-0.000
237.84	-0.000
238.05	-0.000
238.26	-0.000
238.48	-0.000
238.69	-0.000
238.91	-0.000
239.12	-0.000
239.33	-0.000
239.55	-0.000
239.76	-0.000
239.97	-0.000
240.19	-0.000
240.40	-0.000
240.61	-0.000
240.83	-0.000
241.04	-0.000
241.25	-0.000
241.47	-0.000
241.68	-0.000
241.89	-0.000
242.11	-0.000
242.32	-0.000
242.53	-0.000
242.75	-0.000
242.96	-0.000
243.17	-0.000
243.39	-0.000
243.60	-0.000
243.81	-0.000
244.03	-0.000
244.24	-0.000
244.45	-0.000
244.67	-0.000
244.88	-0.000
245.09	-0.000
245.31	-0.000
245.52	-0.000
245.73	-0.000
245.95	-0.000
246.16	-0.000
246.37	-0.000
246.59	-0.000
246.80	-0.000
247.01	-0.000
247.23	-0.000
247.44	-0.000
247.65	-0.000
247.87	-0.000
248.08	-0.000
248.29	-0.000
248.51	-0.000
248.72	-0.000
248.93	-0.000
249.15	-0.000
249.36	-0.000
249.57	-0.000
249.78	-0.000
250.00	-0.000
250.21	-0.000
250.42	-0.000
250.64	-0.000
250.85	-0.000
251.06	-0.000
251.28	-0.000
251.49	-0.000
251.70	-0.000
251.92	-0.000
252.13	-0.000
252.34	-0.000
252.55	-0.000
252.77	-0.000
252.98	-0.000
253.19	-0.000
253.41	-0.000
253.62	-0.000
253.83	-0.000
254.05	-0.000
254.26	-0.000
254.47	-0.000
254.68	-0.000
254.90	-0.000
255.11	-0.000
255.32	-0.000
255.54	-0.000
255.75	-0.000
255.96	-0.000
256.17	-0.000
256.39	-0.000
256.60	-0.000
256.81	-0.000
257.03	-0.000
257.24	-0.000
257.45	-0.000
257.66	-0.000
257.88	-0.000
258.09	-0.000
258.30	-0.000
258.51	-0.000
258.73	-0.000
258.94	-0.000
259.15	-0.000
259.37	-0.000
259.58	-0.000
259.79	-0.000
260.00	-0.000
260.22	-0.000
260.43	-0.000
260.64	-0.000
260.85	-0.000
261.07	-0.000
261.28	-0.000
261.49	-0.000
261.71	-0.000
261.92	-0.000
262.13	-0.000
262.34	-0.000
262.56	-0.000
262.77	-0.000
262.98	-0.000
263.19	-0.000
263.41	-0.000
263.62	-0.000
263.83	-0.000
264.04	-0.000
264.26	-0.000
264.47	-0.000
264.68	-0.000
264.89	-0.000
265.11	-0.000
265.32	-0.000
265.53	-0.000
265.74	-0.000
265.96	-0.000
266.17	-0.000
266.38	-0.000
266.59	-0.000
266.81	-0.000
267.02	-0.000
267.23	-0.000
267.44	-0.000
267.65	-0.000
267.87	-0.000
268.08	-0.000
268.29	-0.000
268.50	-0.000
268.72	-0.000
268.93	-0.000
269.14	-0.000
269.35	-0.000
269.57	-0.000
269.78	-0.000
269.99	-0.000
270.20	-0.000
270.41	-0.000
270.63	-0.000
270.84	-0.000
271.05	-0.000
271.26	-0.000
271.48	-0.000
271.69	-0.000
271.90	-0.000
272.11	-0.000
272.32	-0.000
272.54	-0.000
272.75	-0.000
272.96	-0.000
273.17	-0.000
273.39	-0.000
273.60	-0.000
273.81	-0.000
274.02	-0.000
274.23	-0.000
274.45	-0.000
274.66	-0.000
274.87	-0.000
275.08	-0.000
275.29	-0.000
275.51	-0.000
275.72	-0.000
275.93	-0.000
276.14	-0.000
276.35	-0.000
276.57	-0.000
276.78	-0.000
276.99	-0.000
277.20	-0.000
277.41	-0.000
277.63	-0.000
277.84	-0.000
278.05	-0.000
278.26	-0.000
278.47	-0.000
278.69	-0.000
278.90	-0.000
279.11	-0.000
279.32	-0.000
279.53	-0.000
279.74	-0.000
279.96	-0.000
280.17	-0.000
280.38	-0.000
280.59	-0.000
280.80	-0.000
281.02	-0.000
281.23	-0.000
281.44	-0.000
281.65	-0.000
281.86	-0.000
282.07	-0.000
282.29	-0.000
282.50	-0.000
282.71	-0.000
282.92	-0.000
283.13	-0.000
283.35	-0.000
283.56	-0.000
283.77	-0.000
283.98	-0.000
284.19	-0.000
284.40	-0.000
284.62	-0.000
284.83	-0.000
285.04	-0.000
285.25	-0.000
285.46	-0.000
285.67	-0.000
285.88	-0.000
286.10	-0.000
286.31	-0.000
286.52	-0.000
286.73	-0.000
286.94	-0.000
287.15	-0.000
287.37	-0.000
287.58	-0.000
287.79	-0.000
288.00	-0.000
288.21	-0.000
288.42	-0.000
288.63	-0.000
288.85	-0.000
289.06	-0.000
289.27	-0.000
289.48	-0.000
289.69	-0.000
289.90	-0.000
290.11	-0.000
290.33	-0.000
290.54	-0.000
290.75	-0.000
290.96	-0.000
291.17	-0.000
291.38	-0.000
291.59	-0.000
291.81	-0.000
292.02	-0.000
292.23	-0.000
292.44	-0.000
292.65	-0.000
292.86	-0.000
293.07	-0.000
293.28	-0.000
293.50	-0.000
293.71	-0.000
293.92	-0.000
294.13	-0.000
294.34	-0.000
294.55	-0.000
294.76	-0.000
294.97	-0.000
295.19	-0.000
295.40	-0.000
295.61	-0.000
295.82	-0.000
296.03	-0.000
296.24	-0.000
296.45	-0.000
296.66	-0.000
296.87	-0.000
297.09	-0.000
297.30	-0.000
297.51	-0.000
297.72	-0.000
297.93	-0.000
298.14	-0.000
298.35	-0.000
298.56	-0.000
298.77	-0.000
298.99	-0.000
299.20	-0.000
299.41	-0.000
299.62	-0.000
299.83	-0.000
300.04	-0.000
300.25	-0.000
300.46	-0.000
300.67	-0.000
300.88	-0.000
301.10	-0.000
301.31	-0.000
301.52	-0.000
301.73	-0.000
301.94	-0.000
302.15	-0.000
302.36	-0.000
302.57	-0.000
302.78	-0.000
302.99	-0.000
303.20	-0.000
303.41	-0.000
303.63	-0.000
303.84	-0.000
304.05	-0.000
304.26	-0.000
304.47	-0.000
304.68	-0.000
304.89	-0.000
305.10	-0.000
305.31	-0.000
305.52	-0.000
305.73	-0.000
305.94	-0.000
306.15	-0.000
306.37	-0.000
306.58	-0.000
306.79	-0.000
307.00	-0.000
307.21	-0.000
307.42	-0.000
307.63	-0.000
307.84	-0.000
308.05	-0.000
308.26	-0.000
308.47	-0.000
308.68	-0.000
308.89	-0.000
309.10	-0.000
309.31	-0.000
309.52	-0.000
309.73	-0.000
309.95	-0.000
310.16	-0.000
310.37	-0.000
310.58	-0.000
310.79	-0.000
311.00	-0.000
311.21	-0.000
311.42	-0.000
311.63	-0.000
311.84	-0.000
312.05	-0.000
312.26	-0.000
312.47	-0.000
312.68	-0.000
312.89	-0.000
313.10	-0.000
313.31	-0.000
313.52	-0.000
313.73	-0.000
313.94	-0.000
314.15	-0.000
314.36	-0.000
314.57	-0.000
314.78	-0.000
314.99	-0.000
315.21	-0.000
315.42	-0.000
315.63	-0.000
315.84	-0.000
316.05	-0.000
316.26	-0.000
316.47	-0.000
316.68	-0.000
316.89	-0.000
317.10	-0.000
317.31	-0.000
317.52	-0.000
317.73	-0.000
317.94	-0.000
318.15	-0.000
318.36	-0.000
318.57	-0.000
318.78	-0.000
318.99	-0.000
319.20	-0.000
319.41	-0.000
319.62	-0.000
319.83	-0.000
320.04	-0.000
320.25	-0.000
320.46	-0.000
320.67	-0.000
320.88	-0.000
321.09	-0.000
321.30	-0.000
321.51	-0.000
321.72	-0.000
321.93	-0.000
322.14	-0.000
322.35	-0.000
322.56	-0.000
322.77	-0.000
322.98	-0.000
323.19	-0.000
323.40	-0.000
323.61	-0.000
323.82	-0.000
324.03	-0.000
324.24	-0.000
324.45	-0.000
324.66	-0.000
324.87	-0.000
325.08	-0.000
325.29	-0.000
325.50	-0.000
325.71	-0.000
325.92	-0.000
326.13	-0.000
326.34	-0.000
326.55	-0.000
326.76	-0.000
326.97	-0.000
327.18	-0.000
327.39	-0.000
327.60	-0.000
327.80	-0.000
328.01	-0.000
328.22	-0.000
328.43	-0.000
328.64	-0.000
328.85	-0.000
329.06	-0.000
329.27	-0.000
329.48	-0.000
329.69	-0.000
329.90	-0.000
330.11	-0.000
330.32	-0.000
330.53	-0.000
330.74	-0.000
330.95	-0.000
331.16	-0.000
331.37	-0.000
331.58	-0.000
331.79	-0.000
332.00	-0.000
332.21	-0.000
332.42	-0.000
332.63	-0.000
332.83	-0.000
333.04	-0.000
333.25	-0.000
333.46	-0.000
333.67	-0.000
333.88	-0.000
334.09	-0.000
334.30	-0.000
334.51	-0.000
334.72	-0.000
334.93	-0.000
335.14	-0.000
335.35	-0.000
335.56	-0.000
335.77	-0.000
335.98	-0.000
336.18	-0.000
336.39	-0.000
336.60	-0.000
336.81	-0.000
337.02	-0.000
337.23	-0.000
337.44	-0.000
337.65	-0.000
337.86	-0.000
338.07	-0.000
338.28	-0.000
338.49	-0.000
338.70	-0.000
338.91	-0.000
339.11	-0.000
339.32	-0.000
339.53	-0.000
339.74	-0.000
339.95	-0.000
340.16	-0.000
340.37	-0.000
340.58	-0.000
340.79	-0.000
341.00	-0.000
341.21	-0.000
341.41	-0.000
341.62	-0.000
341.83	3.391
342.04	2.709
342.25	-0.000
342.46	3.781
342.67	3.595
342.88	2.864
343.09	2.842
343.30	4.328
343.50	-0.000
343.71	2.984
343.92	2.767
344.13	3.127
344.34	2.802
344.55	2.375
344.76	2.378
344.97	2.339
345.18	2.370
345.38	2.348
345.59	2.380
345.80	2.439
346.01	2.594
346.22	2.749
346.43	2.498
346.64	2.721
346.85	2.573
347.06	2.498
347.26	2.453
347.47	2.461
347.68	2.518
347.89	2.312
348.10	2.201
348.31	2.195
348.52	2.142
348.73	2.119
348.93	2.164
349.14	2.221
349.35	2.209
349.56	2.163
349.77	2.082
349.98	2.209
350.19	2.156
350.39	2.145
350.60	2.164
350.81	2.450
351.02	2.434
351.23	2.257
351.44	2.250
351.65	2.315
351.86	2.274
352.06	2.221
352.27	2.119
352.48	2.166
352.69	2.127
352.90	2.028
353.11	1.867
353.31	1.943
353.52	1.947
353.73	1.916
353.94	1.888
354.15	1.934
354.36	1.935
354.57	1.881
354.77	1.888
354.98	1.904
355.19	1.907
355.40	1.909
355.61	1.983
355.82	1.998
356.02	1.970
356.23	1.915
356.44	1.932
356.65	1.964
356.86	1.929
357.07	1.901
357.27	1.883
357.48	1.886
357.69	1.854
357.90	1.735
358.11	1.713
358.32	1.731
358.52	1.734
358.73	1.690
358.94	1.702
359.15	1.757
359.36	1.735
359.56	1.731
359.77	1.713
359.98	1.760
360.19	1.754
360.40	1.753
360.61	1.769
360.81	1.759
361.02	1.744
361.23	1.699
361.44	1.680
361.65	1.688
361.85	1.672
362.06	1.689
362.27	1.703
362.48	1.704
362.69	1.690
362.89	1.663
363.10	1.693
363.31	1.725
363.52	1.746
363.73	1.706
363.93	1.716
364.14	1.727
364.35	1.709
364.56	1.672
364.77	1.663
364.97	1.681
365.18	1.667
365.39	1.648
365.60	1.627
365.81	1.629
366.01	1.627
366.22	1.602
366.43	1.593
366.64	1.599
366.84	1.610
367.05	1.609
367.26	1.601
367.47	1.620
367.68	1.596
367.88	1.596
368.09	1.583
368.30	1.588
368.51	1.592
368.71	1.588
368.92	1.608
369.13	1.608
369.34	1.610
369.55	1.607
369.75	1.595
369.96	1.633
370.17	1.631
370.38	1.637
370.58	1.634
370.79	1.648
371.00	1.638
371.21	1.609
371.41	1.626
371.62	1.636
371.83	1.618
372.04	1.604
372.24	1.570
372.45	1.564
372.66	1.548
372.87	1.554
373.07	1.542
373.28	1.550
373.49	1.553
373.70	1.509
373.90	1.501
374.11	1.543
374.32	1.536
374.53	1.539
374.73	1.550
374.94	1.554
375.15	1.541
375.36	1.533
375.56	1.574
375.77	1.568
375.98	1.565
376.19	1.557
376.39	1.529
376.60	1.544
376.81	1.536
377.02	1.530
377.22	1.532
377.43	1.530
377.64	1.530
377.84	1.483
378.05	1.503
378.26	1.529
378.47	1.524
378.67	1.507
378.88	1.496
379.09	1.496
379.30	1.483
379.50	1.473
379.71	1.476
379.92	1.481
380.12	1.482
380.33	1.461
380.54	1.441
380.75	1.471
380.95	1.466
381.16	1.470
381.37	1.469
381.57	1.480
381.78	1.480
381.99	1.482
382.20	1.483
382.40	1.499
382.61	1.490
382.82	1.484
383.02	1.455
383.23	1.473
383.44	1.466
383.64	1.464
383.85	1.469
384.06	1.480
384.27	1.472
384.47	1.466
384.68	1.459
384.89	1.480
385.09	1.478
385.30	1.474
385.51	1.466
385.71	1.477
385.92	1.472
386.13	1.467
386.33	1.481
386.54	1.480
386.75	1.474
386.95	1.463
387.16	1.446
387.37	1.453
387.58	1.452
387.78	1.443
387.99	1.431
388.20	1.437
388.40	1.424
388.61	1.399
388.82	1.417
389.02	1.419
389.23	1.417
389.44	1.414
389.64	1.416
389.85	1.461
390.06	1.457
390.26	1.459
390.47	1.457
390.68	1.467
390.88	1.465
391.09	1.440
391.30	1.441
391.50	1.440
391.71	1.435
391.92	1.422
392.12	1.388
392.33	1.389
392.53	1.387
392.74	1.392
392.95	1.384
393.15	1.388
393.36	1.395
393.57	1.390
393.77	1.397
393.98	1.401
394.19	1.400
394.39	1.399
394.60	1.402
394.81	1.408
395.01	1.398
395.22	1.396
395.43	1.396
395.63	1.413
395.84	1.413
396.04	1.406
396.25	1.408
396.46	1.413
396.66	1.404
396.87	1.396
397.08	1.385
397.28	1.391
397.49	1.393
397.69	1.386
397.90	1.365
398.11	1.368
398.31	1.365
398.52	1.353
398.73	1.360
398.93	1.357
399.14	1.354
399.34	1.352
399.55	1.355
399.76	1.355
399.96	1.355
400.17	1.354
400.37	1.349
400.58	1.372
400.79	1.380
400.99	1.367
401.20	1.387
401.41	1.391
401.61	1.392
401.82	1.419
402.02	1.415
402.23	1.418
402.44	1.416
402.64	1.417
402.85	1.391
403.05	1.383
403.26	1.380
403.47	1.360
403.67	1.356
403.88	1.355
404.08	1.330
404.29	1.327
404.50	1.326
404.70	1.323
404.91	1.320
405.11	1.314
405.32	1.316
405.52	1.316
405.73	1.316
405.94	1.315
406.14	1.324
406.35	1.328
406.55	1.327
406.76	1.320
406.97	1.323
407.17	1.331
407.38	1.331
407.58	1.326
407.79	1.333
407.99	1.338
408.20	1.338
408.41	1.326
408.61	1.319
408.82	1.318
409.02	1.319
409.23	1.315
409.43	1.309
409.64	1.310
409.84	1.311
410.05	1.301
410.26	1.294
410.46	1.293
410.67	1.292
410.87	1.300
411.08	1.306
411.28	1.307
411.49	1.311
411.69	1.304
411.90	1.311
412.11	1.315
412.31	1.318
412.52	1.314
412.72	1.315
412.93	1.315
413.13	1.313
413.34	1.304
413.54	1.312
413.75	1.319
413.95	1.321
414.16	1.312
414.37	1.319
414.57	1.320
414.78	1.331
414.98	1.330
415.19	1.333
415.39	1.320
415.60	1.326
415.80	1.322
416.01	1.312
416.21	1.314
416.42	1.314
416.62	1.301
416.83	1.300
417.03	1.295
417.24	1.292
417.44	1.287
417.65	1.286
417.86	1.287
418.06	1.280
418.27	1.276
418.47	1.281
418.68	1.280
418.88	1.279
419.09	1.277
419.29	1.281
419.50	1.283
419.70	1.285
419.91	1.282
420.11	1.274
420.32	1.281
420.52	1.280
420.73	1.279
420.93	1.281
421.14	1.288
421.34	1.286
421.55	1.278
421.75	1.278
421.96	1.277
422.16	1.278
422.37	1.277
422.57	1.271
422.78	1.274
422.98	1.267
423.19	1.264
423.39	1.258
423.60	1.268
423.80	1.271
424.01	1.267
424.21	1.276
424.42	1.277
424.62	1.275
424.83	1.274
425.03	1.273
425.23	1.275
425.44	1.273
425.64	1.274
425.85	1.269
426.05	1.269
426.26	1.271
426.46	1.259
426.67	1.258
426.87	1.274
427.08	1.275
427.28	1.270
427.49	1.274
427.69	1.276
427.90	1.273
428.10	1.267
428.31	1.268
428.51	1.273
428.71	1.271
428.92	1.276
429.12	1.265
429.33	1.267
429.53	1.281
429.74	1.300
429.94	1.301
430.15	1.299
430.35	1.299
430.56	1.291
430.76	1.288
430.96	1.291
431.17	1.281
431.37	1.277
431.58	1.275
431.78	1.263
431.99	1.239
432.19	1.249
432.40	1.256
432.60	1.257
432.80	1.267
433.01	1.263
433.21	1.261
433.42	1.267
433.62	1.267
433.83	1.267
434.03	1.275
434.23	1.281
434.44	1.275
434.64	1.268
434.85	1.282
435.05	1.286
435.26	1.285
435.46	1.284
435.66	1.283
435.87	1.281
436.07	1.279
436.28	1.268
436.48	1.262
436.69	1.261
436.89	1.263
437.09	1.245
437.30	1.241
437.50	1.241
437.71	1.283
437.91	1.282
438.11	1.286
438.32	1.297
438.52	1.296
438.73	1.294
438.93	1.289
439.13	1.288
439.34	1.301
439.54	1.292
439.75	1.295
439.95	1.259
440.15	1.276
440.36	1.272
440.56	1.266
440.77	1.267
440.97	1.268
441.17	1.265
441.38	1.268
441.58	1.258
441.79	1.257
441.99	1.255
442.19	1.247
442.40	1.236
442.60	1.235
442.81	1.231
443.01	1.234
443.21	1.234
443.42	1.233
443.62	1.229
443.82	1.227
444.03	1.232
444.23	1.230
444.44	1.234
444.64	1.234
444.84	1.241
445.05	1.240
445.25	1.235
445.45	1.236
445.66	1.240
445.86	1.241
446.06	1.246
446.27	1.242
446.47	1.249
446.68	1.245
446.88	1.240
447.08	1.235
447.29	1.239
447.49	1.238
447.69	1.238
447.90	1.235
448.10	1.243
448.30	1.234
448.51	1.242
448.71	1.236
448.91	1.239
449.12	1.238
449.32	1.244
449.52	1.241
449.73	1.252
449.93	1.249
450.14	1.254
450.34	1.251
450.54	1.257
450.75	1.249
450.95	1.248
451.15	1.249
451.36	1.256
451.56	1.247
451.76	1.247
451.97	1.240
452.17	1.242
452.37	1.236
452.58	1.231
452.78	1.229
452.98	1.235
453.19	1.236
453.39	1.239
453.59	1.233
453.79	1.234
454.00	1.235
454.20	1.233
454.40	1.234
454.61	1.240
454.81	1.240
455.01	1.238
455.22	1.242
455.42	1.246
455.62	1.239
455.83	1.239
456.03	1.248
456.23	1.249
456.44	1.250
456.64	1.248
456.84	1.248
457.04	1.250
457.25	1.248
457.45	1.238
457.65	1.237
457.86	1.238
458.06	1.236
458.26	1.226
458.47	1.225
458.67	1.229
458.87	1.229
459.07	1.223
459.28	1.227
459.48	1.232
459.68	1.232
459.89	1.229
460.09	1.225
460.29	1.226
460.49	1.228
460.70	1.228
460.90	1.226
461.10	1.227
461.31	1.228
461.51	1.221
461.71	1.231
461.91	1.231
462.12	1.234
462.32	1.234
462.52	1.235
462.72	1.240
462.93	1.240
463.13	1.237
463.33	1.240
463.53	1.242
463.74	1.243
463.94	1.226
464.14	1.231
464.35	1.232
464.55	1.232
464.75	1.230
464.95	1.226
465.16	1.229
465.36	1.227
465.56	1.224
465.76	1.222
465.97	1.222
466.17	1.224
466.37	1.217
466.57	1.219
466.78	1.220
466.98	1.220
467.18	1.214
467.38	1.211
467.59	1.214
467.79	1.219
467.99	1.217
468.19	1.218
468.39	1.224
468.60	1.226
468.80	1.222
469.00	1.224
469.20	1.226
469.41	1.227
469.61	1.227
469.81	1.228
470.01	1.224
470.22	1.225
470.42	1.222
470.62	1.217
470.82	1.219
471.02	1.218
471.23	1.212
471.43	1.213
471.63	1.220
471.83	1.220
472.04	1.217
472.24	1.213
472.44	1.230
472.64	1.230
472.84	1.228
473.05	1.226
473.25	1.232
473.45	1.230
473.65	1.227
473.85	1.225
474.06	1.224
474.26	1.221
474.46	1.227
474.66	1.215
474.86	1.215
475.07	1.213
475.27	1.211
475.47	1.204
475.67	1.203
475.87	1.208
476.08	1.202
476.28	1.208
476.48	1.213
476.68	1.207
476.88	1.202
477.09	1.203
477.29	1.206
477.49	1.206
477.69	1.206
477.89	1.208
478.09	1.204
478.30	1.210
478.50	1.202
478.70	1.199
478.90	1.197
479.10	1.207
479.31	1.212
479.51	1.208
479.71	1.208
479.91	1.207
480.11	1.203
480.31	1.204
480.52	1.198
480.72	1.197
480.92	1.194
481.12	1.192
481.32	1.183
481.52	1.178
481.72	1.178
481.93	1.188
482.13	1.189
482.33	1.188
482.53	1.183
482.73	1.188
482.93	1.191
483.14	1.190
483.34	1.188
483.54	1.191
483.74	1.187
483.94	1.184
484.14	1.172
484.34	1.172
484.55	1.173
484.75	1.172
484.95	1.168
485.15	1.167
485.35	1.166
485.55	1.166
485.75	1.162
485.96	1.163
486.16	1.167
486.36	1.165
486.56	1.162
486.76	1.163
486.96	1.164
487.16	1.162
487.36	1.159
487.57	1.159
487.77	1.160
487.97	1.161
488.17	1.156
488.37	1.155
488.57	1.155
488.77	1.156
488.97	1.153
489.18	1.151
489.38	1.156
489.58	1.157
489.78	1.158
489.98	1.156
490.18	1.156
490.38	1.157
490.58	1.155
490.78	1.158
490.98	1.160
491.19	1.160
491.39	1.160
491.59	1.156
491.79	1.162
491.99	1.162
492.19	1.161
492.39	1.169
492.59	1.169
492.79	1.174
492.99	1.174
493.20	1.175
493.40	1.175
493.60	1.179
493.80	1.178
494.00	1.172
494.20	1.173
494.40	1.172
494.60	1.166
494.80	1.178
495.00	1.174
495.20	1.171
495.40	1.168
495.61	1.172
495.81	1.170
496.01	1.178
496.21	1.184
496.41	1.183
496.61	1.184
496.81	1.181
497.01	1.167
497.21	1.166
497.41	1.166
497.61	1.164
497.81	1.160
498.01	1.160
498.21	1.152
498.41	1.146
498.61	1.145
498.82	1.148
499.02	1.152
499.22	1.153
499.42	1.153
499.62	1.155
499.82	1.158
500.02	1.160
500.22	1.158
500.42	1.164
500.62	1.166
500.82	1.167
501.02	1.162
501.22	1.162
501.42	1.162
501.62	1.167
501.82	1.166
502.02	1.166
502.22	1.164
502.42	1.170
502.62	1.163
502.82	1.162
503.02	1.164
503.22	1.163
503.42	1.160
503.63	1.160
503.83	1.155
504.03	1.153
504.23	1.151
504.43	1.153
504.63	1.155
504.83	1.155
505.03	1.153
505.23	1.157
505.43	1.161
505.63	1.162
505.83	1.162
506.03	1.164
506.23	1.168
506.43	1.167
506.63	1.165
506.83	1.160
507.03	1.164
507.23	1.165
507.43	1.159
507.63	1.159
507.83	1.159
508.03	1.161
508.23	1.160
508.43	1.157
508.63	1.162
508.83	1.162
509.03	1.167
509.23	1.163
509.43	1.166
509.63	1.166
509.83	1.164
510.03	1.170
510.23	1.172
510.43	1.173
510.63	1.174
510.83	1.172
511.03	1.175
511.23	1.168
511.43	1.168
511.63	1.170
511.83	1.173
512.03	1.173
512.22	1.167
512.42	1.166
512.62	1.169
512.82	1.169
513.02	1.167
513.22	1.167
513.42	1.172
513.62	1.180
513.82	1.175
514.02	1.174
514.22	1.175
514.42	1.174
514.62	1.175
514.82	1.173
515.02	1.177
515.22	1.186
515.42	1.186
515.62	1.191
515.82	1.186
516.02	1.188
516.22	1.189
516.42	1.196
516.62	1.199
516.82	1.202
517.01	1.199
517.21	1.197
517.41	1.207
517.61	1.208
517.81	1.200
518.01	1.198
518.21	1.198
518.41	1.196
518.61	1.191
518.81	1.191
519.01	1.191
519.21	1.192
519.41	1.189
519.61	1.173
519.81	1.177
520.00	1.178
520.20	1.179
520.40	1.186
520.60	1.185
520.80	1.184
521.00	1.187
521.20	1.188
521.40	1.199
521.60	1.201
521.80	1.200
522.00	1.198
522.20	1.201
522.39	1.200
522.59	1.192
522.79	1.198
522.99	1.200
523.19	1.195
523.39	1.193
523.59	1.187
523.79	1.194
523.99	1.198
524.19	1.196
524.38	1.192
524.58	1.196
524.78	1.197
524.98	1.191
525.18	1.197
525.38	1.198
525.58	1.197
525.78	1.191
525.98	1.187
526.18	1.186
526.37	1.186
526.57	1.192
526.77	1.190
526.97	1.192
527.17	1.192
527.37	1.182
527.57	1.189
527.77	1.191
527.96	1.192
528.16	1.190
528.36	1.194
528.56	1.200
528.76	1.193
528.96	1.192
529.16	1.195
529.36	1.200
529.55	1.201
529.75	1.194
529.95	1.195
530.15	1.196
530.35	1.203
530.55	1.195
530.75	1.193
530.94	1.193
531.14	1.195
531.34	1.193
531.54	1.190
531.74	1.196
531.94	1.205
532.13	1.201
532.33	1.207
532.53	1.202
532.73	1.201
532.93	1.197
533.13	1.199
533.33	1.197
533.52	1.198
533.72	1.208
533.92	1.204
534.12	1.196
534.32	1.196
534.52	1.191
534.71	1.196
534.91	1.201
535.11	1.206
535.31	1.204
535.51	1.209
535.71	1.210
535.90	1.200
536.10	1.204
536.30	1.209
536.50	1.211
536.70	1.212
536.89	1.206
537.09	1.206
537.29	1.208
537.49	1.209
537.69	1.203
537.89	1.206
538.08	1.205
538.28	1.199
538.48	1.200
538.68	1.202
538.88	1.206
539.07	1.207
539.27	1.203
539.47	1.201
539.67	1.202
539.87	1.205
540.06	1.199
540.26	1.200
540.46	1.204
540.66	1.198
540.86	1.196
541.05	1.195
541.25	1.196
541.45	1.197
541.65	1.192
541.84	1.196
542.04	1.197
542.24	1.199
542.44	1.197
542.64	1.201
542.83	1.205
543.03	1.204
543.23	1.201
543.43	1.203
543.62	1.205
543.82	1.205
544.02	1.202
544.22	1.201
544.42	1.206
544.61	1.208
544.81	1.202
545.01	1.199
545.21	1.201
545.40	1.199
545.60	1.195
545.80	1.203
546.00	1.204
546.19	1.201
546.39	1.200
546.59	1.194
546.79	1.197
546.98	1.198
547.18	1.198
547.38	1.201
547.58	1.207
547.77	1.207
547.97	1.196
548.17	1.198
548.37	1.199
548.56	1.201
548.76	1.199
548.96	1.200
549.16	1.203
549.35	1.204
549.55	1.198
549.75	1.197
549.95	1.205
550.14	1.207
550.34	1.205
550.54	1.217
550.73	1.225
550.93	1.227
551.13	1.224
551.33	1.220
551.52	1.221
551.72	1.221
551.92	1.218
552.12	1.222
552.31	1.222
552.51	1.223
552.71	1.210
552.90	1.209
553.10	1.210
553.30	1.209
553.50	1.209
553.69	1.212
553.89	1.212
554.09	1.212
554.28	1.202
554.48	1.203
554.68	1.205
554.87	1.205
555.07	1.199
555.27	1.199
555.47	1.201
555.66	1.200
555.86	1.198
556.06	1.204
556.25	1.208
556.45	1.233
556.65	1.231
556.84	1.239
557.04	1.250
557.24	1.252
557.43	1.252
557.63	1.262
557.83	1.268
558.02	1.270
558.22	1.283
558.42	1.283
558.61	1.259
558.81	1.259
559.01	1.249
559.21	1.244
559.40	1.245
559.60	1.247
559.80	1.236
559.99	1.236
560.19	1.238
560.39	1.221
560.58	1.217
560.78	1.217
560.97	1.225
561.17	1.223
561.37	1.221
561.56	1.222
561.76	1.226
561.96	1.225
562.15	1.221
562.35	1.229
562.55	1.230
562.74	1.230
562.94	1.226
563.14	1.219
563.33	1.221
563.53	1.219
563.73	1.215
563.92	1.217
564.12	1.222
564.31	1.226
564.51	1.221
564.71	1.225
564.90	1.230
565.10	1.233
565.30	1.244
565.49	1.245
565.69	1.250
565.89	1.251
566.08	1.243
566.28	1.250
566.47	1.253
566.67	1.248
566.87	1.244
567.06	1.249
567.26	1.265
567.46	1.252
567.65	1.250
567.85	1.253
568.04	1.258
568.24	1.256
568.44	1.246
568.63	1.241
568.83	1.244
569.02	1.238
569.22	1.227
569.42	1.216
569.61	1.221
569.81	1.218
570.00	1.214
570.20	1.217
570.40	1.219
570.59	1.218
570.79	1.214
570.98	1.209
571.18	1.210
571.38	1.209
571.57	1.203
571.77	1.196
571.96	1.204
572.16	1.198
572.35	1.186
572.55	1.189
572.75	1.186
572.94	1.186
573.14	1.182
573.33	1.184
573.53	1.184
573.73	1.182
573.92	1.180
574.12	1.175
574.31	1.180
574.51	1.182
574.70	1.174
574.90	1.175
575.09	1.180
575.29	1.181
575.49	1.175
575.68	1.178
575.88	1.180
576.07	1.183
576.27	1.179
576.46	1.174
576.66	1.172
576.86	1.171
577.05	1.168
577.25	1.164
577.44	1.167
577.64	1.167
577.83	1.163
578.03	1.165
578.22	1.162
578.42	1.160
578.61	1.158
578.81	1.159
579.00	1.159
579.20	1.158
579.40	1.155
579.59	1.152
579.79	1.152
579.98	1.150
580.18	1.152
580.37	1.153
580.57	1.158
580.76	1.171
580.96	1.168
581.15	1.170
581.35	1.172
581.54	1.171
581.74	1.169
581.93	1.174
582.13	1.176
582.32	1.167
582.52	1.163
582.71	1.160
582.91	1.148
583.10	1.148
583.30	1.147
583.49	1.146
583.69	1.155
583.88	1.158
584.08	1.155
584.27	1.162
584.47	1.168
584.66	1.172
584.86	1.171
585.05	1.176
585.25	1.182
585.44	1.181
585.64	1.179
585.83	1.171
586.03	1.172
586.22	1.169
586.42	1.161
586.61	1.167
586.81	1.172
587.00	1.171
587.20	1.165
587.39	1.166
587.59	1.169
587.78	1.171
587.98	1.172
588.17	1.173
588.37	1.178
588.56	1.181
588.76	1.170
588.95	1.168
589.15	1.181
589.34	1.188
589.54	1.184
589.73	1.186
589.92	1.192
590.12	1.192
590.31	1.188
590.51	1.202
590.70	1.207
590.90	1.208
591.09	1.203
591.29	1.195
591.48	1.193
591.68	1.195
591.87	1.192
592.06	1.190
592.26	1.197
592.45	1.194
592.65	1.178
592.84	1.177
593.04	1.183
593.23	1.189
593.43	1.185
593.62	1.185
593.81	1.187
594.01	1.185
594.20	1.182
594.40	1.178
594.59	1.182
594.79	1.184
594.98	1.182
595.17	1.180
595.37	1.181
595.56	1.184
595.76	1.185
595.95	1.188
596.14	1.194
596.34	1.194
596.53	1.191
596.73	1.194
596.92	1.194
597.12	1.199
597.31	1.199
597.50	1.196
597.70	1.200
597.89	1.198
598.09	1.190
598.28	1.193
598.47	1.200
598.67	1.196
598.86	1.189
599.06	1.197
599.25	1.197
599.44	1.193
599.64	1.188
599.83	1.184
600.03	1.191
600.22	1.191
600.41	1.193
600.61	1.187
600.80	1.193
601.00	1.194
601.19	1.184
601.38	1.179
601.58	1.183
601.77	1.187
601.96	1.193
602.16	1.190
602.35	1.214
602.55	1.205
602.74	1.209
602.93	1.212
603.13	1.223
603.32	1.225
603.51	1.229
603.71	1.237
603.90	1.237
604.09	1.238
604.29	1.233
604.48	1.215
604.68	1.219
604.87	1.215
605.06	1.209
605.26	1.201
605.45	1.200
605.64	1.197
605.84	1.185
606.03	1.185
606.22	1.181
606.42	1.180
606.61	1.174
606.80	1.174
607.00	1.179
607.19	1.179
607.38	1.178
607.58	1.185
607.77	1.190
607.96	1.192
608.16	1.190
608.35	1.203
608.54	1.211
608.74	1.217
608.93	1.234
609.12	1.240
609.32	1.246
609.51	1.253
609.70	1.247
609.90	1.252
610.09	1.261
610.28	1.272
610.48	1.253
610.67	1.256
610.86	1.258
611.06	1.238
611.25	1.233
611.44	1.235
611.64	1.234
611.83	1.244
612.02	1.238
612.21	1.234
612.41	1.230
612.60	1.229
612.79	1.219
612.99	1.219
613.18	1.226
613.37	1.220
613.57	1.216
613.76	1.220
613.95	1.211
614.14	1.208
614.34	1.203
614.53	1.204
614.72	1.210
614.92	1.212
615.11	1.206
615.30	1.196
615.49	1.200
615.69	1.204
615.88	1.197
616.07	1.201
616.26	1.206
616.46	1.208
616.65	1.204
616.84	1.201
617.04	1.202
617.23	1.208
617.42	1.210
617.61	1.217
617.81	1.217
618.00	1.222
618.19	1.218
618.38	1.228
618.58	1.239
618.77	1.241
618.96	1.241
619.15	1.248
619.35	1.254
619.54	1.256
619.73	1.247
619.92	1.252
620.12	1.261
620.31	1.261
620.50	1.247
620.69	1.245
620.89	1.252
621.08	1.252
621.27	1.251
621.46	1.247
621.66	1.256
621.85	1.255
622.04	1.251
622.23	1.256
622.43	1.259
622.62	1.259
622.81	1.258
623.00	1.255
623.19	1.261
623.39	1.256
623.58	1.249
623.77	1.247
623.96	1.253
624.16	1.254
624.35	1.241
624.54	1.247
624.73	1.257
624.92	1.253
625.12	1.249
625.31	1.250
625.50	1.259
625.69	1.261
625.88	1.254
626.08	1.252
626.27	1.253
626.46	1.253
626.65	1.245
626.84	1.243
627.04	1.254
627.23	1.253
627.42	1.246
627.61	1.250
627.80	1.254
628.00	1.256
628.19	1.251
628.38	1.255
628.57	1.261
628.76	1.261
628.96	1.254
629.15	1.255
629.34	1.265
629.53	1.266
629.72	1.256
629.91	1.258
630.11	1.262
630.30	1.262
630.49	1.276
630.68	1.276
630.87	1.285
631.06	1.290
631.26	1.280
631.45	1.279
631.64	1.298
631.83	1.300
632.02	1.299
632.21	1.299
632.41	1.317
632.60	1.297
632.79	1.297
632.98	1.296
633.17	1.299
633.36	1.304
633.55	1.300
633.75	1.290
633.94	1.294
634.13	1.291
634.32	1.288
634.51	1.275
634.70	1.279
634.89	1.277
635.09	1.270
635.28	1.271
635.47	1.269
635.66	1.273
635.85	1.270
636.04	1.273
636.23	1.288
636.43	1.290
636.62	1.294
636.81	1.288
637.00	1.290
637.19	1.299
637.38	1.293
637.57	1.297
637.76	1.304
637.95	1.298
638.15	1.288
638.34	1.279
638.53	1.286
638.72	1.284
638.91	1.283
639.10	1.281
639.29	1.280
639.48	1.280
639.67	1.280
639.87	1.275
640.06	1.299
640.25	1.300
640.44	1.301
640.63	1.303
640.82	1.310
641.01	1.312
641.20	1.317
641.39	1.322
641.58	1.332
641.78	1.328
641.97	1.318
642.16	1.360
642.35	1.359
642.54	1.353
642.73	1.342
642.92	1.338
643.11	1.346
643.30	1.342
643.49	1.331
643.68	1.332
643.87	1.335
644.06	1.334
644.25	1.277
644.45	1.291
644.64	1.298
644.83	1.294
645.02	1.293
645.21	1.288
645.40	1.288
645.59	1.289
645.78	1.276
645.97	1.283
646.16	1.282
646.35	1.275
646.54	1.267
646.73	1.267
646.92	1.276
647.11	1.270
647.30	1.264
647.49	1.269
647.68	1.266
647.88	1.263
648.07	1.252
648.26	1.263
648.45	1.261
648.64	1.257
648.83	1.250
649.02	1.255
649.21	1.286
649.40	1.281
649.59	1.270
649.78	1.275
649.97	1.321
650.16	1.313
650.35	1.296
650.54	1.311
650.73	1.331
650.92	1.321
651.11	1.302
651.30	1.293
651.49	1.306
651.68	1.308
651.87	1.298
652.06	1.261
652.25	1.271
652.44	1.277
652.63	1.267
652.82	1.270
653.01	1.272
653.20	1.267
653.39	1.237
653.58	1.230
653.77	1.228
653.96	1.216
654.15	1.199
654.34	1.194
654.53	1.185
654.72	1.171
654.91	1.150
655.10	1.141
655.29	1.136
655.48	1.131
655.67	1.121
655.86	1.115
656.05	1.113
656.24	1.113
656.43	1.103
656.62	1.103
656.81	1.107
657.00	1.102
657.19	1.096
657.38	1.096
657.57	1.096
657.76	1.101
657.95	1.098
658.14	1.105
658.33	1.112
658.51	1.123
658.70	1.120
658.89	1.119
659.08	1.140
659.27	1.158
659.46	1.160
659.65	1.174
659.84	1.184
660.03	1.193
660.22	1.194
660.41	1.202
660.60	1.203
660.79	1.209
660.98	1.229
661.17	1.219
661.36	1.217
661.55	1.221
661.74	1.214
661.92	1.216
662.11	1.220
662.30	1.218
662.49	1.205
662.68	1.203
662.87	1.204
663.06	1.188
663.25	1.194
663.44	1.192
663.63	1.193
663.82	1.191
664.01	1.179
664.20	1.175
664.38	1.179
664.57	1.178
664.76	1.178
664.95	1.182
665.14	1.191
665.33	1.183
665.52	1.209
665.71	1.222
665.90	1.225
666.09	1.231
666.28	1.230
666.46	1.220
666.65	1.222
666.84	1.218
667.03	1.206
667.22	1.204
667.41	1.209
667.60	1.181
667.79	1.162
667.98	1.162
668.16	1.163
668.35	1.162
668.54	1.159
668.73	1.162
668.92	1.164
669.11	1.161
669.30	1.149
669.49	1.141
669.67	1.148
669.86	1.155
670.05	1.151
670.24	1.144
670.43	1.140
670.62	1.139
670.81	1.129
671.00	1.129
671.18	1.127
671.37	1.125
671.56	1.120
671.75	1.115
671.94	1.107
672.13	1.104
672.32	1.096
672.50	1.095
672.69	1.094
672.88	1.094
673.07	1.086
673.26	1.091
673.45	1.092
673.63	1.092
673.82	1.087
674.01	1.090
674.20	1.087
674.39	1.086
674.58	1.086
674.76	1.086
674.95	1.085
675.14	1.086
675.33	1.078
675.52	1.075
675.71	1.076
675.89	1.074
676.08	1.069
676.27	1.070
676.46	1.071
676.65	1.069
676.84	1.069
677.02	1.070
677.21	1.073
677.40	1.072
677.59	1.069
677.78	1.070
677.96	1.076
678.15	1.075
678.34	1.074
678.53	1.075
678.72	1.073
678.90	1.069
679.09	1.065
679.28	1.059
679.47	1.059
679.66	1.058
679.84	1.054
680.03	1.047
680.22	1.045
680.41	1.047
680.60	1.043
680.78	1.043
680.97	1.046
681.16	1.045
681.35	1.043
681.53	1.041
681.72	1.042
681.91	1.046
682.10	1.044
682.29	1.049
682.47	1.043
682.66	1.036
682.85	1.034
683.04	1.030
683.22	1.030
683.41	1.034
683.60	1.033
683.79	1.036
683.97	1.031
684.16	1.029
684.35	1.022
684.54	1.024
684.72	1.029
684.91	1.030
685.10	1.026
685.29	1.030
685.47	1.024
685.66	1.021
685.85	1.015
686.04	1.016
686.22	1.018
686.41	1.025
686.60	1.019
686.79	1.027
686.97	1.027
687.16	1.029
687.35	1.023
687.54	1.030
687.72	1.038
687.91	1.037
688.10	1.042
688.29	1.043
688.47	1.036
688.66	1.037
688.85	1.029
689.03	1.025
689.22	1.040
689.41	1.042
689.60	1.033
689.78	1.027
689.97	1.029
690.16	1.024
690.34	1.018
690.53	1.020
690.72	1.019
690.91	1.015
691.09	1.013
691.28	0.998
691.47	0.995
691.65	0.996
691.84	0.992
692.03	0.991
692.21	0.987
692.40	0.986
692.59	0.982
692.77	0.980
692.96	0.983
693.15	0.983
693.34	0.979
693.52	0.978
693.71	0.978
693.90	0.979
694.08	0.981
694.27	0.984
694.46	1.006
694.64	1.006
694.83	1.006
695.02	1.005
695.20	1.004
695.39	1.004
695.58	1.004
695.76	1.006
695.95	1.002
696.14	1.000
696.32	0.994
696.51	0.971
696.70	0.971
696.88	0.973
697.07	0.971
697.26	0.972
697.44	0.973
697.63	0.972
697.81	0.967
698.00	0.967
698.19	0.965
698.37	0.965
698.56	0.965
698.75	0.965
698.93	0.962
699.12	0.963
699.31	0.963
699.49	0.962
699.68	0.963
699.87	0.968
700.05	0.967
700.24	0.966
700.42	0.969
700.61	0.968
700.80	0.966
700.98	0.967
701.17	0.969
701.36	0.966
701.54	0.966
701.73	0.968
701.91	0.965
702.10	0.964
702.29	0.963
702.47	0.960
702.66	0.964
702.84	0.966
703.03	0.962
703.22	0.966
703.40	0.965
703.59	0.969
703.77	0.969
703.96	0.969
704.15	0.970
704.33	0.970
704.52	0.971
704.70	0.968
704.89	0.967
705.08	0.965
705.26	0.959
705.45	0.959
705.63	0.957
705.82	0.952
706.00	0.951
706.19	0.950
706.38	0.951
706.56	0.949
706.75	0.948
706.93	0.946
707.12	0.948
707.30	0.948
707.49	0.945
707.68	0.941
707.86	0.939
708.05	0.939
708.23	0.934
708.42	0.935
708.60	0.940
708.79	0.938
708.98	0.937
709.16	0.936
709.35	0.940
709.53	0.948
709.72	0.947
709.90	0.949
710.09	0.952
710.27	0.954
710.46	0.962
710.64	0.958
710.83	0.960
711.02	0.963
711.20	0.962
711.39	0.957
711.57	0.950
711.76	0.951
711.94	0.950
712.13	0.952
712.31	0.952
712.50	0.943
712.68	0.939
712.87	0.940
713.05	0.940
713.24	0.940
713.42	0.939
713.61	0.940
713.79	0.942
713.98	0.942
714.16	0.945
714.35	0.945
714.54	0.946
714.72	0.946
714.91	0.943
715.09	0.956
715.28	0.961
715.46	0.962
715.65	0.959
715.83	0.959
716.02	0.964
716.20	0.956
716.39	0.956
716.57	0.959
716.76	0.964
716.94	0.966
717.12	0.950
717.31	0.954
717.49	0.959
717.68	0.963
717.86	0.963
718.05	0.965
718.23	0.968
718.42	0.973
718.60	0.977
718.79	0.997
718.97	1.001
719.16	1.002
719.34	0.999
719.53	0.999
719.71	0.999
719.90	1.003
720.08	0.999
720.27	0.999
720.45	0.999
720.63	0.993
720.82	0.976
721.00	0.979
721.19	0.984
721.37	0.981
721.56	0.980
721.74	0.983
721.93	1.000
722.11	1.012
722.30	1.013
722.48	1.021
722.66	1.022
722.85	1.023
723.03	1.026
723.22	1.024
723.40	1.030
723.59	1.031
723.77	1.044
723.95	1.026
724.14	1.030
724.32	1.033
724.51	1.032
724.69	1.037
724.88	1.035
725.06	1.029
725.24	1.032
725.43	1.036
725.61	1.043
725.80	1.029
725.98	1.032
726.16	1.023
726.35	1.037
726.53	1.033
726.72	1.030
726.90	1.057
727.09	1.058
727.27	1.073
727.45	1.066
727.64	1.087
727.82	1.103
728.01	1.107
728.19	1.106
728.37	1.117
728.56	1.124
728.74	1.142
728.92	1.116
729.11	1.126
729.29	1.118
729.48	1.128
729.66	1.106
729.84	1.102
730.03	1.109
730.21	1.113
730.40	1.092
730.58	1.097
730.76	1.093
730.95	1.098
731.13	1.100
731.31	1.134
731.50	1.149
731.68	1.154
731.86	1.154
732.05	1.194
732.23	1.201
732.42	1.219
732.60	1.230
732.78	1.244
732.97	1.293
733.15	1.306
733.33	1.273
733.52	1.295
733.70	1.324
733.88	1.346
734.07	1.291
734.25	1.371
734.43	1.402
734.62	1.412
734.80	1.422
734.98	1.382
735.17	1.400
735.35	1.426
735.53	1.404
735.72	1.402
735.90	1.488
736.08	1.607
736.27	1.498
736.45	1.528
736.63	1.613
736.82	1.630
737.00	1.640
737.18	1.728
737.37	2.003
737.55	2.299
737.73	2.350
737.92	2.395
738.10	2.515
738.28	-0.000
738.46	-0.000
738.65	-0.000
738.83	-0.000
739.01	-0.000
739.20	-0.000
739.38	-0.000
739.56	-0.000
739.75	-0.000
739.93	-0.000
740.11	-0.000
740.29	-0.000
740.48	-0.000
740.66	-0.000
740.84	-0.000
741.03	-0.000
741.21	-0.000
741.39	-0.000
741.57	-0.000
741.76	-0.000
741.94	-0.000
742.12	-0.000
742.31	-0.000
742.49	-0.000
742.67	-0.000
742.85	-0.000
743.04	-0.000
743.22	-0.000
743.40	-0.000
743.58	-0.000
743.77	-0.000
743.95	-0.000
744.13	-0.000
744.31	-0.000
744.50	-0.000
744.68	-0.000
744.86	-0.000
745.04	-0.000
745.23	-0.000
745.41	-0.000
745.59	-0.000
745.77	-0.000
745.96	-0.000
746.14	-0.000
746.32	-0.000
746.50	-0.000
746.69	-0.000
746.87	-0.000
747.05	-0.000
747.23	-0.000
747.42	-0.000
747.60	-0.000
747.78	-0.000
747.96	-0.000
748.14	-0.000
748.33	-0.000
748.51	-0.000
748.69	-0.000
748.87	-0.000
749.06	-0.000
749.24	-0.000
749.42	-0.000
749.60	-0.000
749.78	-0.000
749.97	-0.000
750.15	-0.000
750.33	-0.000
750.51	-0.000
750.69	-0.000
750.88	-0.000
751.06	-0.000
751.24	-0.000
751.42	-0.000
751.60	-0.000
751.79	-0.000
751.97	-0.000
752.15	-0.000
752.33	-0.000
752.51	-0.000
752.69	-0.000
752.88	-0.000
753.06	-0.000
753.24	-0.000
753.42	-0.000
753.60	-0.000
753.78	-0.000
753.97	-0.000
754.15	-0.000
754.33	-0.000
754.51	-0.000
754.69	-0.000
754.87	-0.000
755.06	-0.000
755.24	-0.000
755.42	-0.000
755.60	-0.000
755.78	-0.000
755.96	-0.000
756.15	-0.000
756.33	-0.000
756.51	-0.000
756.69	-0.000
756.87	-0.000
757.05	-0.000
757.23	-0.000
757.42	-0.000
757.60	-0.000
757.78	-0.000
757.96	-0.000
758.14	2.803
758.32	2.215
758.50	2.348
758.69	2.016
758.87	2.104
759.05	2.155
759.23	2.222
759.41	2.198
759.59	2.348
759.77	-0.000
759.95	-0.000
760.13	-0.000
760.32	-0.000
760.50	-0.000
760.68	-0.000
760.86	-0.000
761.04	-0.000
761.22	-0.000
761.40	-0.000
761.58	-0.000
761.76	-0.000
761.95	-0.000
762.13	-0.000
762.31	-0.000
762.49	-0.000
762.67	-0.000
762.85	-0.000
763.03	-0.000
763.21	-0.000
763.39	-0.000
763.57	3.992
763.75	2.966
763.94	2.632
764.12	2.245
764.30	-0.000
764.48	-0.000
764.66	2.255
764.84	2.152
765.02	3.154
765.20	2.316
765.38	2.106
765.56	2.270
765.74	-0.000
765.92	-0.000
766.10	-0.000
766.28	-0.000
766.46	-0.000
766.65	-0.000
766.83	-0.000
767.01	-0.000
767.19	-0.000
767.37	-0.000
767.55	-0.000
767.73	2.208
767.91	2.428
768.09	2.450
768.27	2.282
768.45	2.143
768.63	2.084
768.81	2.065
768.99	1.902
769.17	2.340
769.35	2.635
769.53	2.451
769.71	2.141
769.89	2.115
770.07	2.192
770.25	1.945
770.43	1.944
770.61	2.417
770.79	2.498
770.97	2.374
771.15	1.877
771.33	1.885
771.51	2.047
771.69	2.185
771.87	2.410
772.05	2.448
772.24	2.944
772.42	2.299
772.60	1.952
772.78	-0.000
772.96	-0.000
773.14	-0.000
773.32	-0.000
773.49	-0.000
773.67	-0.000
773.85	-0.000
774.03	-0.000
774.21	-0.000
774.39	-0.000
774.57	-0.000
774.75	-0.000
774.93	-0.000
775.11	-0.000
775.29	-0.000
775.47	-0.000
775.65	-0.000
775.83	-0.000
776.01	-0.000
776.19	-0.000
776.37	-0.000
776.55	-0.000
776.73	-0.000
776.91	-0.000
777.09	-0.000
777.27	-0.000
777.45	-0.000
777.63	-0.000
777.81	-0.000
777.99	-0.000
778.17	-0.000
778.35	3.064
778.53	2.331
778.71	2.415
778.89	2.042
779.07	2.059
779.24	2.013
779.42	1.814
779.60	1.969
779.78	1.867
779.96	1.875
780.14	1.925
780.32	2.081
780.50	1.866
780.68	1.832
780.86	1.789
781.04	1.845
781.22	1.863
781.40	1.941
781.58	1.807
781.75	1.733
781.93	1.743
782.11	1.715
782.29	1.587
782.47	1.575
782.65	1.610
782.83	1.766
783.01	1.705
783.19	1.632
783.37	1.611
783.55	1.599
783.72	1.757
783.90	1.704
784.08	1.646
784.26	1.850
784.44	2.034
784.62	1.953
784.80	1.734
784.98	1.802
785.16	1.907
785.33	1.954
785.51	2.016
785.69	1.830
785.87	1.917
786.05	2.086
786.23	1.865
786.41	1.931
786.59	1.956
786.77	1.865
786.94	1.738
787.12	1.705
787.30	1.709
787.48	1.615
787.66	1.602
787.84	1.551
788.02	1.524
788.19	1.515
788.37	1.431
788.55	1.425
788.73	1.433
788.91	1.403
789.09	1.358
789.27	1.338
789.44	1.415
789.62	1.403
789.80	1.468
789.98	1.574
790.16	1.526
790.34	1.503
790.51	1.497
790.69	1.601
790.87	1.684
791.05	1.733
791.23	1.671
791.41	1.591
791.58	1.608
791.76	1.496
791.94	1.369
792.12	1.390
792.30	1.382
792.48	1.365
792.65	1.343
792.83	1.346
793.01	1.341
793.19	1.345
793.37	1.301
793.54	1.302
793.72	1.322
793.90	1.324
794.08	1.301
794.26	1.312
794.43	1.334
794.61	1.292
794.79	1.254
794.97	1.265
795.15	1.269
795.32	1.282
795.50	1.267
795.68	1.260
795.86	1.263
796.04	1.269
796.21	1.268
796.39	1.256
796.57	1.279
796.75	1.313
796.92	1.301
797.10	1.316
797.28	1.343
797.46	1.334
797.64	1.338
797.81	1.360
797.99	1.359
798.17	1.355
798.35	1.336
798.52	1.355
798.70	1.338
798.88	1.372
799.06	1.377
799.23	1.351
799.41	1.381
799.59	1.354
799.77	1.338
799.94	1.358
800.12	1.387
800.30	1.458
800.48	1.460
800.65	1.484
800.83	1.447
801.01	1.429
801.19	1.449
801.36	1.427
801.54	1.449
801.72	1.479
801.90	1.460
802.07	1.434
802.25	1.382
802.43	1.357
802.60	1.336
802.78	1.343
802.96	1.390
803.14	1.373
803.31	1.364
803.49	1.360
803.67	1.339
803.84	1.327
804.02	1.320
804.20	1.323
804.38	1.307
804.55	1.303
804.73	1.284
804.91	1.265
805.08	1.299
805.26	1.290
805.44	1.710
805.61	1.727
805.79	1.824
805.97	1.797
806.15	1.763
806.32	1.768
806.50	1.886
806.68	1.850
806.85	1.757
807.03	1.656
807.21	1.766
807.38	1.291
807.56	1.289
807.74	1.295
807.91	1.336
808.09	1.341
808.27	1.409
808.44	1.510
808.62	1.549
808.80	1.591
808.97	1.597
809.15	1.578
809.33	1.698
809.50	1.686
809.68	1.646
809.86	1.643
810.03	1.922
810.21	1.723
810.39	1.582
810.56	1.588
810.74	1.663
810.91	-0.000
811.09	-0.000
811.27	-0.000
811.44	-0.000
811.62	-0.000
811.80	-0.000
811.97	-0.000
812.15	-0.000
812.33	-0.000
812.50	-0.000
812.68	-0.000
812.85	1.668
813.03	1.660
813.21	1.485
813.38	1.480
813.56	1.474
813.74	1.518
813.91	1.548
814.09	1.688
814.26	1.677
814.44	1.601
814.62	1.563
814.79	1.563
814.97	1.582
815.14	1.590
815.32	1.518
815.50	1.583
815.67	1.600
815.85	1.569
816.02	1.528
816.20	1.527
816.38	1.669
816.55	1.699
816.73	1.708
816.90	1.757
817.08	2.122
817.26	2.766
817.43	2.896
817.61	-0.000
817.78	-0.000
817.96	-0.000
818.13	-0.000
818.31	-0.000
818.49	-0.000
818.66	-0.000
818.84	-0.000
819.01	-0.000
819.19	-0.000
819.36	-0.000
819.54	2.596
819.71	-0.000
819.89	-0.000
820.07	-0.000
820.24	-0.000
820.42	-0.000
820.59	-0.000
820.77	-0.000
820.94	-0.000
821.12	-0.000
821.29	-0.000
821.47	-0.000
821.64	-0.000
821.82	-0.000
822.00	-0.000
822.17	-0.000
822.35	-0.000
822.52	-0.000
822.70	-0.000
822.87	-0.000
823.05	-0.000
823.22	-0.000
823.40	-0.000
823.57	-0.000
823.75	-0.000
823.92	-0.000
824.10	-0.000
824.27	-0.000
824.45	-0.000
824.62	-0.000
824.80	-0.000
824.97	-0.000
825.15	-0.000
825.32	-0.000
825.50	-0.000
825.67	-0.000
825.85	-0.000
826.02	-0.000
826.20	-0.000
826.37	-0.000
826.55	-0.000
826.72	-0.000
826.90	-0.000
827.07	-0.000
827.25	-0.000
827.42	-0.000
827.60	-0.000
827.77	-0.000
827.95	-0.000
828.12	-0.000
828.30	-0.000
828.47	-0.000
828.65	-0.000
828.82	-0.000
829.00	-0.000
829.17	-0.000
829.34	-0.000
829.52	-0.000
829.69	-0.000
829.87	-0.000
830.04	-0.000
830.22	-0.000
830.39	-0.000
830.57	-0.000
830.74	-0.000
830.92	-0.000
831.09	-0.000
831.26	-0.000
831.44	-0.000
831.61	-0.000
831.79	-0.000
831.96	-0.000
832.14	-0.000
832.31	-0.000
832.49	-0.000
832.66	-0.000
832.83	-0.000
833.01	-0.000
833.18	-0.000
833.36	-0.000
833.53	-0.000
833.70	-0.000
833.88	-0.000
834.05	-0.000
834.23	-0.000
834.40	-0.000
834.58	-0.000
834.75	-0.000
834.92	-0.000
835.10	-0.000
835.27	-0.000
835.45	-0.000
835.62	-0.000
835.79	-0.000
835.97	-0.000
836.14	-0.000
836.32	-0.000
836.49	-0.000
836.66	-0.000
836.84	-0.000
837.01	-0.000
837.18	-0.000
837.36	-0.000
837.53	-0.000
837.71	-0.000
837.88	-0.000
838.05	-0.000
838.23	-0.000
838.40	-0.000
838.58	-0.000
838.75	-0.000
838.92	-0.000
839.10	-0.000
839.27	-0.000
839.44	-0.000
839.62	-0.000
839.79	-0.000
839.96	-0.000
840.14	-0.000
840.31	-0.000
840.48	-0.000
840.66	-0.000
840.83	-0.000
841.01	-0.000
841.18	-0.000
841.35	-0.000
841.53	-0.000
841.70	-0.000
841.87	-0.000
842.05	-0.000
842.22	-0.000
842.39	-0.000
842.57	-0.000
842.74	-0.000
842.91	-0.000
843.09	-0.000
843.26	-0.000
843.43	-0.000
843.60	-0.000
843.78	-0.000
843.95	-0.000
844.12	-0.000
844.30	-0.000
844.47	-0.000
844.64	-0.000
844.82	-0.000
844.99	-0.000
845.16	-0.000
845.34	-0.000
845.51	-0.000
845.68	-0.000
845.85	-0.000
846.03	-0.000
846.20	-0.000
846.37	-0.000
846.55	-0.000
846.72	-0.000
846.89	-0.000
847.06	-0.000
847.24	-0.000
847.41	-0.000
847.58	-0.000
847.76	-0.000
847.93	-0.000
848.10	-0.000
848.27	-0.000
848.45	-0.000
848.62	-0.000
848.79	-0.000
848.97	-0.000
849.14	-0.000
849.31	-0.000
849.48	-0.000
849.66	-0.000
849.83	-0.000
850.00	-0.000
850.17	-0.000
850.35	-0.000
850.52	-0.000
850.69	-0.000
850.86	-0.000
851.04	-0.000
851.21	-0.000
851.38	-0.000
851.55	-0.000
851.72	-0.000
851.90	-0.000
852.07	-0.000
852.24	-0.000
852.41	-0.000
852.59	-0.000
852.76	-0.000
852.93	-0.000
853.10	-0.000
853.28	-0.000
853.45	-0.000
853.62	-0.000
853.79	-0.000
853.96	-0.000
854.14	-0.000
854.31	-0.000
854.48	-0.000
854.65	-0.000
854.82	-0.000
855.00	-0.000
855.17	-0.000
855.34	-0.000
855.51	-0.000
855.68	-0.000
855.86	-0.000
856.03	-0.000
856.20	-0.000
856.37	-0.000
856.54	-0.000
856.72	-0.000
856.89	-0.000
857.06	-0.000
857.23	-0.000
857.40	-0.000
857.57	-0.000
857.75	-0.000
857.92	-0.000
858.09	-0.000
858.26	-0.000
858.43	-0.000
858.60	-0.000
858.78	-0.000
858.95	-0.000
859.12	-0.000
859.29	-0.000
859.46	-0.000
859.63	-0.000
859.81	-0.000
859.98	-0.000
860.15	-0.000
860.32	-0.000
860.49	-0.000
860.66	-0.000
860.83	-0.000
861.01	-0.000
861.18	-0.000
861.35	-0.000
861.52	-0.000
861.69	-0.000
861.86	-0.000
862.03	-0.000
862.21	-0.000
862.38	-0.000
862.55	-0.000
862.72	-0.000
862.89	-0.000
863.06	-0.000
863.23	-0.000
863.40	-0.000
863.58	-0.000
863.75	-0.000
863.92	-0.000
864.09	-0.000
864.26	-0.000
864.43	-0.000
864.60	-0.000
864.77	-0.000
864.94	-0.000
865.11	-0.000
865.29	-0.000
865.46	-0.000
865.63	-0.000
865.80	-0.000
865.97	-0.000
866.14	-0.000
866.31	-0.000
866.48	-0.000
866.65	-0.000
866.82	-0.000
866.99	-0.000
867.16	-0.000
867.34	-0.000
867.51	-0.000
867.68	-0.000
867.85	-0.000
868.02	-0.000
868.19	-0.000
868.36	-0.000
868.53	-0.000
868.70	-0.000
868.87	-0.000
869.04	-0.000
869.21	-0.000
869.38	-0.000
869.55	-0.000
869.72	-0.000
869.89	-0.000
870.06	-0.000
870.24	-0.000
870.41	-0.000
870.58	-0.000
870.75	-0.000
870.92	-0.000
871.09	-0.000
871.26	-0.000
871.43	-0.000
871.60	-0.000
871.77	-0.000
871.94	-0.000
872.11	-0.000
872.28	-0.000
872.45	-0.000
872.62	-0.000
872.79	-0.000
872.96	-0.000
873.13	-0.000
873.30	-0.000
873.47	-0.000
873.64	-0.000
873.81	-0.000
873.98	-0.000
874.15	-0.000
874.32	-0.000
874.49	-0.000
874.66	-0.000
874.83	-0.000
875.00	-0.000
875.17	-0.000
875.34	-0.000
875.51	-0.000
875.68	-0.000
875.85	-0.000
876.02	-0.000
876.19	-0.000
876.36	-0.000
876.53	-0.000
876.70	-0.000
876.87	-0.000
877.04	-0.000
877.21	-0.000
877.38	-0.000
877.55	-0.000
877.72	-0.000
877.89	-0.000
878.06	-0.000
878.23	-0.000
878.39	-0.000
878.56	-0.000
878.73	-0.000
878.90	-0.000
879.07	-0.000
879.24	-0.000
879.41	-0.000
879.58	-0.000
879.75	-0.000
879.92	-0.000
880.09	-0.000
880.26	-0.000
880.43	-0.000
880.60	-0.000
880.77	-0.000
880.94	-0.000
881.11	-0.000
881.27	-0.000
881.44	-0.000
881.61	-0.000
881.78	-0.000
881.95	-0.000
882.12	-0.000
882.29	-0.000
882.46	-0.000
882.63	-0.000
882.80	-0.000
882.97	-0.000
883.14	-0.000
883.30	-0.000
883.47	-0.000
883.64	-0.000
883.81	-0.000
883.98	-0.000
884.15	-0.000
884.32	-0.000
884.49	-0.000
884.66	-0.000
884.82	-0.000
884.99	-0.000
885.16	-0.000
885.33	-0.000
885.50	-0.000
885.67	-0.000
885.84	-0.000
886.01	-0.000
886.17	-0.000
886.34	-0.000
886.51	-0.000
886.68	-0.000
886.85	-0.000
887.02	-0.000
887.19	-0.000
887.36	-0.000
887.52	-0.000
887.69	-0.000
887.86	-0.000
888.03	-0.000
888.20	-0.000
888.37	-0.000
888.54	-0.000
888.70	-0.000
888.87	-0.000
889.04	-0.000
889.21	-0.000
889.38	-0.000
889.55	-0.000
889.71	-0.000
889.88	-0.000
890.05	-0.000
890.22	-0.000
890.39	-0.000
>>>>>End Processed Spectral Data<<<<<
