SpectraSuite Data File
++++++++++++++++++++++++++++++++++++
Date: Fri Jun 19 12:36:21 CEST 2015
User: introlabs
Dark Spectrum Present: Yes
Reference Spectrum Present: Yes
Number of Sampled Component Spectra: 1
Spectrometers: USB4H08886
Integration Time (usec): 745692 (USB4H08886)
Spectra Averaged: 5 (USB4H08886)
Boxcar Smoothing: 5 (USB4H08886)
Correct for Electrical Dark: Yes (USB4H08886)
Strobe/Lamp Enabled: No (USB4H08886)
Correct for Detector Non-linearity: Yes (USB4H08886)
Correct for Stray Light: Yes (USB4H08886)
Number of Pixels in Processed Spectrum: 3648
>>>>>Begin Processed Spectral Data<<<<<
178.14	-0.000
178.36	-0.000
178.57	-0.000
178.79	-0.000
179.01	-0.000
179.22	-0.000
179.44	-0.000
179.65	-0.000
179.87	-0.000
180.08	-0.000
180.30	-0.000
180.52	-0.000
180.73	-0.000
180.95	-0.000
181.16	-0.000
181.38	-0.000
181.59	-0.000
181.81	-0.000
182.03	-0.000
182.24	-0.000
182.46	-0.000
182.67	-0.000
182.89	-0.000
183.10	-0.000
183.32	-0.000
183.54	-0.000
183.75	-0.000
183.97	-0.000
184.18	-0.000
184.40	-0.000
184.61	-0.000
184.83	-0.000
185.04	-0.000
185.26	-0.000
185.48	-0.000
185.69	-0.000
185.91	-0.000
186.12	-0.000
186.34	-0.000
186.55	-0.000
186.77	-0.000
186.98	-0.000
187.20	-0.000
187.42	-0.000
187.63	-0.000
187.85	-0.000
188.06	-0.000
188.28	-0.000
188.49	-0.000
188.71	-0.000
188.92	-0.000
189.14	-0.000
189.36	-0.000
189.57	-0.000
189.79	-0.000
190.00	-0.000
190.22	-0.000
190.43	-0.000
190.65	-0.000
190.86	-0.000
191.08	-0.000
191.29	-0.000
191.51	-0.000
191.72	-0.000
191.94	-0.000
192.16	-0.000
192.37	-0.000
192.59	-0.000
192.80	-0.000
193.02	-0.000
193.23	-0.000
193.45	-0.000
193.66	-0.000
193.88	-0.000
194.09	-0.000
194.31	-0.000
194.52	-0.000
194.74	-0.000
194.95	-0.000
195.17	-0.000
195.38	-0.000
195.60	-0.000
195.81	-0.000
196.03	-0.000
196.25	-0.000
196.46	-0.000
196.68	-0.000
196.89	-0.000
197.11	-0.000
197.32	-0.000
197.54	-0.000
197.75	-0.000
197.97	-0.000
198.18	-0.000
198.40	-0.000
198.61	-0.000
198.83	-0.000
199.04	-0.000
199.26	-0.000
199.47	-0.000
199.69	-0.000
199.90	-0.000
200.12	-0.000
200.33	-0.000
200.55	-0.000
200.76	-0.000
200.98	-0.000
201.19	-0.000
201.41	-0.000
201.62	-0.000
201.84	-0.000
202.05	-0.000
202.27	-0.000
202.48	-0.000
202.70	-0.000
202.91	-0.000
203.13	-0.000
203.34	-0.000
203.56	-0.000
203.77	-0.000
203.99	-0.000
204.20	-0.000
204.42	-0.000
204.63	-0.000
204.85	-0.000
205.06	-0.000
205.28	-0.000
205.49	-0.000
205.71	-0.000
205.92	-0.000
206.14	-0.000
206.35	-0.000
206.56	-0.000
206.78	-0.000
206.99	-0.000
207.21	-0.000
207.42	-0.000
207.64	-0.000
207.85	-0.000
208.07	-0.000
208.28	-0.000
208.50	-0.000
208.71	-0.000
208.93	-0.000
209.14	-0.000
209.36	-0.000
209.57	-0.000
209.79	-0.000
210.00	-0.000
210.22	-0.000
210.43	-0.000
210.64	-0.000
210.86	-0.000
211.07	-0.000
211.29	-0.000
211.50	-0.000
211.72	-0.000
211.93	-0.000
212.15	-0.000
212.36	-0.000
212.58	-0.000
212.79	-0.000
213.01	-0.000
213.22	-0.000
213.43	-0.000
213.65	-0.000
213.86	-0.000
214.08	-0.000
214.29	-0.000
214.51	-0.000
214.72	-0.000
214.94	-0.000
215.15	-0.000
215.36	-0.000
215.58	-0.000
215.79	-0.000
216.01	-0.000
216.22	-0.000
216.44	-0.000
216.65	-0.000
216.87	-0.000
217.08	-0.000
217.29	-0.000
217.51	-0.000
217.72	-0.000
217.94	-0.000
218.15	-0.000
218.37	-0.000
218.58	-0.000
218.80	-0.000
219.01	-0.000
219.22	-0.000
219.44	-0.000
219.65	-0.000
219.87	-0.000
220.08	-0.000
220.30	-0.000
220.51	-0.000
220.72	-0.000
220.94	-0.000
221.15	-0.000
221.37	-0.000
221.58	-0.000
221.79	-0.000
222.01	-0.000
222.22	-0.000
222.44	-0.000
222.65	-0.000
222.87	-0.000
223.08	-0.000
223.29	-0.000
223.51	-0.000
223.72	-0.000
223.94	-0.000
224.15	-0.000
224.36	-0.000
224.58	-0.000
224.79	-0.000
225.01	-0.000
225.22	-0.000
225.44	-0.000
225.65	-0.000
225.86	-0.000
226.08	-0.000
226.29	-0.000
226.51	-0.000
226.72	-0.000
226.93	-0.000
227.15	-0.000
227.36	-0.000
227.58	-0.000
227.79	-0.000
228.00	-0.000
228.22	-0.000
228.43	-0.000
228.65	-0.000
228.86	-0.000
229.07	-0.000
229.29	-0.000
229.50	-0.000
229.72	-0.000
229.93	-0.000
230.14	-0.000
230.36	-0.000
230.57	-0.000
230.78	-0.000
231.00	-0.000
231.21	-0.000
231.43	-0.000
231.64	-0.000
231.85	-0.000
232.07	-0.000
232.28	-0.000
232.50	-0.000
232.71	-0.000
232.92	-0.000
233.14	-0.000
233.35	-0.000
233.56	-0.000
233.78	-0.000
233.99	-0.000
234.21	-0.000
234.42	-0.000
234.63	-0.000
234.85	-0.000
235.06	-0.000
235.27	-0.000
235.49	-0.000
235.70	-0.000
235.91	-0.000
236.13	-0.000
236.34	-0.000
236.56	-0.000
236.77	-0.000
236.98	-0.000
237.20	-0.000
237.41	-0.000
237.62	-0.000
237.84	-0.000
238.05	-0.000
238.26	-0.000
238.48	-0.000
238.69	-0.000
238.91	-0.000
239.12	-0.000
239.33	-0.000
239.55	-0.000
239.76	-0.000
239.97	-0.000
240.19	-0.000
240.40	-0.000
240.61	-0.000
240.83	-0.000
241.04	-0.000
241.25	-0.000
241.47	-0.000
241.68	-0.000
241.89	-0.000
242.11	-0.000
242.32	-0.000
242.53	-0.000
242.75	-0.000
242.96	-0.000
243.17	-0.000
243.39	-0.000
243.60	-0.000
243.81	-0.000
244.03	-0.000
244.24	-0.000
244.45	-0.000
244.67	-0.000
244.88	-0.000
245.09	-0.000
245.31	-0.000
245.52	-0.000
245.73	-0.000
245.95	-0.000
246.16	-0.000
246.37	-0.000
246.59	-0.000
246.80	-0.000
247.01	-0.000
247.23	-0.000
247.44	-0.000
247.65	-0.000
247.87	-0.000
248.08	-0.000
248.29	-0.000
248.51	-0.000
248.72	-0.000
248.93	-0.000
249.15	-0.000
249.36	-0.000
249.57	-0.000
249.78	-0.000
250.00	-0.000
250.21	-0.000
250.42	-0.000
250.64	-0.000
250.85	-0.000
251.06	-0.000
251.28	-0.000
251.49	-0.000
251.70	-0.000
251.92	-0.000
252.13	-0.000
252.34	-0.000
252.55	-0.000
252.77	-0.000
252.98	-0.000
253.19	-0.000
253.41	-0.000
253.62	-0.000
253.83	-0.000
254.05	-0.000
254.26	-0.000
254.47	-0.000
254.68	-0.000
254.90	-0.000
255.11	-0.000
255.32	-0.000
255.54	-0.000
255.75	-0.000
255.96	-0.000
256.17	-0.000
256.39	-0.000
256.60	-0.000
256.81	-0.000
257.03	-0.000
257.24	-0.000
257.45	-0.000
257.66	-0.000
257.88	-0.000
258.09	-0.000
258.30	-0.000
258.51	-0.000
258.73	-0.000
258.94	-0.000
259.15	-0.000
259.37	-0.000
259.58	-0.000
259.79	-0.000
260.00	-0.000
260.22	-0.000
260.43	-0.000
260.64	-0.000
260.85	-0.000
261.07	-0.000
261.28	-0.000
261.49	-0.000
261.71	-0.000
261.92	-0.000
262.13	-0.000
262.34	-0.000
262.56	-0.000
262.77	-0.000
262.98	-0.000
263.19	-0.000
263.41	-0.000
263.62	-0.000
263.83	-0.000
264.04	-0.000
264.26	-0.000
264.47	-0.000
264.68	-0.000
264.89	-0.000
265.11	-0.000
265.32	-0.000
265.53	-0.000
265.74	-0.000
265.96	-0.000
266.17	-0.000
266.38	-0.000
266.59	-0.000
266.81	-0.000
267.02	-0.000
267.23	-0.000
267.44	-0.000
267.65	-0.000
267.87	-0.000
268.08	-0.000
268.29	-0.000
268.50	-0.000
268.72	-0.000
268.93	-0.000
269.14	-0.000
269.35	-0.000
269.57	-0.000
269.78	-0.000
269.99	-0.000
270.20	-0.000
270.41	-0.000
270.63	-0.000
270.84	-0.000
271.05	-0.000
271.26	-0.000
271.48	-0.000
271.69	-0.000
271.90	-0.000
272.11	-0.000
272.32	-0.000
272.54	-0.000
272.75	-0.000
272.96	-0.000
273.17	-0.000
273.39	-0.000
273.60	-0.000
273.81	-0.000
274.02	-0.000
274.23	-0.000
274.45	-0.000
274.66	-0.000
274.87	-0.000
275.08	-0.000
275.29	-0.000
275.51	-0.000
275.72	-0.000
275.93	-0.000
276.14	-0.000
276.35	-0.000
276.57	-0.000
276.78	-0.000
276.99	-0.000
277.20	-0.000
277.41	-0.000
277.63	-0.000
277.84	-0.000
278.05	-0.000
278.26	-0.000
278.47	-0.000
278.69	-0.000
278.90	-0.000
279.11	-0.000
279.32	-0.000
279.53	-0.000
279.74	-0.000
279.96	-0.000
280.17	-0.000
280.38	-0.000
280.59	-0.000
280.80	-0.000
281.02	-0.000
281.23	-0.000
281.44	-0.000
281.65	-0.000
281.86	-0.000
282.07	-0.000
282.29	-0.000
282.50	-0.000
282.71	-0.000
282.92	-0.000
283.13	-0.000
283.35	-0.000
283.56	-0.000
283.77	-0.000
283.98	-0.000
284.19	-0.000
284.40	-0.000
284.62	-0.000
284.83	-0.000
285.04	-0.000
285.25	-0.000
285.46	-0.000
285.67	-0.000
285.88	-0.000
286.10	-0.000
286.31	-0.000
286.52	-0.000
286.73	-0.000
286.94	-0.000
287.15	-0.000
287.37	-0.000
287.58	-0.000
287.79	-0.000
288.00	-0.000
288.21	-0.000
288.42	-0.000
288.63	-0.000
288.85	-0.000
289.06	-0.000
289.27	-0.000
289.48	-0.000
289.69	-0.000
289.90	-0.000
290.11	-0.000
290.33	-0.000
290.54	-0.000
290.75	-0.000
290.96	-0.000
291.17	-0.000
291.38	-0.000
291.59	-0.000
291.81	-0.000
292.02	-0.000
292.23	-0.000
292.44	-0.000
292.65	-0.000
292.86	-0.000
293.07	-0.000
293.28	-0.000
293.50	-0.000
293.71	-0.000
293.92	-0.000
294.13	-0.000
294.34	-0.000
294.55	-0.000
294.76	-0.000
294.97	-0.000
295.19	-0.000
295.40	-0.000
295.61	-0.000
295.82	3.245
296.03	2.265
296.24	2.602
296.45	1.862
296.66	1.603
296.87	1.618
297.09	1.700
297.30	1.835
297.51	1.566
297.72	1.536
297.93	1.616
298.14	1.593
298.35	1.543
298.56	1.516
298.77	1.631
298.99	1.610
299.20	1.569
299.41	1.545
299.62	1.523
299.83	1.515
300.04	1.456
300.25	1.447
300.46	1.488
300.67	1.462
300.88	1.413
301.10	1.408
301.31	1.471
301.52	1.423
301.73	1.367
301.94	1.364
302.15	1.384
302.36	1.345
302.57	1.294
302.78	1.301
302.99	1.340
303.20	1.353
303.41	1.276
303.63	1.258
303.84	1.269
304.05	1.269
304.26	1.218
304.47	1.223
304.68	1.235
304.89	1.225
305.10	1.183
305.31	1.174
305.52	1.209
305.73	1.204
305.94	1.168
306.15	1.162
306.37	1.184
306.58	1.191
306.79	1.160
307.00	1.171
307.21	1.207
307.42	1.203
307.63	1.170
307.84	1.144
308.05	1.178
308.26	1.177
308.47	1.151
308.68	1.147
308.89	1.150
309.10	1.146
309.31	1.112
309.52	1.107
309.73	1.120
309.95	1.112
310.16	1.086
310.37	1.078
310.58	1.096
310.79	1.096
311.00	1.089
311.21	1.089
311.42	1.094
311.63	1.088
311.84	1.068
312.05	1.066
312.26	1.090
312.47	1.102
312.68	1.078
312.89	1.066
313.10	1.074
313.31	1.053
313.52	1.052
313.73	1.054
313.94	1.060
314.15	1.044
314.36	1.023
314.57	1.015
314.78	1.004
314.99	0.999
315.21	0.984
315.42	0.989
315.63	1.002
315.84	0.983
316.05	0.967
316.26	0.975
316.47	0.993
316.68	0.991
316.89	0.971
317.10	0.989
317.31	0.997
317.52	0.999
317.73	0.977
317.94	0.977
318.15	1.014
318.36	1.015
318.57	0.996
318.78	0.987
318.99	1.020
319.20	1.020
319.41	0.989
319.62	0.989
319.83	1.002
320.04	0.998
320.25	0.983
320.46	0.955
320.67	0.957
320.88	0.956
321.09	0.939
321.30	0.925
321.51	0.939
321.72	0.937
321.93	0.921
322.14	0.915
322.35	0.940
322.56	0.941
322.77	0.929
322.98	0.940
323.19	0.947
323.40	0.952
323.61	0.932
323.82	0.926
324.03	0.932
324.24	0.929
324.45	0.915
324.66	0.899
324.87	0.899
325.08	0.899
325.29	0.880
325.50	0.880
325.71	0.886
325.92	0.893
326.13	0.880
326.34	0.881
326.55	0.891
326.76	0.890
326.97	0.878
327.18	0.872
327.39	0.897
327.60	0.898
327.80	0.891
328.01	0.889
328.22	0.890
328.43	0.893
328.64	0.882
328.85	0.885
329.06	0.889
329.27	0.889
329.48	0.884
329.69	0.866
329.90	0.877
330.11	0.871
330.32	0.864
330.53	0.859
330.74	0.860
330.95	0.858
331.16	0.843
331.37	0.849
331.58	0.850
331.79	0.850
332.00	0.840
332.21	0.833
332.42	0.838
332.63	0.829
332.83	0.824
333.04	0.825
333.25	0.837
333.46	0.836
333.67	0.824
333.88	0.826
334.09	0.835
334.30	0.833
334.51	0.825
334.72	0.822
334.93	0.826
335.14	0.825
335.35	0.818
335.56	0.814
335.77	0.824
335.98	0.822
336.18	0.816
336.39	0.811
336.60	0.816
336.81	0.814
337.02	0.812
337.23	0.817
337.44	0.821
337.65	0.823
337.86	0.814
338.07	0.809
338.28	0.816
338.49	0.813
338.70	0.805
338.91	0.812
339.11	0.818
339.32	0.814
339.53	0.802
339.74	0.799
339.95	0.797
340.16	0.794
340.37	0.786
340.58	0.784
340.79	0.789
341.00	0.789
341.21	0.777
341.41	0.778
341.62	0.781
341.83	0.782
342.04	0.776
342.25	0.786
342.46	0.791
342.67	0.790
342.88	0.782
343.09	0.782
343.30	0.789
343.50	0.793
343.71	0.784
343.92	0.782
344.13	0.789
344.34	0.788
344.55	0.773
344.76	0.772
344.97	0.778
345.18	0.777
345.38	0.773
345.59	0.768
345.80	0.768
346.01	0.765
346.22	0.760
346.43	0.755
346.64	0.764
346.85	0.763
347.06	0.757
347.26	0.757
347.47	0.762
347.68	0.757
347.89	0.753
348.10	0.749
348.31	0.757
348.52	0.757
348.73	0.753
348.93	0.750
349.14	0.753
349.35	0.752
349.56	0.746
349.77	0.742
349.98	0.749
350.19	0.747
350.39	0.741
350.60	0.737
350.81	0.753
351.02	0.751
351.23	0.747
351.44	0.750
351.65	0.755
351.86	0.752
352.06	0.750
352.27	0.750
352.48	0.753
352.69	0.753
352.90	0.747
353.11	0.734
353.31	0.741
353.52	0.737
353.73	0.728
353.94	0.728
354.15	0.735
354.36	0.735
354.57	0.726
354.77	0.727
354.98	0.727
355.19	0.727
355.40	0.726
355.61	0.731
355.82	0.737
356.02	0.737
356.23	0.730
356.44	0.733
356.65	0.738
356.86	0.739
357.07	0.732
357.27	0.735
357.48	0.738
357.69	0.734
357.90	0.719
358.11	0.717
358.32	0.721
358.52	0.724
358.73	0.714
358.94	0.716
359.15	0.720
359.36	0.720
359.56	0.715
359.77	0.713
359.98	0.720
360.19	0.719
360.40	0.715
360.61	0.715
360.81	0.715
361.02	0.716
361.23	0.707
361.44	0.706
361.65	0.708
361.85	0.708
362.06	0.706
362.27	0.708
362.48	0.711
362.69	0.713
362.89	0.708
363.10	0.709
363.31	0.714
363.52	0.718
363.73	0.713
363.93	0.713
364.14	0.716
364.35	0.717
364.56	0.707
364.77	0.709
364.97	0.711
365.18	0.712
365.39	0.706
365.60	0.702
365.81	0.703
366.01	0.703
366.22	0.700
366.43	0.699
366.64	0.703
366.84	0.708
367.05	0.704
367.26	0.704
367.47	0.706
367.68	0.707
367.88	0.704
368.09	0.703
368.30	0.706
368.51	0.706
368.71	0.705
368.92	0.709
369.13	0.708
369.34	0.707
369.55	0.706
369.75	0.706
369.96	0.712
370.17	0.713
370.38	0.708
370.58	0.707
370.79	0.713
371.00	0.710
371.21	0.701
371.41	0.707
371.62	0.712
371.83	0.707
372.04	0.704
372.24	0.698
372.45	0.700
372.66	0.700
372.87	0.696
373.07	0.694
373.28	0.696
373.49	0.699
373.70	0.688
373.90	0.687
374.11	0.697
374.32	0.697
374.53	0.696
374.73	0.697
374.94	0.700
375.15	0.700
375.36	0.697
375.56	0.705
375.77	0.706
375.98	0.707
376.19	0.704
376.39	0.698
376.60	0.702
376.81	0.703
377.02	0.699
377.22	0.698
377.43	0.697
377.64	0.697
377.84	0.688
378.05	0.693
378.26	0.699
378.47	0.697
378.67	0.694
378.88	0.691
379.09	0.692
379.30	0.692
379.50	0.689
379.71	0.693
379.92	0.696
380.12	0.695
380.33	0.686
380.54	0.684
380.75	0.692
380.95	0.692
381.16	0.689
381.37	0.689
381.57	0.692
381.78	0.692
381.99	0.691
382.20	0.690
382.40	0.693
382.61	0.693
382.82	0.689
383.02	0.682
383.23	0.685
383.44	0.686
383.64	0.683
383.85	0.685
384.06	0.689
384.27	0.686
384.47	0.684
384.68	0.684
384.89	0.690
385.09	0.689
385.30	0.687
385.51	0.686
385.71	0.690
385.92	0.691
386.13	0.688
386.33	0.689
386.54	0.691
386.75	0.690
386.95	0.685
387.16	0.680
387.37	0.684
387.58	0.683
387.78	0.681
387.99	0.679
388.20	0.681
388.40	0.678
388.61	0.673
388.82	0.675
389.02	0.678
389.23	0.678
389.44	0.676
389.64	0.676
389.85	0.686
390.06	0.686
390.26	0.686
390.47	0.685
390.68	0.688
390.88	0.686
391.09	0.682
391.30	0.682
391.50	0.682
391.71	0.682
391.92	0.679
392.12	0.672
392.33	0.673
392.53	0.672
392.74	0.672
392.95	0.671
393.15	0.674
393.36	0.675
393.57	0.673
393.77	0.675
393.98	0.677
394.19	0.677
394.39	0.676
394.60	0.677
394.81	0.679
395.01	0.677
395.22	0.675
395.43	0.676
395.63	0.681
395.84	0.681
396.04	0.677
396.25	0.679
396.46	0.681
396.66	0.679
396.87	0.676
397.08	0.673
397.28	0.675
397.49	0.676
397.69	0.672
397.90	0.667
398.11	0.669
398.31	0.669
398.52	0.665
398.73	0.666
398.93	0.665
399.14	0.665
399.34	0.663
399.55	0.664
399.76	0.664
399.96	0.665
400.17	0.663
400.37	0.661
400.58	0.668
400.79	0.669
400.99	0.666
401.20	0.671
401.41	0.674
401.61	0.675
401.82	0.679
402.02	0.679
402.23	0.680
402.44	0.680
402.64	0.679
402.85	0.674
403.05	0.673
403.26	0.672
403.47	0.665
403.67	0.664
403.88	0.665
404.08	0.659
404.29	0.657
404.50	0.656
404.70	0.657
404.91	0.656
405.11	0.653
405.32	0.654
405.52	0.654
405.73	0.655
405.94	0.652
406.14	0.655
406.35	0.657
406.55	0.657
406.76	0.655
406.97	0.655
407.17	0.658
407.38	0.658
407.58	0.656
407.79	0.658
407.99	0.661
408.20	0.661
408.41	0.657
408.61	0.655
408.82	0.656
409.02	0.656
409.23	0.653
409.43	0.652
409.64	0.653
409.84	0.653
410.05	0.650
410.26	0.648
410.46	0.647
410.67	0.646
410.87	0.647
411.08	0.648
411.28	0.650
411.49	0.652
411.69	0.649
411.90	0.650
412.11	0.652
412.31	0.653
412.52	0.651
412.72	0.651
412.93	0.653
413.13	0.651
413.34	0.648
413.54	0.649
413.75	0.652
413.95	0.651
414.16	0.648
414.37	0.650
414.57	0.651
414.78	0.654
414.98	0.652
415.19	0.653
415.39	0.651
415.60	0.653
415.80	0.652
416.01	0.650
416.21	0.653
416.42	0.653
416.62	0.648
416.83	0.648
417.03	0.648
417.24	0.649
417.44	0.646
417.65	0.646
417.86	0.646
418.06	0.644
418.27	0.642
418.47	0.644
418.68	0.645
418.88	0.645
419.09	0.644
419.29	0.644
419.50	0.645
419.70	0.645
419.91	0.643
420.11	0.640
420.32	0.644
420.52	0.643
420.73	0.642
420.93	0.642
421.14	0.644
421.34	0.643
421.55	0.639
421.75	0.639
421.96	0.642
422.16	0.642
422.37	0.641
422.57	0.639
422.78	0.641
422.98	0.638
423.19	0.635
423.39	0.634
423.60	0.638
423.80	0.640
424.01	0.638
424.21	0.640
424.42	0.641
424.62	0.641
424.83	0.640
425.03	0.640
425.23	0.643
425.44	0.644
425.64	0.644
425.85	0.643
426.05	0.645
426.26	0.646
426.46	0.642
426.67	0.641
426.87	0.647
427.08	0.647
427.28	0.644
427.49	0.645
427.69	0.646
427.90	0.645
428.10	0.642
428.31	0.641
428.51	0.642
428.71	0.642
428.92	0.643
429.12	0.640
429.33	0.642
429.53	0.646
429.74	0.649
429.94	0.649
430.15	0.649
430.35	0.649
430.56	0.646
430.76	0.646
430.96	0.647
431.17	0.645
431.37	0.642
431.58	0.640
431.78	0.638
431.99	0.631
432.19	0.633
432.40	0.635
432.60	0.636
432.80	0.639
433.01	0.636
433.21	0.637
433.42	0.639
433.62	0.640
433.83	0.639
434.03	0.641
434.23	0.644
434.44	0.644
434.64	0.641
434.85	0.646
435.05	0.647
435.26	0.648
435.46	0.646
435.66	0.646
435.87	0.646
436.07	0.646
436.28	0.641
436.48	0.639
436.69	0.639
436.89	0.639
437.09	0.633
437.30	0.633
437.50	0.634
437.71	0.645
437.91	0.644
438.11	0.646
438.32	0.651
438.52	0.651
438.73	0.650
438.93	0.648
439.13	0.649
439.34	0.653
439.54	0.650
439.75	0.650
439.95	0.641
440.15	0.645
440.36	0.643
440.56	0.641
440.77	0.642
440.97	0.642
441.17	0.640
441.38	0.641
441.58	0.639
441.79	0.638
441.99	0.637
442.19	0.636
442.40	0.634
442.60	0.634
442.81	0.631
443.01	0.632
443.21	0.634
443.42	0.634
443.62	0.632
443.82	0.632
444.03	0.635
444.23	0.635
444.44	0.635
444.64	0.634
444.84	0.636
445.05	0.637
445.25	0.634
445.45	0.634
445.66	0.637
445.86	0.636
446.06	0.637
446.27	0.636
446.47	0.640
446.68	0.638
446.88	0.636
447.08	0.636
447.29	0.638
447.49	0.638
447.69	0.637
447.90	0.636
448.10	0.641
448.30	0.638
448.51	0.639
448.71	0.637
448.91	0.640
449.12	0.639
449.32	0.640
449.52	0.639
449.73	0.643
449.93	0.642
450.14	0.643
450.34	0.642
450.54	0.645
450.75	0.643
450.95	0.642
451.15	0.641
451.36	0.645
451.56	0.642
451.76	0.640
451.97	0.637
452.17	0.638
452.37	0.636
452.58	0.632
452.78	0.632
452.98	0.635
453.19	0.634
453.39	0.634
453.59	0.633
453.79	0.635
454.00	0.636
454.20	0.635
454.40	0.636
454.61	0.639
454.81	0.639
455.01	0.637
455.22	0.638
455.42	0.640
455.62	0.638
455.83	0.637
456.03	0.639
456.23	0.641
456.44	0.642
456.64	0.640
456.84	0.639
457.04	0.641
457.25	0.640
457.45	0.637
457.65	0.636
457.86	0.637
458.06	0.636
458.26	0.631
458.47	0.630
458.67	0.632
458.87	0.632
459.07	0.629
459.28	0.632
459.48	0.634
459.68	0.634
459.89	0.633
460.09	0.632
460.29	0.635
460.49	0.637
460.70	0.635
460.90	0.635
461.10	0.636
461.31	0.637
461.51	0.633
461.71	0.635
461.91	0.636
462.12	0.637
462.32	0.636
462.52	0.636
462.72	0.639
462.93	0.640
463.13	0.637
463.33	0.638
463.53	0.640
463.74	0.639
463.94	0.635
464.14	0.635
464.35	0.637
464.55	0.637
464.75	0.635
464.95	0.632
465.16	0.635
465.36	0.634
465.56	0.632
465.76	0.631
465.97	0.632
466.17	0.633
466.37	0.631
466.57	0.632
466.78	0.633
466.98	0.633
467.18	0.631
467.38	0.630
467.59	0.632
467.79	0.634
467.99	0.632
468.19	0.634
468.39	0.637
468.60	0.637
468.80	0.635
469.00	0.636
469.20	0.638
469.41	0.638
469.61	0.637
469.81	0.638
470.01	0.638
470.22	0.638
470.42	0.636
470.62	0.634
470.82	0.636
471.02	0.635
471.23	0.633
471.43	0.633
471.63	0.636
471.83	0.635
472.04	0.633
472.24	0.632
472.44	0.637
472.64	0.638
472.84	0.635
473.05	0.634
473.25	0.637
473.45	0.637
473.65	0.634
473.85	0.635
474.06	0.637
474.26	0.637
474.46	0.638
474.66	0.635
474.86	0.636
475.07	0.636
475.27	0.634
475.47	0.632
475.67	0.632
475.87	0.635
476.08	0.631
476.28	0.632
476.48	0.633
476.68	0.631
476.88	0.628
477.09	0.629
477.29	0.632
477.49	0.632
477.69	0.631
477.89	0.632
478.09	0.631
478.30	0.634
478.50	0.631
478.70	0.631
478.90	0.632
479.10	0.635
479.31	0.635
479.51	0.633
479.71	0.634
479.91	0.634
480.11	0.632
480.31	0.632
480.52	0.632
480.72	0.632
480.92	0.630
481.12	0.629
481.32	0.628
481.52	0.626
481.72	0.626
481.93	0.630
482.13	0.630
482.33	0.630
482.53	0.627
482.73	0.627
482.93	0.629
483.14	0.628
483.34	0.627
483.54	0.627
483.74	0.627
483.94	0.626
484.14	0.622
484.34	0.622
484.55	0.623
484.75	0.623
484.95	0.622
485.15	0.621
485.35	0.622
485.55	0.622
485.75	0.620
485.96	0.620
486.16	0.622
486.36	0.622
486.56	0.620
486.76	0.620
486.96	0.621
487.16	0.620
487.36	0.619
487.57	0.618
487.77	0.619
487.97	0.620
488.17	0.618
488.37	0.616
488.57	0.618
488.77	0.618
488.97	0.616
489.18	0.616
489.38	0.619
489.58	0.619
489.78	0.619
489.98	0.618
490.18	0.618
490.38	0.619
490.58	0.617
490.78	0.618
490.98	0.620
491.19	0.620
491.39	0.619
491.59	0.618
491.79	0.621
491.99	0.621
492.19	0.621
492.39	0.624
492.59	0.624
492.79	0.626
492.99	0.626
493.20	0.627
493.40	0.627
493.60	0.629
493.80	0.626
494.00	0.623
494.20	0.624
494.40	0.624
494.60	0.621
494.80	0.626
495.00	0.625
495.20	0.623
495.40	0.621
495.61	0.623
495.81	0.623
496.01	0.627
496.21	0.628
496.41	0.627
496.61	0.629
496.81	0.628
497.01	0.622
497.21	0.622
497.41	0.623
497.61	0.623
497.81	0.621
498.01	0.621
498.21	0.619
498.41	0.617
498.61	0.617
498.82	0.618
499.02	0.620
499.22	0.621
499.42	0.620
499.62	0.621
499.82	0.622
500.02	0.623
500.22	0.621
500.42	0.623
500.62	0.625
500.82	0.625
501.02	0.622
501.22	0.623
501.42	0.623
501.62	0.625
501.82	0.624
502.02	0.624
502.22	0.624
502.42	0.626
502.62	0.622
502.82	0.623
503.02	0.624
503.22	0.624
503.42	0.621
503.63	0.621
503.83	0.620
504.03	0.619
504.23	0.617
504.43	0.618
504.63	0.619
504.83	0.619
505.03	0.617
505.23	0.619
505.43	0.622
505.63	0.622
505.83	0.622
506.03	0.623
506.23	0.626
506.43	0.626
506.63	0.625
506.83	0.624
507.03	0.626
507.23	0.626
507.43	0.623
507.63	0.624
507.83	0.625
508.03	0.625
508.23	0.624
508.43	0.623
508.63	0.625
508.83	0.625
509.03	0.626
509.23	0.626
509.43	0.627
509.63	0.627
509.83	0.626
510.03	0.628
510.23	0.630
510.43	0.630
510.63	0.630
510.83	0.630
511.03	0.632
511.23	0.629
511.43	0.628
511.63	0.630
511.83	0.633
512.03	0.632
512.22	0.629
512.42	0.628
512.62	0.630
512.82	0.630
513.02	0.628
513.22	0.628
513.42	0.631
513.62	0.633
513.82	0.631
514.02	0.630
514.22	0.632
514.42	0.633
514.62	0.632
514.82	0.632
515.02	0.635
515.22	0.639
515.42	0.636
515.62	0.638
515.82	0.638
516.02	0.639
516.22	0.638
516.42	0.639
516.62	0.641
516.82	0.642
517.01	0.640
517.21	0.639
517.41	0.643
517.61	0.644
517.81	0.639
518.01	0.639
518.21	0.639
518.41	0.638
518.61	0.637
518.81	0.637
519.01	0.638
519.21	0.638
519.41	0.637
519.61	0.633
519.81	0.635
520.00	0.636
520.20	0.636
520.40	0.639
520.60	0.640
520.80	0.639
521.00	0.639
521.20	0.640
521.40	0.646
521.60	0.646
521.80	0.644
522.00	0.645
522.20	0.648
522.39	0.647
522.59	0.643
522.79	0.645
522.99	0.648
523.19	0.647
523.39	0.643
523.59	0.641
523.79	0.645
523.99	0.647
524.19	0.646
524.38	0.644
524.58	0.646
524.78	0.647
524.98	0.645
525.18	0.647
525.38	0.649
525.58	0.649
525.78	0.647
525.98	0.646
526.18	0.647
526.37	0.646
526.57	0.647
526.77	0.647
526.97	0.648
527.17	0.648
527.37	0.643
527.57	0.645
527.77	0.647
527.96	0.647
528.16	0.645
528.36	0.646
528.56	0.649
528.76	0.647
528.96	0.645
529.16	0.647
529.36	0.650
529.55	0.651
529.75	0.647
529.95	0.648
530.15	0.650
530.35	0.653
530.55	0.650
530.75	0.651
530.94	0.653
531.14	0.654
531.34	0.651
531.54	0.649
531.74	0.653
531.94	0.656
532.13	0.653
532.33	0.655
532.53	0.654
532.73	0.654
532.93	0.651
533.13	0.652
533.33	0.652
533.52	0.653
533.72	0.655
533.92	0.653
534.12	0.652
534.32	0.652
534.52	0.650
534.71	0.652
534.91	0.656
535.11	0.658
535.31	0.655
535.51	0.657
535.71	0.659
535.90	0.656
536.10	0.657
536.30	0.659
536.50	0.660
536.70	0.660
536.89	0.657
537.09	0.656
537.29	0.658
537.49	0.658
537.69	0.656
537.89	0.657
538.08	0.658
538.28	0.656
538.48	0.656
538.68	0.658
538.88	0.660
539.07	0.661
539.27	0.658
539.47	0.657
539.67	0.658
539.87	0.660
540.06	0.657
540.26	0.657
540.46	0.660
540.66	0.657
540.86	0.653
541.05	0.653
541.25	0.655
541.45	0.656
541.65	0.654
541.84	0.655
542.04	0.656
542.24	0.657
542.44	0.655
542.64	0.656
542.83	0.659
543.03	0.660
543.23	0.657
543.43	0.657
543.62	0.659
543.82	0.660
544.02	0.658
544.22	0.658
544.42	0.662
544.61	0.663
544.81	0.660
545.01	0.659
545.21	0.662
545.40	0.662
545.60	0.660
545.80	0.664
546.00	0.665
546.19	0.664
546.39	0.662
546.59	0.660
546.79	0.661
546.98	0.662
547.18	0.661
547.38	0.662
547.58	0.665
547.77	0.665
547.97	0.660
548.17	0.662
548.37	0.663
548.56	0.663
548.76	0.662
548.96	0.664
549.16	0.667
549.35	0.667
549.55	0.664
549.75	0.665
549.95	0.669
550.14	0.669
550.34	0.667
550.54	0.672
550.73	0.676
550.93	0.677
551.13	0.673
551.33	0.672
551.52	0.672
551.72	0.673
551.92	0.670
552.12	0.670
552.31	0.671
552.51	0.671
552.71	0.665
552.90	0.665
553.10	0.666
553.30	0.666
553.50	0.665
553.69	0.667
553.89	0.668
554.09	0.668
554.28	0.664
554.48	0.666
554.68	0.669
554.87	0.670
555.07	0.666
555.27	0.666
555.47	0.668
555.66	0.669
555.86	0.666
556.06	0.669
556.25	0.671
556.45	0.680
556.65	0.677
556.84	0.680
557.04	0.683
557.24	0.685
557.43	0.685
557.63	0.687
557.83	0.690
558.02	0.690
558.22	0.693
558.42	0.694
558.61	0.687
558.81	0.687
559.01	0.683
559.21	0.682
559.40	0.684
559.60	0.684
559.80	0.679
559.99	0.680
560.19	0.683
560.39	0.677
560.58	0.674
560.78	0.674
560.97	0.679
561.17	0.677
561.37	0.674
561.56	0.675
561.76	0.676
561.96	0.676
562.15	0.673
562.35	0.676
562.55	0.678
562.74	0.678
562.94	0.676
563.14	0.673
563.33	0.675
563.53	0.675
563.73	0.673
563.92	0.675
564.12	0.678
564.31	0.680
564.51	0.677
564.71	0.679
564.90	0.683
565.10	0.683
565.30	0.686
565.49	0.687
565.69	0.690
565.89	0.689
566.08	0.686
566.28	0.687
566.47	0.689
566.67	0.687
566.87	0.683
567.06	0.684
567.26	0.691
567.46	0.686
567.65	0.685
567.85	0.687
568.04	0.690
568.24	0.688
568.44	0.685
568.63	0.683
568.83	0.686
569.02	0.684
569.22	0.679
569.42	0.676
569.61	0.679
569.81	0.677
570.00	0.673
570.20	0.676
570.40	0.677
570.59	0.677
570.79	0.674
570.98	0.672
571.18	0.674
571.38	0.674
571.57	0.670
571.77	0.668
571.96	0.673
572.16	0.670
572.35	0.664
572.55	0.666
572.75	0.665
572.94	0.665
573.14	0.664
573.33	0.664
573.53	0.665
573.73	0.664
573.92	0.662
574.12	0.660
574.31	0.663
574.51	0.663
574.70	0.659
574.90	0.661
575.09	0.664
575.29	0.664
575.49	0.660
575.68	0.661
575.88	0.663
576.07	0.665
576.27	0.663
576.46	0.662
576.66	0.661
576.86	0.660
577.05	0.657
577.25	0.656
577.44	0.658
577.64	0.658
577.83	0.656
578.03	0.656
578.22	0.656
578.42	0.655
578.61	0.652
578.81	0.654
579.00	0.655
579.20	0.655
579.40	0.653
579.59	0.652
579.79	0.653
579.98	0.653
580.18	0.652
580.37	0.652
580.57	0.655
580.76	0.660
580.96	0.658
581.15	0.658
581.35	0.661
581.54	0.660
581.74	0.659
581.93	0.661
582.13	0.663
582.32	0.660
582.52	0.659
582.71	0.658
582.91	0.655
583.10	0.654
583.30	0.653
583.49	0.652
583.69	0.656
583.88	0.658
584.08	0.657
584.27	0.659
584.47	0.662
584.66	0.662
584.86	0.660
585.05	0.662
585.25	0.666
585.44	0.665
585.64	0.663
585.83	0.660
586.03	0.661
586.22	0.660
586.42	0.656
586.61	0.658
586.81	0.661
587.00	0.661
587.20	0.659
587.39	0.659
587.59	0.662
587.78	0.663
587.98	0.664
588.17	0.664
588.37	0.667
588.56	0.669
588.76	0.665
588.95	0.665
589.15	0.669
589.34	0.671
589.54	0.669
589.73	0.669
589.92	0.673
590.12	0.672
590.31	0.669
590.51	0.673
590.70	0.675
590.90	0.675
591.09	0.671
591.29	0.670
591.48	0.671
591.68	0.672
591.87	0.670
592.06	0.669
592.26	0.672
592.45	0.672
592.65	0.666
592.84	0.665
593.04	0.669
593.23	0.672
593.43	0.669
593.62	0.669
593.81	0.671
594.01	0.670
594.20	0.668
594.40	0.667
594.59	0.670
594.79	0.672
594.98	0.669
595.17	0.668
595.37	0.668
595.56	0.670
595.76	0.668
595.95	0.669
596.14	0.672
596.34	0.673
596.53	0.670
596.73	0.671
596.92	0.672
597.12	0.675
597.31	0.674
597.50	0.673
597.70	0.675
597.89	0.674
598.09	0.671
598.28	0.672
598.47	0.675
598.67	0.674
598.86	0.669
599.06	0.672
599.25	0.673
599.44	0.672
599.64	0.669
599.83	0.667
600.03	0.671
600.22	0.672
600.41	0.671
600.61	0.670
600.80	0.673
601.00	0.675
601.19	0.670
601.38	0.669
601.58	0.672
601.77	0.673
601.96	0.675
602.16	0.674
602.35	0.684
602.55	0.681
602.74	0.680
602.93	0.680
603.13	0.686
603.32	0.687
603.51	0.685
603.71	0.688
603.90	0.689
604.09	0.689
604.29	0.686
604.48	0.679
604.68	0.682
604.87	0.681
605.06	0.677
605.26	0.675
605.45	0.676
605.64	0.676
605.84	0.671
606.03	0.670
606.22	0.670
606.42	0.669
606.61	0.666
606.80	0.666
607.00	0.669
607.19	0.670
607.38	0.667
607.58	0.668
607.77	0.671
607.96	0.671
608.16	0.669
608.35	0.674
608.54	0.678
608.74	0.682
608.93	0.686
609.12	0.689
609.32	0.692
609.51	0.696
609.70	0.694
609.90	0.695
610.09	0.700
610.28	0.706
610.48	0.698
610.67	0.700
610.86	0.701
611.06	0.694
611.25	0.692
611.44	0.691
611.64	0.692
611.83	0.695
612.02	0.691
612.21	0.690
612.41	0.689
612.60	0.688
612.79	0.683
612.99	0.683
613.18	0.686
613.37	0.683
613.57	0.681
613.76	0.684
613.95	0.681
614.14	0.681
614.34	0.677
614.53	0.678
614.72	0.681
614.92	0.682
615.11	0.679
615.30	0.676
615.49	0.679
615.69	0.681
615.88	0.677
616.07	0.679
616.26	0.683
616.46	0.685
616.65	0.681
616.84	0.681
617.04	0.683
617.23	0.687
617.42	0.687
617.61	0.691
617.81	0.692
618.00	0.693
618.19	0.690
618.38	0.694
618.58	0.698
618.77	0.699
618.96	0.697
619.15	0.698
619.35	0.701
619.54	0.700
619.73	0.695
619.92	0.697
620.12	0.703
620.31	0.703
620.50	0.696
620.69	0.697
620.89	0.700
621.08	0.700
621.27	0.700
621.46	0.699
621.66	0.704
621.85	0.704
622.04	0.700
622.23	0.700
622.43	0.702
622.62	0.702
622.81	0.700
623.00	0.700
623.19	0.705
623.39	0.703
623.58	0.700
623.77	0.699
623.96	0.702
624.16	0.702
624.35	0.696
624.54	0.699
624.73	0.704
624.92	0.702
625.12	0.699
625.31	0.699
625.50	0.703
625.69	0.705
625.88	0.700
626.08	0.699
626.27	0.701
626.46	0.702
626.65	0.698
626.84	0.698
627.04	0.704
627.23	0.704
627.42	0.700
627.61	0.701
627.80	0.704
628.00	0.704
628.19	0.703
628.38	0.708
628.57	0.711
628.76	0.711
628.96	0.707
629.15	0.708
629.34	0.712
629.53	0.712
629.72	0.706
629.91	0.707
630.11	0.713
630.30	0.713
630.49	0.714
630.68	0.715
630.87	0.719
631.06	0.721
631.26	0.715
631.45	0.717
631.64	0.725
631.83	0.728
632.02	0.724
632.21	0.722
632.41	0.731
632.60	0.725
632.79	0.722
632.98	0.723
633.17	0.726
633.36	0.728
633.55	0.723
633.75	0.720
633.94	0.723
634.13	0.723
634.32	0.718
634.51	0.713
634.70	0.716
634.89	0.715
635.09	0.709
635.28	0.709
635.47	0.712
635.66	0.714
635.85	0.709
636.04	0.710
636.23	0.716
636.43	0.718
636.62	0.716
636.81	0.715
637.00	0.720
637.19	0.724
637.38	0.719
637.57	0.719
637.76	0.722
637.95	0.723
638.15	0.719
638.34	0.715
638.53	0.720
638.72	0.721
638.91	0.717
639.10	0.714
639.29	0.715
639.48	0.716
639.67	0.715
639.87	0.713
640.06	0.719
640.25	0.719
640.44	0.719
640.63	0.718
640.82	0.721
641.01	0.721
641.20	0.721
641.39	0.723
641.58	0.727
641.78	0.726
641.97	0.721
642.16	0.736
642.35	0.738
642.54	0.736
642.73	0.730
642.92	0.728
643.11	0.733
643.30	0.732
643.49	0.725
643.68	0.728
643.87	0.732
644.06	0.732
644.25	0.711
644.45	0.713
644.64	0.716
644.83	0.717
645.02	0.713
645.21	0.712
645.40	0.716
645.59	0.715
645.78	0.707
645.97	0.709
646.16	0.711
646.35	0.709
646.54	0.706
646.73	0.706
646.92	0.708
647.11	0.707
647.30	0.701
647.49	0.703
647.68	0.704
647.88	0.703
648.07	0.694
648.26	0.698
648.45	0.701
648.64	0.698
648.83	0.694
649.02	0.698
649.21	0.709
649.40	0.709
649.59	0.702
649.78	0.703
649.97	0.719
650.16	0.719
650.35	0.712
650.54	0.714
650.73	0.723
650.92	0.721
651.11	0.712
651.30	0.710
651.49	0.716
651.68	0.717
651.87	0.714
652.06	0.703
652.25	0.707
652.44	0.707
652.63	0.700
652.82	0.697
653.01	0.696
653.20	0.694
653.39	0.680
653.58	0.678
653.77	0.677
653.96	0.672
654.15	0.663
654.34	0.662
654.53	0.659
654.72	0.655
654.91	0.647
655.10	0.643
655.29	0.642
655.48	0.641
655.67	0.635
655.86	0.633
656.05	0.633
656.24	0.633
656.43	0.628
656.62	0.627
656.81	0.630
657.00	0.630
657.19	0.628
657.38	0.630
657.57	0.630
657.76	0.634
657.95	0.632
658.14	0.636
658.33	0.640
658.51	0.646
658.70	0.647
658.89	0.647
659.08	0.654
659.27	0.660
659.46	0.658
659.65	0.664
659.84	0.667
660.03	0.670
660.22	0.670
660.41	0.674
660.60	0.674
660.79	0.675
660.98	0.680
661.17	0.678
661.36	0.678
661.55	0.678
661.74	0.675
661.92	0.679
662.11	0.682
662.30	0.681
662.49	0.672
662.68	0.672
662.87	0.677
663.06	0.672
663.25	0.672
663.44	0.672
663.63	0.674
663.82	0.673
664.01	0.665
664.20	0.663
664.38	0.665
664.57	0.665
664.76	0.664
664.95	0.664
665.14	0.669
665.33	0.665
665.52	0.672
665.71	0.676
665.90	0.677
666.09	0.679
666.28	0.676
666.46	0.675
666.65	0.676
666.84	0.674
667.03	0.668
667.22	0.665
667.41	0.669
667.60	0.658
667.79	0.651
667.98	0.652
668.16	0.654
668.35	0.654
668.54	0.649
668.73	0.651
668.92	0.653
669.11	0.652
669.30	0.646
669.49	0.641
669.67	0.644
669.86	0.646
670.05	0.643
670.24	0.641
670.43	0.639
670.62	0.638
670.81	0.632
671.00	0.632
671.18	0.633
671.37	0.631
671.56	0.629
671.75	0.628
671.94	0.626
672.13	0.624
672.32	0.618
672.50	0.617
672.69	0.618
672.88	0.618
673.07	0.613
673.26	0.615
673.45	0.617
673.63	0.617
673.82	0.613
674.01	0.614
674.20	0.614
674.39	0.613
674.58	0.612
674.76	0.612
674.95	0.611
675.14	0.610
675.33	0.605
675.52	0.604
675.71	0.604
675.89	0.603
676.08	0.598
676.27	0.599
676.46	0.600
676.65	0.599
676.84	0.598
677.02	0.600
677.21	0.603
677.40	0.602
677.59	0.599
677.78	0.600
677.96	0.603
678.15	0.602
678.34	0.599
678.53	0.601
678.72	0.602
678.90	0.598
679.09	0.593
679.28	0.590
679.47	0.591
679.66	0.591
679.84	0.587
680.03	0.585
680.22	0.585
680.41	0.587
680.60	0.583
680.78	0.582
680.97	0.585
681.16	0.585
681.35	0.583
681.53	0.581
681.72	0.583
681.91	0.585
682.10	0.582
682.29	0.586
682.47	0.583
682.66	0.582
682.85	0.580
683.04	0.578
683.22	0.578
683.41	0.580
683.60	0.579
683.79	0.580
683.97	0.579
684.16	0.578
684.35	0.573
684.54	0.575
684.72	0.576
684.91	0.577
685.10	0.575
685.29	0.576
685.47	0.574
685.66	0.572
685.85	0.569
686.04	0.569
686.22	0.572
686.41	0.575
686.60	0.572
686.79	0.574
686.97	0.576
687.16	0.578
687.35	0.575
687.54	0.579
687.72	0.583
687.91	0.583
688.10	0.583
688.29	0.583
688.47	0.582
688.66	0.581
688.85	0.577
689.03	0.574
689.22	0.578
689.41	0.578
689.60	0.573
689.78	0.570
689.97	0.571
690.16	0.569
690.34	0.564
690.53	0.563
690.72	0.564
690.91	0.562
691.09	0.559
691.28	0.554
691.47	0.553
691.65	0.552
691.84	0.549
692.03	0.548
692.21	0.547
692.40	0.547
692.59	0.545
692.77	0.544
692.96	0.546
693.15	0.547
693.34	0.544
693.52	0.544
693.71	0.546
693.90	0.547
694.08	0.548
694.27	0.549
694.46	0.558
694.64	0.559
694.83	0.557
695.02	0.556
695.20	0.556
695.39	0.555
695.58	0.554
695.76	0.554
695.95	0.554
696.14	0.553
696.32	0.550
696.51	0.541
696.70	0.541
696.88	0.542
697.07	0.541
697.26	0.542
697.44	0.544
697.63	0.542
697.81	0.540
698.00	0.539
698.19	0.540
698.37	0.540
698.56	0.539
698.75	0.539
698.93	0.539
699.12	0.539
699.31	0.537
699.49	0.536
699.68	0.538
699.87	0.540
700.05	0.540
700.24	0.539
700.42	0.541
700.61	0.540
700.80	0.538
700.98	0.538
701.17	0.539
701.36	0.538
701.54	0.537
701.73	0.539
701.91	0.536
702.10	0.536
702.29	0.534
702.47	0.533
702.66	0.535
702.84	0.536
703.03	0.534
703.22	0.536
703.40	0.536
703.59	0.538
703.77	0.537
703.96	0.537
704.15	0.538
704.33	0.539
704.52	0.537
704.70	0.535
704.89	0.536
705.08	0.534
705.26	0.530
705.45	0.531
705.63	0.531
705.82	0.527
706.00	0.525
706.19	0.524
706.38	0.524
706.56	0.524
706.75	0.521
706.93	0.520
707.12	0.522
707.30	0.522
707.49	0.519
707.68	0.517
707.86	0.517
708.05	0.517
708.23	0.514
708.42	0.515
708.60	0.518
708.79	0.519
708.98	0.517
709.16	0.517
709.35	0.519
709.53	0.523
709.72	0.522
709.90	0.523
710.09	0.526
710.27	0.528
710.46	0.531
710.64	0.529
710.83	0.531
711.02	0.532
711.20	0.529
711.39	0.528
711.57	0.526
711.76	0.527
711.94	0.525
712.13	0.525
712.31	0.525
712.50	0.519
712.68	0.516
712.87	0.517
713.05	0.517
713.24	0.518
713.42	0.516
713.61	0.517
713.79	0.518
713.98	0.518
714.16	0.519
714.35	0.518
714.54	0.521
714.72	0.521
714.91	0.518
715.09	0.525
715.28	0.530
715.46	0.529
715.65	0.526
715.83	0.525
716.02	0.529
716.20	0.526
716.39	0.524
716.57	0.525
716.76	0.528
716.94	0.528
717.12	0.519
717.31	0.520
717.49	0.524
717.68	0.526
717.86	0.525
718.05	0.526
718.23	0.529
718.42	0.532
718.60	0.533
718.79	0.541
718.97	0.545
719.16	0.546
719.34	0.543
719.53	0.543
719.71	0.544
719.90	0.545
720.08	0.542
720.27	0.542
720.45	0.542
720.63	0.541
720.82	0.534
721.00	0.537
721.19	0.542
721.37	0.541
721.56	0.541
721.74	0.544
721.93	0.553
722.11	0.557
722.30	0.556
722.48	0.560
722.66	0.562
722.85	0.562
723.03	0.561
723.22	0.559
723.40	0.562
723.59	0.561
723.77	0.564
723.95	0.558
724.14	0.561
724.32	0.563
724.51	0.561
724.69	0.563
724.88	0.564
725.06	0.561
725.24	0.562
725.43	0.563
725.61	0.566
725.80	0.560
725.98	0.557
726.16	0.554
726.35	0.561
726.53	0.561
726.72	0.558
726.90	0.569
727.09	0.571
727.27	0.576
727.45	0.572
727.64	0.581
727.82	0.592
728.01	0.597
728.19	0.592
728.37	0.597
728.56	0.601
728.74	0.607
728.92	0.594
729.11	0.597
729.29	0.596
729.48	0.598
729.66	0.586
729.84	0.584
730.03	0.588
730.21	0.590
730.40	0.580
730.58	0.580
730.76	0.582
730.95	0.585
731.13	0.583
731.31	0.596
731.50	0.607
731.68	0.610
731.86	0.606
732.05	0.621
732.23	0.626
732.42	0.630
732.60	0.633
732.78	0.638
732.97	0.659
733.15	0.665
733.33	0.651
733.52	0.657
733.70	0.670
733.88	0.679
734.07	0.662
734.25	0.689
734.43	0.699
734.62	0.702
734.80	0.697
734.98	0.686
735.17	0.694
735.35	0.702
735.53	0.690
735.72	0.695
735.90	0.720
736.08	0.741
736.27	0.714
736.45	0.722
736.63	0.737
736.82	0.747
737.00	0.743
737.18	0.755
737.37	0.792
737.55	0.817
737.73	0.807
737.92	0.810
738.10	0.812
738.28	0.833
738.46	0.819
738.65	0.835
738.83	0.862
739.01	0.919
739.20	0.905
739.38	0.889
739.56	0.884
739.75	0.889
739.93	0.850
740.11	0.873
740.29	0.880
740.48	0.888
740.66	0.858
740.84	0.849
741.03	0.818
741.21	0.831
741.39	0.805
741.57	0.820
741.76	0.846
741.94	0.853
742.12	0.812
742.31	0.815
742.49	0.840
742.67	0.870
742.85	0.883
743.04	0.888
743.22	0.899
743.40	0.956
743.58	0.927
743.77	0.940
743.95	0.985
744.13	1.043
744.31	1.020
744.50	1.017
744.68	1.021
744.86	0.997
745.04	1.005
745.23	1.083
745.41	1.069
745.59	1.075
745.77	1.029
745.96	1.011
746.14	1.035
746.32	1.034
746.50	1.012
746.69	0.989
746.87	1.009
747.05	0.988
747.23	0.902
747.42	0.893
747.60	0.935
747.78	0.937
747.96	0.970
748.14	0.909
748.33	0.943
748.51	0.944
748.69	0.932
748.87	0.960
749.06	0.972
749.24	0.969
749.42	0.941
749.60	0.916
749.78	0.938
749.97	0.887
750.15	0.876
750.33	0.884
750.51	0.917
750.69	0.920
750.88	0.919
751.06	0.932
751.24	0.968
751.42	0.961
751.60	0.947
751.79	1.031
751.97	1.086
752.15	1.091
752.33	1.036
752.51	1.117
752.69	1.156
752.88	1.110
753.06	1.154
753.24	1.122
753.42	1.174
753.60	1.403
753.78	1.182
753.97	1.207
754.15	1.240
754.33	1.279
754.51	1.099
754.69	1.074
754.87	1.114
755.06	1.026
755.24	1.025
755.42	1.031
755.60	0.928
755.78	0.939
755.96	0.872
756.15	0.873
756.33	0.882
756.51	0.905
756.69	0.885
756.87	0.851
757.05	0.875
757.23	0.856
757.42	0.817
757.60	0.818
757.78	0.809
757.96	0.811
758.14	0.788
758.32	0.773
758.50	0.789
758.69	0.787
758.87	0.774
759.05	0.781
759.23	0.798
759.41	0.800
759.59	0.785
759.77	0.811
759.95	0.847
760.13	0.907
760.32	0.900
760.50	0.895
760.68	0.930
760.86	0.931
761.04	0.894
761.22	0.891
761.40	0.948
761.58	0.948
761.76	0.908
761.95	0.885
762.13	0.839
762.31	0.841
762.49	0.806
762.67	0.827
762.85	0.848
763.03	0.841
763.21	0.822
763.39	0.804
763.57	0.815
763.75	0.810
763.94	0.790
764.12	0.787
764.30	0.819
764.48	0.822
764.66	0.774
764.84	0.772
765.02	0.819
765.20	0.825
765.38	0.799
765.56	0.807
765.74	0.856
765.92	0.860
766.10	0.866
766.28	0.857
766.46	0.894
766.65	0.898
766.83	0.881
767.01	0.862
767.19	0.875
767.37	0.873
767.55	0.851
767.73	0.829
767.91	0.835
768.09	0.823
768.27	0.808
768.45	0.797
768.63	0.804
768.81	0.805
768.99	0.772
769.17	0.798
769.35	0.819
769.53	0.818
769.71	0.791
769.89	0.804
770.07	0.815
770.25	0.795
770.43	0.766
770.61	0.792
770.79	0.803
770.97	0.814
771.15	0.774
771.33	0.780
771.51	0.788
771.69	0.801
771.87	0.805
772.05	0.811
772.24	0.825
772.42	0.835
772.60	0.810
772.78	0.875
772.96	0.911
773.14	0.906
773.32	0.873
773.49	0.881
773.67	0.881
773.85	0.853
774.03	0.834
774.21	0.872
774.39	0.891
774.57	0.914
774.75	0.830
774.93	0.827
775.11	0.855
775.29	0.865
775.47	0.861
775.65	0.872
775.83	0.898
776.01	0.922
776.19	0.859
776.37	0.855
776.55	0.859
776.73	0.857
776.91	0.847
777.09	0.831
777.27	0.832
777.45	0.820
777.63	0.795
777.81	0.790
777.99	0.784
778.17	0.785
778.35	0.764
778.53	0.754
778.71	0.761
778.89	0.745
779.07	0.731
779.24	0.736
779.42	0.740
779.60	0.759
779.78	0.754
779.96	0.760
780.14	0.773
780.32	0.794
780.50	0.769
780.68	0.770
780.86	0.765
781.04	0.782
781.22	0.785
781.40	0.799
781.58	0.791
781.75	0.782
781.93	0.756
782.11	0.755
782.29	0.743
782.47	0.743
782.65	0.727
782.83	0.758
783.01	0.756
783.19	0.745
783.37	0.725
783.55	0.727
783.72	0.751
783.90	0.763
784.08	0.750
784.26	0.763
784.44	0.787
784.62	0.788
784.80	0.749
784.98	0.754
785.16	0.764
785.33	0.780
785.51	0.761
785.69	0.747
785.87	0.749
786.05	0.763
786.23	0.752
786.41	0.750
786.59	0.759
786.77	0.758
786.94	0.742
787.12	0.745
787.30	0.749
787.48	0.746
787.66	0.730
787.84	0.730
788.02	0.723
788.19	0.722
788.37	0.704
788.55	0.708
788.73	0.712
788.91	0.705
789.09	0.686
789.27	0.674
789.44	0.691
789.62	0.699
789.80	0.706
789.98	0.733
790.16	0.719
790.34	0.717
790.51	0.700
790.69	0.722
790.87	0.732
791.05	0.730
791.23	0.722
791.41	0.720
791.58	0.729
791.76	0.704
791.94	0.669
792.12	0.680
792.30	0.687
792.48	0.683
792.65	0.672
792.83	0.680
793.01	0.690
793.19	0.687
793.37	0.669
793.54	0.664
793.72	0.680
793.90	0.676
794.08	0.662
794.26	0.663
794.43	0.676
794.61	0.658
794.79	0.644
794.97	0.645
795.15	0.654
795.32	0.659
795.50	0.647
795.68	0.643
795.86	0.651
796.04	0.653
796.21	0.644
796.39	0.642
796.57	0.661
796.75	0.671
796.92	0.667
797.10	0.671
797.28	0.676
797.46	0.678
797.64	0.676
797.81	0.684
797.99	0.691
798.17	0.696
798.35	0.687
798.52	0.691
798.70	0.688
798.88	0.697
799.06	0.693
799.23	0.696
799.41	0.709
799.59	0.701
799.77	0.685
799.94	0.696
800.12	0.708
800.30	0.726
800.48	0.723
800.65	0.721
800.83	0.713
801.01	0.703
801.19	0.700
801.36	0.696
801.54	0.703
801.72	0.716
801.90	0.698
802.07	0.692
802.25	0.680
802.43	0.661
802.60	0.656
802.78	0.661
802.96	0.670
803.14	0.664
803.31	0.659
803.49	0.658
803.67	0.653
803.84	0.657
804.02	0.647
804.20	0.651
804.38	0.657
804.55	0.656
804.73	0.639
804.91	0.640
805.08	0.655
805.26	0.650
805.44	0.710
805.61	0.716
805.79	0.718
805.97	0.718
806.15	0.706
806.32	0.702
806.50	0.712
806.68	0.712
806.85	0.701
807.03	0.692
807.21	0.714
807.38	0.648
807.56	0.635
807.74	0.646
807.91	0.654
808.09	0.655
808.27	0.674
808.44	0.702
808.62	0.714
808.80	0.715
808.97	0.705
809.15	0.697
809.33	0.720
809.50	0.727
809.68	0.709
809.86	0.718
810.03	0.758
810.21	0.736
810.39	0.713
810.56	0.722
810.74	0.752
810.91	0.834
811.09	0.820
811.27	0.842
811.44	0.852
811.62	0.856
811.80	0.834
811.97	0.796
812.15	0.793
812.33	0.791
812.50	0.770
812.68	0.757
812.85	0.698
813.03	0.701
813.21	0.663
813.38	0.657
813.56	0.662
813.74	0.672
813.91	0.679
814.09	0.714
814.26	0.708
814.44	0.711
814.62	0.698
814.79	0.701
814.97	0.709
815.14	0.714
815.32	0.717
815.50	0.734
815.67	0.740
815.85	0.732
816.02	0.716
816.20	0.724
816.38	0.744
816.55	0.750
816.73	0.747
816.90	0.759
817.08	0.798
817.26	0.805
817.43	0.778
817.61	0.804
817.78	0.830
817.96	0.807
818.13	0.792
818.31	0.794
818.49	0.810
818.66	0.798
818.84	0.779
819.01	0.754
819.19	0.764
819.36	0.767
819.54	0.731
819.71	0.776
819.89	0.798
820.07	0.812
820.24	0.800
820.42	0.798
820.59	0.826
820.77	0.848
820.94	0.832
821.12	0.851
821.29	0.873
821.47	0.876
821.64	0.799
821.82	0.812
822.00	0.813
822.17	0.809
822.35	0.800
822.52	0.800
822.70	0.795
822.87	0.807
823.05	0.781
823.22	0.793
823.40	0.831
823.57	0.862
823.75	0.836
823.92	0.869
824.10	0.902
824.27	0.956
824.45	0.936
824.62	1.015
824.80	1.044
824.97	1.068
825.15	1.050
825.32	1.063
825.50	1.071
825.67	1.094
825.85	1.056
826.02	1.077
826.20	1.124
826.37	1.348
826.55	1.207
826.72	1.595
826.90	1.850
827.07	2.116
827.25	1.824
827.42	-0.000
827.60	-0.000
827.77	-0.000
827.95	-0.000
828.12	-0.000
828.30	-0.000
828.47	-0.000
828.65	1.787
828.82	2.118
829.00	-0.000
829.17	-0.000
829.34	-0.000
829.52	-0.000
829.69	-0.000
829.87	-0.000
830.04	-0.000
830.22	-0.000
830.39	-0.000
830.57	-0.000
830.74	-0.000
830.92	-0.000
831.09	-0.000
831.26	-0.000
831.44	-0.000
831.61	-0.000
831.79	-0.000
831.96	-0.000
832.14	-0.000
832.31	-0.000
832.49	-0.000
832.66	-0.000
832.83	-0.000
833.01	-0.000
833.18	-0.000
833.36	-0.000
833.53	-0.000
833.70	-0.000
833.88	-0.000
834.05	-0.000
834.23	-0.000
834.40	-0.000
834.58	-0.000
834.75	-0.000
834.92	-0.000
835.10	-0.000
835.27	-0.000
835.45	-0.000
835.62	-0.000
835.79	-0.000
835.97	-0.000
836.14	-0.000
836.32	-0.000
836.49	-0.000
836.66	-0.000
836.84	-0.000
837.01	-0.000
837.18	-0.000
837.36	-0.000
837.53	-0.000
837.71	-0.000
837.88	-0.000
838.05	-0.000
838.23	-0.000
838.40	-0.000
838.58	-0.000
838.75	-0.000
838.92	-0.000
839.10	-0.000
839.27	-0.000
839.44	-0.000
839.62	-0.000
839.79	-0.000
839.96	-0.000
840.14	-0.000
840.31	-0.000
840.48	-0.000
840.66	-0.000
840.83	-0.000
841.01	-0.000
841.18	-0.000
841.35	-0.000
841.53	-0.000
841.70	-0.000
841.87	-0.000
842.05	-0.000
842.22	-0.000
842.39	-0.000
842.57	-0.000
842.74	-0.000
842.91	-0.000
843.09	-0.000
843.26	-0.000
843.43	-0.000
843.60	-0.000
843.78	-0.000
843.95	-0.000
844.12	-0.000
844.30	-0.000
844.47	-0.000
844.64	-0.000
844.82	-0.000
844.99	-0.000
845.16	-0.000
845.34	-0.000
845.51	-0.000
845.68	-0.000
845.85	-0.000
846.03	-0.000
846.20	-0.000
846.37	-0.000
846.55	-0.000
846.72	-0.000
846.89	-0.000
847.06	-0.000
847.24	-0.000
847.41	-0.000
847.58	-0.000
847.76	-0.000
847.93	-0.000
848.10	-0.000
848.27	-0.000
848.45	-0.000
848.62	-0.000
848.79	-0.000
848.97	-0.000
849.14	-0.000
849.31	-0.000
849.48	-0.000
849.66	-0.000
849.83	-0.000
850.00	-0.000
850.17	-0.000
850.35	-0.000
850.52	-0.000
850.69	-0.000
850.86	-0.000
851.04	-0.000
851.21	-0.000
851.38	-0.000
851.55	-0.000
851.72	-0.000
851.90	-0.000
852.07	-0.000
852.24	-0.000
852.41	-0.000
852.59	-0.000
852.76	-0.000
852.93	-0.000
853.10	-0.000
853.28	-0.000
853.45	-0.000
853.62	-0.000
853.79	-0.000
853.96	-0.000
854.14	-0.000
854.31	-0.000
854.48	-0.000
854.65	-0.000
854.82	-0.000
855.00	-0.000
855.17	-0.000
855.34	-0.000
855.51	-0.000
855.68	-0.000
855.86	-0.000
856.03	-0.000
856.20	-0.000
856.37	-0.000
856.54	-0.000
856.72	-0.000
856.89	-0.000
857.06	-0.000
857.23	-0.000
857.40	-0.000
857.57	-0.000
857.75	-0.000
857.92	-0.000
858.09	-0.000
858.26	-0.000
858.43	-0.000
858.60	-0.000
858.78	-0.000
858.95	-0.000
859.12	-0.000
859.29	-0.000
859.46	-0.000
859.63	-0.000
859.81	-0.000
859.98	-0.000
860.15	-0.000
860.32	-0.000
860.49	-0.000
860.66	-0.000
860.83	-0.000
861.01	-0.000
861.18	-0.000
861.35	-0.000
861.52	-0.000
861.69	-0.000
861.86	-0.000
862.03	-0.000
862.21	-0.000
862.38	-0.000
862.55	-0.000
862.72	-0.000
862.89	-0.000
863.06	-0.000
863.23	-0.000
863.40	-0.000
863.58	-0.000
863.75	-0.000
863.92	-0.000
864.09	-0.000
864.26	-0.000
864.43	-0.000
864.60	-0.000
864.77	-0.000
864.94	-0.000
865.11	-0.000
865.29	-0.000
865.46	-0.000
865.63	-0.000
865.80	-0.000
865.97	-0.000
866.14	-0.000
866.31	-0.000
866.48	-0.000
866.65	-0.000
866.82	-0.000
866.99	-0.000
867.16	-0.000
867.34	-0.000
867.51	-0.000
867.68	-0.000
867.85	-0.000
868.02	-0.000
868.19	-0.000
868.36	-0.000
868.53	-0.000
868.70	-0.000
868.87	-0.000
869.04	-0.000
869.21	-0.000
869.38	-0.000
869.55	-0.000
869.72	-0.000
869.89	-0.000
870.06	-0.000
870.24	-0.000
870.41	-0.000
870.58	-0.000
870.75	-0.000
870.92	-0.000
871.09	-0.000
871.26	-0.000
871.43	-0.000
871.60	-0.000
871.77	-0.000
871.94	-0.000
872.11	-0.000
872.28	-0.000
872.45	-0.000
872.62	-0.000
872.79	-0.000
872.96	-0.000
873.13	-0.000
873.30	-0.000
873.47	-0.000
873.64	-0.000
873.81	-0.000
873.98	-0.000
874.15	-0.000
874.32	-0.000
874.49	-0.000
874.66	-0.000
874.83	-0.000
875.00	-0.000
875.17	-0.000
875.34	-0.000
875.51	-0.000
875.68	-0.000
875.85	-0.000
876.02	-0.000
876.19	-0.000
876.36	-0.000
876.53	-0.000
876.70	-0.000
876.87	-0.000
877.04	-0.000
877.21	-0.000
877.38	-0.000
877.55	-0.000
877.72	-0.000
877.89	-0.000
878.06	-0.000
878.23	-0.000
878.39	-0.000
878.56	-0.000
878.73	-0.000
878.90	-0.000
879.07	-0.000
879.24	-0.000
879.41	-0.000
879.58	-0.000
879.75	-0.000
879.92	-0.000
880.09	-0.000
880.26	-0.000
880.43	-0.000
880.60	-0.000
880.77	-0.000
880.94	-0.000
881.11	-0.000
881.27	-0.000
881.44	-0.000
881.61	-0.000
881.78	-0.000
881.95	-0.000
882.12	-0.000
882.29	-0.000
882.46	-0.000
882.63	-0.000
882.80	-0.000
882.97	-0.000
883.14	-0.000
883.30	-0.000
883.47	-0.000
883.64	-0.000
883.81	-0.000
883.98	-0.000
884.15	-0.000
884.32	-0.000
884.49	-0.000
884.66	-0.000
884.82	-0.000
884.99	-0.000
885.16	-0.000
885.33	-0.000
885.50	-0.000
885.67	-0.000
885.84	-0.000
886.01	-0.000
886.17	-0.000
886.34	-0.000
886.51	-0.000
886.68	-0.000
886.85	-0.000
887.02	-0.000
887.19	-0.000
887.36	-0.000
887.52	-0.000
887.69	-0.000
887.86	-0.000
888.03	-0.000
888.20	-0.000
888.37	-0.000
888.54	-0.000
888.70	-0.000
888.87	-0.000
889.04	-0.000
889.21	-0.000
889.38	-0.000
889.55	-0.000
889.71	-0.000
889.88	-0.000
890.05	-0.000
890.22	-0.000
890.39	-0.000
>>>>>End Processed Spectral Data<<<<<
