SpectraSuite Data File
++++++++++++++++++++++++++++++++++++
Date: Fri Jun 19 14:44:05 CEST 2015
User: introlabs
Dark Spectrum Present: Yes
Reference Spectrum Present: Yes
Number of Sampled Component Spectra: 1
Spectrometers: USB4H08886
Integration Time (usec): 745692 (USB4H08886)
Spectra Averaged: 5 (USB4H08886)
Boxcar Smoothing: 5 (USB4H08886)
Correct for Electrical Dark: Yes (USB4H08886)
Strobe/Lamp Enabled: No (USB4H08886)
Correct for Detector Non-linearity: Yes (USB4H08886)
Correct for Stray Light: Yes (USB4H08886)
Number of Pixels in Processed Spectrum: 3648
>>>>>Begin Processed Spectral Data<<<<<
178.14	-0.000
178.36	-0.000
178.57	-0.000
178.79	-0.000
179.01	-0.000
179.22	-0.000
179.44	-0.000
179.65	-0.000
179.87	-0.000
180.08	-0.000
180.30	-0.000
180.52	-0.000
180.73	-0.000
180.95	-0.000
181.16	-0.000
181.38	-0.000
181.59	-0.000
181.81	-0.000
182.03	-0.000
182.24	-0.000
182.46	-0.000
182.67	-0.000
182.89	-0.000
183.10	-0.000
183.32	-0.000
183.54	-0.000
183.75	-0.000
183.97	-0.000
184.18	-0.000
184.40	-0.000
184.61	-0.000
184.83	-0.000
185.04	-0.000
185.26	-0.000
185.48	-0.000
185.69	-0.000
185.91	-0.000
186.12	-0.000
186.34	-0.000
186.55	-0.000
186.77	-0.000
186.98	-0.000
187.20	-0.000
187.42	-0.000
187.63	-0.000
187.85	-0.000
188.06	-0.000
188.28	-0.000
188.49	-0.000
188.71	-0.000
188.92	-0.000
189.14	-0.000
189.36	-0.000
189.57	-0.000
189.79	-0.000
190.00	-0.000
190.22	-0.000
190.43	-0.000
190.65	-0.000
190.86	-0.000
191.08	-0.000
191.29	-0.000
191.51	-0.000
191.72	-0.000
191.94	-0.000
192.16	-0.000
192.37	-0.000
192.59	-0.000
192.80	-0.000
193.02	-0.000
193.23	-0.000
193.45	-0.000
193.66	-0.000
193.88	-0.000
194.09	-0.000
194.31	-0.000
194.52	-0.000
194.74	-0.000
194.95	-0.000
195.17	-0.000
195.38	-0.000
195.60	-0.000
195.81	-0.000
196.03	-0.000
196.25	-0.000
196.46	-0.000
196.68	-0.000
196.89	-0.000
197.11	-0.000
197.32	-0.000
197.54	-0.000
197.75	-0.000
197.97	-0.000
198.18	-0.000
198.40	-0.000
198.61	-0.000
198.83	-0.000
199.04	-0.000
199.26	-0.000
199.47	-0.000
199.69	-0.000
199.90	-0.000
200.12	-0.000
200.33	-0.000
200.55	-0.000
200.76	-0.000
200.98	-0.000
201.19	-0.000
201.41	-0.000
201.62	-0.000
201.84	-0.000
202.05	-0.000
202.27	-0.000
202.48	-0.000
202.70	-0.000
202.91	-0.000
203.13	-0.000
203.34	-0.000
203.56	-0.000
203.77	-0.000
203.99	-0.000
204.20	-0.000
204.42	-0.000
204.63	-0.000
204.85	-0.000
205.06	-0.000
205.28	-0.000
205.49	-0.000
205.71	-0.000
205.92	-0.000
206.14	-0.000
206.35	-0.000
206.56	-0.000
206.78	-0.000
206.99	-0.000
207.21	-0.000
207.42	-0.000
207.64	-0.000
207.85	-0.000
208.07	-0.000
208.28	-0.000
208.50	-0.000
208.71	-0.000
208.93	-0.000
209.14	-0.000
209.36	-0.000
209.57	-0.000
209.79	-0.000
210.00	-0.000
210.22	-0.000
210.43	-0.000
210.64	-0.000
210.86	-0.000
211.07	-0.000
211.29	-0.000
211.50	-0.000
211.72	-0.000
211.93	-0.000
212.15	-0.000
212.36	-0.000
212.58	-0.000
212.79	-0.000
213.01	-0.000
213.22	-0.000
213.43	-0.000
213.65	-0.000
213.86	-0.000
214.08	-0.000
214.29	-0.000
214.51	-0.000
214.72	-0.000
214.94	-0.000
215.15	-0.000
215.36	-0.000
215.58	-0.000
215.79	-0.000
216.01	-0.000
216.22	-0.000
216.44	-0.000
216.65	-0.000
216.87	-0.000
217.08	-0.000
217.29	-0.000
217.51	-0.000
217.72	-0.000
217.94	-0.000
218.15	-0.000
218.37	-0.000
218.58	-0.000
218.80	-0.000
219.01	-0.000
219.22	-0.000
219.44	-0.000
219.65	-0.000
219.87	-0.000
220.08	-0.000
220.30	-0.000
220.51	-0.000
220.72	-0.000
220.94	-0.000
221.15	-0.000
221.37	-0.000
221.58	-0.000
221.79	-0.000
222.01	-0.000
222.22	-0.000
222.44	-0.000
222.65	-0.000
222.87	-0.000
223.08	-0.000
223.29	-0.000
223.51	-0.000
223.72	-0.000
223.94	-0.000
224.15	-0.000
224.36	-0.000
224.58	-0.000
224.79	-0.000
225.01	-0.000
225.22	-0.000
225.44	-0.000
225.65	-0.000
225.86	-0.000
226.08	-0.000
226.29	-0.000
226.51	-0.000
226.72	-0.000
226.93	-0.000
227.15	-0.000
227.36	-0.000
227.58	-0.000
227.79	-0.000
228.00	-0.000
228.22	-0.000
228.43	-0.000
228.65	-0.000
228.86	-0.000
229.07	-0.000
229.29	-0.000
229.50	-0.000
229.72	-0.000
229.93	-0.000
230.14	-0.000
230.36	-0.000
230.57	-0.000
230.78	-0.000
231.00	-0.000
231.21	-0.000
231.43	-0.000
231.64	-0.000
231.85	-0.000
232.07	-0.000
232.28	-0.000
232.50	-0.000
232.71	-0.000
232.92	-0.000
233.14	-0.000
233.35	-0.000
233.56	-0.000
233.78	-0.000
233.99	-0.000
234.21	-0.000
234.42	-0.000
234.63	-0.000
234.85	-0.000
235.06	-0.000
235.27	-0.000
235.49	-0.000
235.70	-0.000
235.91	-0.000
236.13	-0.000
236.34	-0.000
236.56	-0.000
236.77	-0.000
236.98	-0.000
237.20	-0.000
237.41	-0.000
237.62	-0.000
237.84	-0.000
238.05	-0.000
238.26	-0.000
238.48	-0.000
238.69	-0.000
238.91	-0.000
239.12	-0.000
239.33	-0.000
239.55	-0.000
239.76	-0.000
239.97	-0.000
240.19	-0.000
240.40	-0.000
240.61	-0.000
240.83	-0.000
241.04	-0.000
241.25	-0.000
241.47	-0.000
241.68	-0.000
241.89	-0.000
242.11	-0.000
242.32	-0.000
242.53	-0.000
242.75	-0.000
242.96	-0.000
243.17	-0.000
243.39	-0.000
243.60	-0.000
243.81	-0.000
244.03	-0.000
244.24	-0.000
244.45	-0.000
244.67	-0.000
244.88	-0.000
245.09	-0.000
245.31	-0.000
245.52	-0.000
245.73	-0.000
245.95	-0.000
246.16	-0.000
246.37	-0.000
246.59	-0.000
246.80	-0.000
247.01	-0.000
247.23	-0.000
247.44	-0.000
247.65	-0.000
247.87	-0.000
248.08	-0.000
248.29	-0.000
248.51	-0.000
248.72	-0.000
248.93	-0.000
249.15	-0.000
249.36	-0.000
249.57	-0.000
249.78	-0.000
250.00	-0.000
250.21	-0.000
250.42	-0.000
250.64	-0.000
250.85	-0.000
251.06	-0.000
251.28	-0.000
251.49	-0.000
251.70	-0.000
251.92	-0.000
252.13	-0.000
252.34	-0.000
252.55	-0.000
252.77	-0.000
252.98	-0.000
253.19	-0.000
253.41	-0.000
253.62	-0.000
253.83	-0.000
254.05	-0.000
254.26	-0.000
254.47	-0.000
254.68	-0.000
254.90	-0.000
255.11	-0.000
255.32	-0.000
255.54	-0.000
255.75	-0.000
255.96	-0.000
256.17	-0.000
256.39	-0.000
256.60	-0.000
256.81	-0.000
257.03	-0.000
257.24	-0.000
257.45	-0.000
257.66	-0.000
257.88	-0.000
258.09	-0.000
258.30	-0.000
258.51	-0.000
258.73	-0.000
258.94	-0.000
259.15	-0.000
259.37	-0.000
259.58	-0.000
259.79	-0.000
260.00	-0.000
260.22	-0.000
260.43	-0.000
260.64	-0.000
260.85	-0.000
261.07	-0.000
261.28	-0.000
261.49	-0.000
261.71	-0.000
261.92	-0.000
262.13	-0.000
262.34	-0.000
262.56	-0.000
262.77	-0.000
262.98	-0.000
263.19	-0.000
263.41	-0.000
263.62	-0.000
263.83	-0.000
264.04	-0.000
264.26	-0.000
264.47	-0.000
264.68	-0.000
264.89	-0.000
265.11	-0.000
265.32	-0.000
265.53	-0.000
265.74	-0.000
265.96	-0.000
266.17	-0.000
266.38	-0.000
266.59	-0.000
266.81	-0.000
267.02	-0.000
267.23	-0.000
267.44	-0.000
267.65	-0.000
267.87	-0.000
268.08	-0.000
268.29	-0.000
268.50	-0.000
268.72	-0.000
268.93	-0.000
269.14	-0.000
269.35	-0.000
269.57	-0.000
269.78	-0.000
269.99	-0.000
270.20	-0.000
270.41	-0.000
270.63	-0.000
270.84	-0.000
271.05	-0.000
271.26	-0.000
271.48	-0.000
271.69	-0.000
271.90	-0.000
272.11	-0.000
272.32	-0.000
272.54	-0.000
272.75	-0.000
272.96	-0.000
273.17	-0.000
273.39	-0.000
273.60	-0.000
273.81	-0.000
274.02	-0.000
274.23	-0.000
274.45	-0.000
274.66	-0.000
274.87	-0.000
275.08	-0.000
275.29	-0.000
275.51	-0.000
275.72	-0.000
275.93	-0.000
276.14	-0.000
276.35	-0.000
276.57	-0.000
276.78	-0.000
276.99	-0.000
277.20	-0.000
277.41	-0.000
277.63	-0.000
277.84	-0.000
278.05	-0.000
278.26	-0.000
278.47	-0.000
278.69	-0.000
278.90	-0.000
279.11	-0.000
279.32	-0.000
279.53	-0.000
279.74	-0.000
279.96	-0.000
280.17	-0.000
280.38	-0.000
280.59	-0.000
280.80	-0.000
281.02	-0.000
281.23	-0.000
281.44	-0.000
281.65	-0.000
281.86	-0.000
282.07	-0.000
282.29	-0.000
282.50	-0.000
282.71	-0.000
282.92	-0.000
283.13	-0.000
283.35	-0.000
283.56	-0.000
283.77	-0.000
283.98	-0.000
284.19	-0.000
284.40	-0.000
284.62	-0.000
284.83	-0.000
285.04	-0.000
285.25	-0.000
285.46	-0.000
285.67	-0.000
285.88	-0.000
286.10	-0.000
286.31	-0.000
286.52	-0.000
286.73	-0.000
286.94	-0.000
287.15	-0.000
287.37	-0.000
287.58	-0.000
287.79	-0.000
288.00	-0.000
288.21	-0.000
288.42	-0.000
288.63	-0.000
288.85	-0.000
289.06	-0.000
289.27	-0.000
289.48	-0.000
289.69	-0.000
289.90	-0.000
290.11	-0.000
290.33	-0.000
290.54	-0.000
290.75	-0.000
290.96	-0.000
291.17	-0.000
291.38	-0.000
291.59	-0.000
291.81	-0.000
292.02	-0.000
292.23	-0.000
292.44	-0.000
292.65	-0.000
292.86	-0.000
293.07	-0.000
293.28	-0.000
293.50	-0.000
293.71	-0.000
293.92	-0.000
294.13	-0.000
294.34	-0.000
294.55	-0.000
294.76	-0.000
294.97	-0.000
295.19	-0.000
295.40	-0.000
295.61	-0.000
295.82	-0.000
296.03	-0.000
296.24	-0.000
296.45	2.369
296.66	1.859
296.87	1.870
297.09	1.954
297.30	2.221
297.51	1.772
297.72	1.747
297.93	1.862
298.14	1.811
298.35	1.744
298.56	1.722
298.77	1.860
298.99	1.833
299.20	1.808
299.41	1.788
299.62	1.737
299.83	1.723
300.04	1.640
300.25	1.627
300.46	1.675
300.67	1.644
300.88	1.587
301.10	1.596
301.31	1.684
301.52	1.615
301.73	1.543
301.94	1.547
302.15	1.560
302.36	1.513
302.57	1.445
302.78	1.451
302.99	1.493
303.20	1.517
303.41	1.420
303.63	1.394
303.84	1.400
304.05	1.404
304.26	1.340
304.47	1.350
304.68	1.353
304.89	1.345
305.10	1.304
305.31	1.289
305.52	1.333
305.73	1.323
305.94	1.283
306.15	1.276
306.37	1.299
306.58	1.308
306.79	1.275
307.00	1.298
307.21	1.341
307.42	1.333
307.63	1.295
307.84	1.257
308.05	1.298
308.26	1.302
308.47	1.279
308.68	1.275
308.89	1.278
309.10	1.277
309.31	1.234
309.52	1.222
309.73	1.238
309.95	1.233
310.16	1.205
310.37	1.193
310.58	1.207
310.79	1.203
311.00	1.197
311.21	1.197
311.42	1.196
311.63	1.191
311.84	1.176
312.05	1.175
312.26	1.196
312.47	1.210
312.68	1.184
312.89	1.170
313.10	1.176
313.31	1.149
313.52	1.150
313.73	1.151
313.94	1.153
314.15	1.135
314.36	1.111
314.57	1.105
314.78	1.093
314.99	1.088
315.21	1.074
315.42	1.080
315.63	1.093
315.84	1.071
316.05	1.056
316.26	1.064
316.47	1.081
316.68	1.078
316.89	1.058
317.10	1.077
317.31	1.082
317.52	1.085
317.73	1.064
317.94	1.061
318.15	1.103
318.36	1.103
318.57	1.089
318.78	1.079
318.99	1.116
319.20	1.111
319.41	1.077
319.62	1.079
319.83	1.092
320.04	1.086
320.25	1.074
320.46	1.041
320.67	1.044
320.88	1.039
321.09	1.023
321.30	1.008
321.51	1.025
321.72	1.023
321.93	1.007
322.14	1.000
322.35	1.027
322.56	1.028
322.77	1.015
322.98	1.026
323.19	1.035
323.40	1.041
323.61	1.020
323.82	1.015
324.03	1.021
324.24	1.018
324.45	1.005
324.66	0.987
324.87	0.984
325.08	0.984
325.29	0.964
325.50	0.956
325.71	0.961
325.92	0.970
326.13	0.957
326.34	0.957
326.55	0.965
326.76	0.963
326.97	0.952
327.18	0.946
327.39	0.971
327.60	0.973
327.80	0.975
328.01	0.973
328.22	0.973
328.43	0.974
328.64	0.962
328.85	0.967
329.06	0.969
329.27	0.968
329.48	0.963
329.69	0.945
329.90	0.955
330.11	0.947
330.32	0.940
330.53	0.932
330.74	0.933
330.95	0.931
331.16	0.916
331.37	0.925
331.58	0.924
331.79	0.924
332.00	0.916
332.21	0.909
332.42	0.913
332.63	0.904
332.83	0.900
333.04	0.903
333.25	0.916
333.46	0.915
333.67	0.901
333.88	0.904
334.09	0.913
334.30	0.910
334.51	0.901
334.72	0.897
334.93	0.901
335.14	0.901
335.35	0.893
335.56	0.887
335.77	0.897
335.98	0.895
336.18	0.888
336.39	0.881
336.60	0.885
336.81	0.883
337.02	0.882
337.23	0.886
337.44	0.889
337.65	0.891
337.86	0.881
338.07	0.876
338.28	0.881
338.49	0.880
338.70	0.872
338.91	0.879
339.11	0.886
339.32	0.883
339.53	0.871
339.74	0.868
339.95	0.865
340.16	0.863
340.37	0.854
340.58	0.852
340.79	0.855
341.00	0.855
341.21	0.844
341.41	0.846
341.62	0.846
341.83	0.848
342.04	0.842
342.25	0.851
342.46	0.857
342.67	0.855
342.88	0.848
343.09	0.847
343.30	0.855
343.50	0.858
343.71	0.848
343.92	0.846
344.13	0.849
344.34	0.850
344.55	0.834
344.76	0.832
344.97	0.836
345.18	0.835
345.38	0.833
345.59	0.827
345.80	0.827
346.01	0.825
346.22	0.820
346.43	0.815
346.64	0.824
346.85	0.824
347.06	0.817
347.26	0.818
347.47	0.822
347.68	0.818
347.89	0.814
348.10	0.808
348.31	0.815
348.52	0.814
348.73	0.812
348.93	0.808
349.14	0.811
349.35	0.810
349.56	0.803
349.77	0.798
349.98	0.803
350.19	0.801
350.39	0.797
350.60	0.792
350.81	0.808
351.02	0.806
351.23	0.801
351.44	0.803
351.65	0.807
351.86	0.804
352.06	0.802
352.27	0.803
352.48	0.804
352.69	0.803
352.90	0.798
353.11	0.785
353.31	0.792
353.52	0.788
353.73	0.779
353.94	0.780
354.15	0.786
354.36	0.786
354.57	0.778
354.77	0.779
354.98	0.778
355.19	0.778
355.40	0.778
355.61	0.784
355.82	0.789
356.02	0.788
356.23	0.781
356.44	0.783
356.65	0.787
356.86	0.787
357.07	0.781
357.27	0.785
357.48	0.788
357.69	0.783
357.90	0.767
358.11	0.763
358.32	0.767
358.52	0.769
358.73	0.759
358.94	0.761
359.15	0.765
359.36	0.765
359.56	0.760
359.77	0.758
359.98	0.764
360.19	0.764
360.40	0.762
360.61	0.763
360.81	0.761
361.02	0.762
361.23	0.755
361.44	0.754
361.65	0.754
361.85	0.753
362.06	0.751
362.27	0.753
362.48	0.753
362.69	0.754
362.89	0.748
363.10	0.750
363.31	0.755
363.52	0.758
363.73	0.752
363.93	0.753
364.14	0.755
364.35	0.757
364.56	0.747
364.77	0.749
364.97	0.751
365.18	0.751
365.39	0.746
365.60	0.742
365.81	0.744
366.01	0.744
366.22	0.740
366.43	0.739
366.64	0.741
366.84	0.747
367.05	0.743
367.26	0.744
367.47	0.746
367.68	0.746
367.88	0.744
368.09	0.741
368.30	0.744
368.51	0.743
368.71	0.743
368.92	0.747
369.13	0.746
369.34	0.745
369.55	0.743
369.75	0.742
369.96	0.749
370.17	0.748
370.38	0.744
370.58	0.743
370.79	0.749
371.00	0.747
371.21	0.738
371.41	0.743
371.62	0.746
371.83	0.743
372.04	0.740
372.24	0.734
372.45	0.735
372.66	0.736
372.87	0.732
373.07	0.730
373.28	0.731
373.49	0.735
373.70	0.725
373.90	0.724
374.11	0.733
374.32	0.733
374.53	0.732
374.73	0.732
374.94	0.734
375.15	0.734
375.36	0.732
375.56	0.740
375.77	0.739
375.98	0.740
376.19	0.738
376.39	0.731
376.60	0.735
376.81	0.735
377.02	0.733
377.22	0.732
377.43	0.731
377.64	0.730
377.84	0.722
378.05	0.728
378.26	0.734
378.47	0.734
378.67	0.731
378.88	0.728
379.09	0.729
379.30	0.730
379.50	0.728
379.71	0.731
379.92	0.734
380.12	0.733
380.33	0.724
380.54	0.720
380.75	0.727
380.95	0.726
381.16	0.724
381.37	0.724
381.57	0.726
381.78	0.726
381.99	0.725
382.20	0.725
382.40	0.728
382.61	0.728
382.82	0.724
383.02	0.718
383.23	0.722
383.44	0.722
383.64	0.720
383.85	0.722
384.06	0.726
384.27	0.724
384.47	0.722
384.68	0.722
384.89	0.728
385.09	0.728
385.30	0.727
385.51	0.725
385.71	0.729
385.92	0.730
386.13	0.728
386.33	0.730
386.54	0.731
386.75	0.730
386.95	0.726
387.16	0.721
387.37	0.723
387.58	0.722
387.78	0.720
387.99	0.718
388.20	0.720
388.40	0.717
388.61	0.712
388.82	0.715
389.02	0.717
389.23	0.718
389.44	0.717
389.64	0.718
389.85	0.730
390.06	0.730
390.26	0.731
390.47	0.730
390.68	0.733
390.88	0.731
391.09	0.726
391.30	0.726
391.50	0.726
391.71	0.726
391.92	0.723
392.12	0.715
392.33	0.716
392.53	0.715
392.74	0.716
392.95	0.715
393.15	0.717
393.36	0.719
393.57	0.717
393.77	0.720
393.98	0.722
394.19	0.721
394.39	0.721
394.60	0.722
394.81	0.724
395.01	0.721
395.22	0.719
395.43	0.721
395.63	0.726
395.84	0.727
396.04	0.724
396.25	0.726
396.46	0.727
396.66	0.725
396.87	0.723
397.08	0.720
397.28	0.723
397.49	0.724
397.69	0.720
397.90	0.714
398.11	0.715
398.31	0.715
398.52	0.712
398.73	0.713
398.93	0.712
399.14	0.711
399.34	0.710
399.55	0.712
399.76	0.712
399.96	0.713
400.17	0.712
400.37	0.711
400.58	0.718
400.79	0.720
400.99	0.717
401.20	0.723
401.41	0.726
401.61	0.727
401.82	0.732
402.02	0.732
402.23	0.732
402.44	0.731
402.64	0.731
402.85	0.726
403.05	0.725
403.26	0.724
403.47	0.718
403.67	0.717
403.88	0.718
404.08	0.711
404.29	0.710
404.50	0.710
404.70	0.710
404.91	0.709
405.11	0.706
405.32	0.706
405.52	0.707
405.73	0.706
405.94	0.705
406.14	0.708
406.35	0.709
406.55	0.709
406.76	0.706
406.97	0.708
407.17	0.711
407.38	0.711
407.58	0.709
407.79	0.712
407.99	0.715
408.20	0.715
408.41	0.711
408.61	0.709
408.82	0.709
409.02	0.709
409.23	0.706
409.43	0.705
409.64	0.707
409.84	0.706
410.05	0.703
410.26	0.701
410.46	0.701
410.67	0.700
410.87	0.702
411.08	0.704
411.28	0.705
411.49	0.707
411.69	0.705
411.90	0.707
412.11	0.708
412.31	0.709
412.52	0.707
412.72	0.708
412.93	0.709
413.13	0.708
413.34	0.704
413.54	0.706
413.75	0.708
413.95	0.707
414.16	0.704
414.37	0.706
414.57	0.707
414.78	0.709
414.98	0.707
415.19	0.708
415.39	0.706
415.60	0.708
415.80	0.706
416.01	0.704
416.21	0.706
416.42	0.707
416.62	0.702
416.83	0.702
417.03	0.703
417.24	0.703
417.44	0.701
417.65	0.701
417.86	0.701
418.06	0.700
418.27	0.697
418.47	0.699
418.68	0.699
418.88	0.700
419.09	0.698
419.29	0.698
419.50	0.698
419.70	0.698
419.91	0.696
420.11	0.693
420.32	0.696
420.52	0.695
420.73	0.695
420.93	0.695
421.14	0.697
421.34	0.696
421.55	0.692
421.75	0.692
421.96	0.694
422.16	0.693
422.37	0.692
422.57	0.689
422.78	0.691
422.98	0.688
423.19	0.685
423.39	0.683
423.60	0.687
423.80	0.688
424.01	0.687
424.21	0.689
424.42	0.691
424.62	0.691
424.83	0.690
425.03	0.690
425.23	0.692
425.44	0.692
425.64	0.693
425.85	0.692
426.05	0.692
426.26	0.693
426.46	0.689
426.67	0.688
426.87	0.692
427.08	0.693
427.28	0.691
427.49	0.692
427.69	0.693
427.90	0.692
428.10	0.689
428.31	0.689
428.51	0.690
428.71	0.690
428.92	0.691
429.12	0.688
429.33	0.688
429.53	0.692
429.74	0.696
429.94	0.697
430.15	0.696
430.35	0.696
430.56	0.694
430.76	0.693
430.96	0.693
431.17	0.691
431.37	0.688
431.58	0.686
431.78	0.683
431.99	0.676
432.19	0.678
432.40	0.680
432.60	0.680
432.80	0.682
433.01	0.680
433.21	0.680
433.42	0.682
433.62	0.683
433.83	0.682
434.03	0.684
434.23	0.687
434.44	0.686
434.64	0.684
434.85	0.689
435.05	0.689
435.26	0.690
435.46	0.688
435.66	0.687
435.87	0.687
436.07	0.688
436.28	0.683
436.48	0.680
436.69	0.680
436.89	0.681
437.09	0.674
437.30	0.673
437.50	0.673
437.71	0.685
437.91	0.685
438.11	0.686
438.32	0.691
438.52	0.691
438.73	0.689
438.93	0.687
439.13	0.687
439.34	0.690
439.54	0.688
439.75	0.688
439.95	0.677
440.15	0.682
440.36	0.680
440.56	0.677
440.77	0.677
440.97	0.677
441.17	0.676
441.38	0.678
441.58	0.675
441.79	0.675
441.99	0.673
442.19	0.672
442.40	0.670
442.60	0.670
442.81	0.667
443.01	0.668
443.21	0.669
443.42	0.669
443.62	0.667
443.82	0.667
444.03	0.668
444.23	0.668
444.44	0.668
444.64	0.667
444.84	0.669
445.05	0.669
445.25	0.666
445.45	0.666
445.66	0.668
445.86	0.666
446.06	0.668
446.27	0.667
446.47	0.670
446.68	0.668
446.88	0.667
447.08	0.667
447.29	0.669
447.49	0.670
447.69	0.669
447.90	0.667
448.10	0.671
448.30	0.669
448.51	0.670
448.71	0.667
448.91	0.670
449.12	0.669
449.32	0.670
449.52	0.669
449.73	0.672
449.93	0.671
450.14	0.673
450.34	0.672
450.54	0.674
450.75	0.671
450.95	0.670
451.15	0.669
451.36	0.672
451.56	0.668
451.76	0.667
451.97	0.665
452.17	0.666
452.37	0.664
452.58	0.660
452.78	0.660
452.98	0.662
453.19	0.662
453.39	0.663
453.59	0.661
453.79	0.662
454.00	0.663
454.20	0.661
454.40	0.661
454.61	0.663
454.81	0.664
455.01	0.663
455.22	0.664
455.42	0.666
455.62	0.664
455.83	0.663
456.03	0.666
456.23	0.667
456.44	0.668
456.64	0.667
456.84	0.666
457.04	0.667
457.25	0.666
457.45	0.663
457.65	0.661
457.86	0.662
458.06	0.660
458.26	0.656
458.47	0.655
458.67	0.657
458.87	0.657
459.07	0.655
459.28	0.657
459.48	0.660
459.68	0.660
459.89	0.659
460.09	0.658
460.29	0.660
460.49	0.661
460.70	0.660
460.90	0.659
461.10	0.660
461.31	0.659
461.51	0.656
461.71	0.658
461.91	0.659
462.12	0.659
462.32	0.657
462.52	0.658
462.72	0.661
462.93	0.661
463.13	0.660
463.33	0.661
463.53	0.662
463.74	0.661
463.94	0.656
464.14	0.657
464.35	0.658
464.55	0.658
464.75	0.656
464.95	0.653
465.16	0.655
465.36	0.654
465.56	0.653
465.76	0.652
465.97	0.653
466.17	0.654
466.37	0.652
466.57	0.652
466.78	0.653
466.98	0.654
467.18	0.652
467.38	0.651
467.59	0.653
467.79	0.655
467.99	0.654
468.19	0.655
468.39	0.658
468.60	0.658
468.80	0.657
469.00	0.659
469.20	0.660
469.41	0.660
469.61	0.659
469.81	0.659
470.01	0.659
470.22	0.659
470.42	0.657
470.62	0.654
470.82	0.656
471.02	0.655
471.23	0.652
471.43	0.652
471.63	0.655
471.83	0.654
472.04	0.652
472.24	0.652
472.44	0.657
472.64	0.657
472.84	0.655
473.05	0.655
473.25	0.659
473.45	0.659
473.65	0.657
473.85	0.657
474.06	0.659
474.26	0.659
474.46	0.659
474.66	0.656
474.86	0.657
475.07	0.657
475.27	0.655
475.47	0.651
475.67	0.652
475.87	0.654
476.08	0.650
476.28	0.651
476.48	0.652
476.68	0.651
476.88	0.649
477.09	0.649
477.29	0.651
477.49	0.651
477.69	0.651
477.89	0.650
478.09	0.649
478.30	0.652
478.50	0.649
478.70	0.649
478.90	0.649
479.10	0.652
479.31	0.652
479.51	0.651
479.71	0.652
479.91	0.652
480.11	0.651
480.31	0.651
480.52	0.650
480.72	0.650
480.92	0.649
481.12	0.647
481.32	0.645
481.52	0.643
481.72	0.643
481.93	0.647
482.13	0.647
482.33	0.647
482.53	0.645
482.73	0.646
482.93	0.647
483.14	0.647
483.34	0.647
483.54	0.647
483.74	0.646
483.94	0.646
484.14	0.641
484.34	0.641
484.55	0.642
484.75	0.642
484.95	0.640
485.15	0.640
485.35	0.640
485.55	0.639
485.75	0.638
485.96	0.638
486.16	0.640
486.36	0.639
486.56	0.637
486.76	0.637
486.96	0.638
487.16	0.637
487.36	0.635
487.57	0.635
487.77	0.636
487.97	0.636
488.17	0.634
488.37	0.633
488.57	0.634
488.77	0.634
488.97	0.633
489.18	0.632
489.38	0.634
489.58	0.635
489.78	0.634
489.98	0.634
490.18	0.634
490.38	0.635
490.58	0.634
490.78	0.634
490.98	0.635
491.19	0.635
491.39	0.635
491.59	0.634
491.79	0.636
491.99	0.637
492.19	0.637
492.39	0.640
492.59	0.640
492.79	0.642
492.99	0.642
493.20	0.642
493.40	0.643
493.60	0.644
493.80	0.643
494.00	0.641
494.20	0.642
494.40	0.641
494.60	0.638
494.80	0.642
495.00	0.642
495.20	0.640
495.40	0.639
495.61	0.640
495.81	0.640
496.01	0.643
496.21	0.644
496.41	0.643
496.61	0.643
496.81	0.643
497.01	0.637
497.21	0.636
497.41	0.637
497.61	0.637
497.81	0.634
498.01	0.635
498.21	0.633
498.41	0.631
498.61	0.631
498.82	0.633
499.02	0.635
499.22	0.636
499.42	0.635
499.62	0.637
499.82	0.637
500.02	0.639
500.22	0.637
500.42	0.639
500.62	0.639
500.82	0.639
501.02	0.637
501.22	0.637
501.42	0.637
501.62	0.639
501.82	0.638
502.02	0.638
502.22	0.638
502.42	0.640
502.62	0.637
502.82	0.637
503.02	0.638
503.22	0.638
503.42	0.636
503.63	0.635
503.83	0.633
504.03	0.633
504.23	0.631
504.43	0.632
504.63	0.633
504.83	0.633
505.03	0.632
505.23	0.634
505.43	0.636
505.63	0.637
505.83	0.636
506.03	0.638
506.23	0.640
506.43	0.640
506.63	0.639
506.83	0.638
507.03	0.639
507.23	0.641
507.43	0.637
507.63	0.638
507.83	0.638
508.03	0.639
508.23	0.638
508.43	0.637
508.63	0.639
508.83	0.639
509.03	0.640
509.23	0.639
509.43	0.640
509.63	0.640
509.83	0.638
510.03	0.641
510.23	0.643
510.43	0.643
510.63	0.644
510.83	0.643
511.03	0.645
511.23	0.642
511.43	0.641
511.63	0.643
511.83	0.645
512.03	0.646
512.22	0.642
512.42	0.642
512.62	0.643
512.82	0.642
513.02	0.641
513.22	0.641
513.42	0.643
513.62	0.646
513.82	0.644
514.02	0.643
514.22	0.644
514.42	0.644
514.62	0.643
514.82	0.643
515.02	0.646
515.22	0.649
515.42	0.648
515.62	0.650
515.82	0.649
516.02	0.650
516.22	0.650
516.42	0.652
516.62	0.654
516.82	0.655
517.01	0.653
517.21	0.652
517.41	0.656
517.61	0.657
517.81	0.653
518.01	0.652
518.21	0.652
518.41	0.650
518.61	0.649
518.81	0.649
519.01	0.650
519.21	0.651
519.41	0.650
519.61	0.644
519.81	0.646
520.00	0.647
520.20	0.647
520.40	0.650
520.60	0.651
520.80	0.650
521.00	0.650
521.20	0.651
521.40	0.655
521.60	0.656
521.80	0.655
522.00	0.655
522.20	0.657
522.39	0.657
522.59	0.654
522.79	0.656
522.99	0.659
523.19	0.658
523.39	0.656
523.59	0.654
523.79	0.657
523.99	0.659
524.19	0.658
524.38	0.656
524.58	0.657
524.78	0.658
524.98	0.656
525.18	0.658
525.38	0.659
525.58	0.659
525.78	0.656
525.98	0.655
526.18	0.655
526.37	0.655
526.57	0.657
526.77	0.656
526.97	0.657
527.17	0.657
527.37	0.652
527.57	0.655
527.77	0.657
527.96	0.657
528.16	0.655
528.36	0.656
528.56	0.657
528.76	0.655
528.96	0.654
529.16	0.655
529.36	0.658
529.55	0.658
529.75	0.655
529.95	0.655
530.15	0.657
530.35	0.660
530.55	0.657
530.75	0.659
530.94	0.661
531.14	0.662
531.34	0.660
531.54	0.658
531.74	0.661
531.94	0.664
532.13	0.662
532.33	0.664
532.53	0.663
532.73	0.662
532.93	0.660
533.13	0.660
533.33	0.660
533.52	0.661
533.72	0.664
533.92	0.662
534.12	0.660
534.32	0.660
534.52	0.658
534.71	0.660
534.91	0.663
535.11	0.665
535.31	0.662
535.51	0.665
535.71	0.667
535.90	0.664
536.10	0.665
536.30	0.667
536.50	0.667
536.70	0.668
536.89	0.666
537.09	0.665
537.29	0.667
537.49	0.668
537.69	0.666
537.89	0.666
538.08	0.666
538.28	0.665
538.48	0.665
538.68	0.666
538.88	0.669
539.07	0.668
539.27	0.666
539.47	0.665
539.67	0.665
539.87	0.667
540.06	0.664
540.26	0.665
540.46	0.667
540.66	0.664
540.86	0.662
541.05	0.662
541.25	0.664
541.45	0.664
541.65	0.662
541.84	0.664
542.04	0.664
542.24	0.666
542.44	0.665
542.64	0.666
542.83	0.669
543.03	0.670
543.23	0.667
543.43	0.668
543.62	0.669
543.82	0.669
544.02	0.668
544.22	0.668
544.42	0.671
544.61	0.671
544.81	0.668
545.01	0.667
545.21	0.669
545.40	0.670
545.60	0.668
545.80	0.671
546.00	0.672
546.19	0.671
546.39	0.670
546.59	0.668
546.79	0.670
546.98	0.670
547.18	0.670
547.38	0.671
547.58	0.673
547.77	0.673
547.97	0.669
548.17	0.671
548.37	0.672
548.56	0.671
548.76	0.671
548.96	0.672
549.16	0.674
549.35	0.674
549.55	0.672
549.75	0.672
549.95	0.676
550.14	0.676
550.34	0.674
550.54	0.679
550.73	0.683
550.93	0.684
551.13	0.681
551.33	0.680
551.52	0.680
551.72	0.680
551.92	0.679
552.12	0.679
552.31	0.679
552.51	0.679
552.71	0.673
552.90	0.673
553.10	0.674
553.30	0.674
553.50	0.673
553.69	0.675
553.89	0.676
554.09	0.676
554.28	0.673
554.48	0.675
554.68	0.676
554.87	0.677
555.07	0.674
555.27	0.674
555.47	0.676
555.66	0.676
555.86	0.675
556.06	0.676
556.25	0.678
556.45	0.686
556.65	0.684
556.84	0.687
557.04	0.690
557.24	0.691
557.43	0.691
557.63	0.694
557.83	0.696
558.02	0.697
558.22	0.700
558.42	0.701
558.61	0.693
558.81	0.694
559.01	0.691
559.21	0.690
559.40	0.691
559.60	0.691
559.80	0.686
559.99	0.688
560.19	0.690
560.39	0.684
560.58	0.682
560.78	0.683
560.97	0.687
561.17	0.685
561.37	0.683
561.56	0.684
561.76	0.685
561.96	0.685
562.15	0.682
562.35	0.685
562.55	0.685
562.74	0.684
562.94	0.683
563.14	0.680
563.33	0.681
563.53	0.681
563.73	0.678
563.92	0.680
564.12	0.683
564.31	0.685
564.51	0.683
564.71	0.686
564.90	0.689
565.10	0.690
565.30	0.693
565.49	0.694
565.69	0.696
565.89	0.696
566.08	0.693
566.28	0.695
566.47	0.697
566.67	0.694
566.87	0.692
567.06	0.694
567.26	0.700
567.46	0.696
567.65	0.695
567.85	0.697
568.04	0.700
568.24	0.699
568.44	0.696
568.63	0.694
568.83	0.696
569.02	0.695
569.22	0.690
569.42	0.686
569.61	0.688
569.81	0.687
570.00	0.684
570.20	0.686
570.40	0.687
570.59	0.687
570.79	0.685
570.98	0.683
571.18	0.684
571.38	0.683
571.57	0.680
571.77	0.678
571.96	0.682
572.16	0.679
572.35	0.674
572.55	0.675
572.75	0.673
572.94	0.673
573.14	0.672
573.33	0.672
573.53	0.673
573.73	0.672
573.92	0.670
574.12	0.668
574.31	0.671
574.51	0.672
574.70	0.669
574.90	0.670
575.09	0.672
575.29	0.673
575.49	0.670
575.68	0.671
575.88	0.672
576.07	0.673
576.27	0.671
576.46	0.669
576.66	0.669
576.86	0.668
577.05	0.666
577.25	0.664
577.44	0.666
577.64	0.666
577.83	0.664
578.03	0.665
578.22	0.665
578.42	0.664
578.61	0.663
578.81	0.663
579.00	0.664
579.20	0.663
579.40	0.663
579.59	0.661
579.79	0.661
579.98	0.661
580.18	0.660
580.37	0.660
580.57	0.663
580.76	0.667
580.96	0.666
581.15	0.667
581.35	0.668
581.54	0.668
581.74	0.667
581.93	0.669
582.13	0.670
582.32	0.667
582.52	0.665
582.71	0.664
582.91	0.661
583.10	0.661
583.30	0.660
583.49	0.659
583.69	0.662
583.88	0.663
584.08	0.662
584.27	0.665
584.47	0.668
584.66	0.669
584.86	0.668
585.05	0.670
585.25	0.672
585.44	0.672
585.64	0.670
585.83	0.667
586.03	0.668
586.22	0.666
586.42	0.661
586.61	0.663
586.81	0.666
587.00	0.665
587.20	0.662
587.39	0.663
587.59	0.665
587.78	0.666
587.98	0.666
588.17	0.667
588.37	0.670
588.56	0.672
588.76	0.667
588.95	0.667
589.15	0.671
589.34	0.674
589.54	0.672
589.73	0.673
589.92	0.676
590.12	0.675
590.31	0.673
590.51	0.679
590.70	0.680
590.90	0.682
591.09	0.680
591.29	0.678
591.48	0.678
591.68	0.679
591.87	0.678
592.06	0.677
592.26	0.680
592.45	0.679
592.65	0.673
592.84	0.673
593.04	0.675
593.23	0.677
593.43	0.674
593.62	0.674
593.81	0.675
594.01	0.674
594.20	0.671
594.40	0.670
594.59	0.672
594.79	0.673
594.98	0.671
595.17	0.670
595.37	0.671
595.56	0.674
595.76	0.673
595.95	0.674
596.14	0.678
596.34	0.679
596.53	0.677
596.73	0.679
596.92	0.680
597.12	0.682
597.31	0.682
597.50	0.682
597.70	0.684
597.89	0.684
598.09	0.680
598.28	0.681
598.47	0.684
598.67	0.682
598.86	0.679
599.06	0.681
599.25	0.680
599.44	0.679
599.64	0.677
599.83	0.674
600.03	0.677
600.22	0.677
600.41	0.677
600.61	0.674
600.80	0.676
601.00	0.677
601.19	0.673
601.38	0.671
601.58	0.673
601.77	0.674
601.96	0.675
602.16	0.676
602.35	0.685
602.55	0.682
602.74	0.684
602.93	0.685
603.13	0.690
603.32	0.691
603.51	0.691
603.71	0.695
603.90	0.697
604.09	0.698
604.29	0.695
604.48	0.690
604.68	0.691
604.87	0.690
605.06	0.686
605.26	0.682
605.45	0.684
605.64	0.683
605.84	0.678
606.03	0.677
606.22	0.675
606.42	0.675
606.61	0.671
606.80	0.671
607.00	0.673
607.19	0.673
607.38	0.672
607.58	0.673
607.77	0.675
607.96	0.675
608.16	0.673
608.35	0.678
608.54	0.681
608.74	0.684
608.93	0.689
609.12	0.692
609.32	0.695
609.51	0.697
609.70	0.696
609.90	0.698
610.09	0.703
610.28	0.708
610.48	0.701
610.67	0.702
610.86	0.703
611.06	0.698
611.25	0.696
611.44	0.697
611.64	0.697
611.83	0.700
612.02	0.696
612.21	0.694
612.41	0.693
612.60	0.692
612.79	0.689
612.99	0.689
613.18	0.691
613.37	0.689
613.57	0.685
613.76	0.686
613.95	0.684
614.14	0.684
614.34	0.681
614.53	0.683
614.72	0.685
614.92	0.685
615.11	0.682
615.30	0.679
615.49	0.681
615.69	0.683
615.88	0.680
616.07	0.681
616.26	0.684
616.46	0.685
616.65	0.682
616.84	0.680
617.04	0.682
617.23	0.686
617.42	0.686
617.61	0.689
617.81	0.690
618.00	0.691
618.19	0.689
618.38	0.692
618.58	0.696
618.77	0.698
618.96	0.697
619.15	0.698
619.35	0.700
619.54	0.700
619.73	0.696
619.92	0.698
620.12	0.703
620.31	0.703
620.50	0.698
620.69	0.699
620.89	0.701
621.08	0.701
621.27	0.702
621.46	0.700
621.66	0.705
621.85	0.705
622.04	0.702
622.23	0.703
622.43	0.703
622.62	0.703
622.81	0.701
623.00	0.701
623.19	0.705
623.39	0.704
623.58	0.701
623.77	0.699
623.96	0.702
624.16	0.702
624.35	0.696
624.54	0.700
624.73	0.703
624.92	0.701
625.12	0.699
625.31	0.700
625.50	0.703
625.69	0.704
625.88	0.700
626.08	0.699
626.27	0.701
626.46	0.701
626.65	0.697
626.84	0.698
627.04	0.703
627.23	0.703
627.42	0.699
627.61	0.701
627.80	0.704
628.00	0.704
628.19	0.702
628.38	0.705
628.57	0.708
628.76	0.707
628.96	0.704
629.15	0.704
629.34	0.707
629.53	0.708
629.72	0.702
629.91	0.702
630.11	0.708
630.30	0.708
630.49	0.711
630.68	0.713
630.87	0.716
631.06	0.718
631.26	0.712
631.45	0.714
631.64	0.721
631.83	0.723
632.02	0.720
632.21	0.718
632.41	0.725
632.60	0.720
632.79	0.718
632.98	0.718
633.17	0.720
633.36	0.721
633.55	0.717
633.75	0.713
633.94	0.716
634.13	0.716
634.32	0.712
634.51	0.706
634.70	0.708
634.89	0.708
635.09	0.704
635.28	0.704
635.47	0.706
635.66	0.709
635.85	0.705
636.04	0.706
636.23	0.711
636.43	0.713
636.62	0.711
636.81	0.710
637.00	0.712
637.19	0.715
637.38	0.712
637.57	0.712
637.76	0.713
637.95	0.714
638.15	0.710
638.34	0.707
638.53	0.710
638.72	0.712
638.91	0.710
639.10	0.708
639.29	0.708
639.48	0.709
639.67	0.709
639.87	0.709
640.06	0.714
640.25	0.715
640.44	0.717
640.63	0.717
640.82	0.720
641.01	0.721
641.20	0.720
641.39	0.722
641.58	0.723
641.78	0.721
641.97	0.716
642.16	0.730
642.35	0.730
642.54	0.726
642.73	0.721
642.92	0.718
643.11	0.723
643.30	0.722
643.49	0.718
643.68	0.720
643.87	0.723
644.06	0.723
644.25	0.702
644.45	0.705
644.64	0.707
644.83	0.709
645.02	0.706
645.21	0.704
645.40	0.707
645.59	0.707
645.78	0.701
645.97	0.703
646.16	0.704
646.35	0.704
646.54	0.702
646.73	0.703
646.92	0.704
647.11	0.703
647.30	0.699
647.49	0.700
647.68	0.700
647.88	0.698
648.07	0.692
648.26	0.696
648.45	0.697
648.64	0.694
648.83	0.691
649.02	0.694
649.21	0.705
649.40	0.704
649.59	0.699
649.78	0.700
649.97	0.716
650.16	0.715
650.35	0.708
650.54	0.711
650.73	0.719
650.92	0.716
651.11	0.709
651.30	0.707
651.49	0.711
651.68	0.711
651.87	0.708
652.06	0.697
652.25	0.701
652.44	0.704
652.63	0.701
652.82	0.701
653.01	0.701
653.20	0.699
653.39	0.688
653.58	0.685
653.77	0.685
653.96	0.680
654.15	0.672
654.34	0.670
654.53	0.666
654.72	0.660
654.91	0.650
655.10	0.646
655.29	0.645
655.48	0.643
655.67	0.637
655.86	0.634
656.05	0.633
656.24	0.633
656.43	0.627
656.62	0.626
656.81	0.626
657.00	0.624
657.19	0.621
657.38	0.621
657.57	0.620
657.76	0.623
657.95	0.620
658.14	0.623
658.33	0.626
658.51	0.631
658.70	0.631
658.89	0.633
659.08	0.642
659.27	0.649
659.46	0.649
659.65	0.656
659.84	0.659
660.03	0.663
660.22	0.664
660.41	0.668
660.60	0.667
660.79	0.669
660.98	0.674
661.17	0.674
661.36	0.673
661.55	0.674
661.74	0.671
661.92	0.673
662.11	0.675
662.30	0.674
662.49	0.668
662.68	0.667
662.87	0.670
663.06	0.664
663.25	0.665
663.44	0.665
663.63	0.666
663.82	0.665
664.01	0.661
664.20	0.659
664.38	0.660
664.57	0.660
664.76	0.660
664.95	0.661
665.14	0.666
665.33	0.661
665.52	0.668
665.71	0.672
665.90	0.672
666.09	0.673
666.28	0.670
666.46	0.670
666.65	0.671
666.84	0.669
667.03	0.663
667.22	0.660
667.41	0.663
667.60	0.653
667.79	0.646
667.98	0.648
668.16	0.649
668.35	0.649
668.54	0.645
668.73	0.646
668.92	0.646
669.11	0.646
669.30	0.641
669.49	0.637
669.67	0.639
669.86	0.641
670.05	0.639
670.24	0.636
670.43	0.634
670.62	0.633
670.81	0.628
671.00	0.629
671.18	0.629
671.37	0.628
671.56	0.626
671.75	0.624
671.94	0.622
672.13	0.620
672.32	0.615
672.50	0.615
672.69	0.616
672.88	0.617
673.07	0.612
673.26	0.614
673.45	0.615
673.63	0.615
673.82	0.612
674.01	0.613
674.20	0.612
674.39	0.612
674.58	0.611
674.76	0.611
674.95	0.609
675.14	0.609
675.33	0.605
675.52	0.604
675.71	0.603
675.89	0.602
676.08	0.598
676.27	0.598
676.46	0.599
676.65	0.598
676.84	0.597
677.02	0.599
677.21	0.601
677.40	0.600
677.59	0.597
677.78	0.598
677.96	0.601
678.15	0.600
678.34	0.598
678.53	0.598
678.72	0.598
678.90	0.595
679.09	0.591
679.28	0.588
679.47	0.588
679.66	0.588
679.84	0.584
680.03	0.581
680.22	0.580
680.41	0.582
680.60	0.579
680.78	0.579
680.97	0.580
681.16	0.581
681.35	0.580
681.53	0.578
681.72	0.580
681.91	0.582
682.10	0.580
682.29	0.583
682.47	0.580
682.66	0.580
682.85	0.579
683.04	0.577
683.22	0.576
683.41	0.578
683.60	0.577
683.79	0.578
683.97	0.577
684.16	0.576
684.35	0.571
684.54	0.573
684.72	0.573
684.91	0.574
685.10	0.572
685.29	0.574
685.47	0.571
685.66	0.570
685.85	0.567
686.04	0.566
686.22	0.569
686.41	0.572
686.60	0.569
686.79	0.572
686.97	0.573
687.16	0.575
687.35	0.572
687.54	0.576
687.72	0.579
687.91	0.579
688.10	0.581
688.29	0.580
688.47	0.579
688.66	0.578
688.85	0.574
689.03	0.572
689.22	0.576
689.41	0.576
689.60	0.571
689.78	0.568
689.97	0.569
690.16	0.566
690.34	0.562
690.53	0.562
690.72	0.562
690.91	0.561
691.09	0.559
691.28	0.553
691.47	0.551
691.65	0.550
691.84	0.547
692.03	0.546
692.21	0.544
692.40	0.544
692.59	0.541
692.77	0.540
692.96	0.541
693.15	0.542
693.34	0.539
693.52	0.539
693.71	0.540
693.90	0.541
694.08	0.541
694.27	0.543
694.46	0.552
694.64	0.553
694.83	0.552
695.02	0.551
695.20	0.550
695.39	0.550
695.58	0.550
695.76	0.551
695.95	0.551
696.14	0.550
696.32	0.547
696.51	0.538
696.70	0.538
696.88	0.539
697.07	0.538
697.26	0.539
697.44	0.541
697.63	0.540
697.81	0.537
698.00	0.537
698.19	0.537
698.37	0.537
698.56	0.536
698.75	0.536
698.93	0.535
699.12	0.535
699.31	0.533
699.49	0.532
699.68	0.534
699.87	0.536
700.05	0.536
700.24	0.535
700.42	0.537
700.61	0.536
700.80	0.535
700.98	0.535
701.17	0.536
701.36	0.536
701.54	0.535
701.73	0.536
701.91	0.533
702.10	0.533
702.29	0.530
702.47	0.529
702.66	0.531
702.84	0.532
703.03	0.530
703.22	0.532
703.40	0.531
703.59	0.533
703.77	0.532
703.96	0.533
704.15	0.534
704.33	0.534
704.52	0.533
704.70	0.532
704.89	0.532
705.08	0.531
705.26	0.526
705.45	0.526
705.63	0.526
705.82	0.523
706.00	0.522
706.19	0.521
706.38	0.521
706.56	0.521
706.75	0.519
706.93	0.517
707.12	0.519
707.30	0.520
707.49	0.517
707.68	0.515
707.86	0.515
708.05	0.515
708.23	0.511
708.42	0.512
708.60	0.514
708.79	0.514
708.98	0.513
709.16	0.513
709.35	0.515
709.53	0.518
709.72	0.517
709.90	0.519
710.09	0.520
710.27	0.523
710.46	0.526
710.64	0.525
710.83	0.527
711.02	0.528
711.20	0.527
711.39	0.526
711.57	0.523
711.76	0.524
711.94	0.522
712.13	0.523
712.31	0.523
712.50	0.519
712.68	0.516
712.87	0.516
713.05	0.516
713.24	0.517
713.42	0.515
713.61	0.516
713.79	0.516
713.98	0.516
714.16	0.517
714.35	0.516
714.54	0.517
714.72	0.518
714.91	0.516
715.09	0.523
715.28	0.525
715.46	0.524
715.65	0.522
715.83	0.522
716.02	0.525
716.20	0.521
716.39	0.521
716.57	0.521
716.76	0.523
716.94	0.523
717.12	0.516
717.31	0.518
717.49	0.521
717.68	0.523
717.86	0.523
718.05	0.525
718.23	0.527
718.42	0.529
718.60	0.530
718.79	0.538
718.97	0.541
719.16	0.542
719.34	0.539
719.53	0.538
719.71	0.538
719.90	0.539
720.08	0.536
720.27	0.536
720.45	0.536
720.63	0.535
720.82	0.528
721.00	0.530
721.19	0.534
721.37	0.533
721.56	0.534
721.74	0.537
721.93	0.546
722.11	0.553
722.30	0.551
722.48	0.556
722.66	0.557
722.85	0.557
723.03	0.556
723.22	0.554
723.40	0.558
723.59	0.558
723.77	0.562
723.95	0.555
724.14	0.557
724.32	0.558
724.51	0.558
724.69	0.559
724.88	0.560
725.06	0.558
725.24	0.559
725.43	0.561
725.61	0.563
725.80	0.557
725.98	0.555
726.16	0.551
726.35	0.557
726.53	0.556
726.72	0.555
726.90	0.565
727.09	0.567
727.27	0.572
727.45	0.568
727.64	0.577
727.82	0.586
728.01	0.590
728.19	0.587
728.37	0.592
728.56	0.596
728.74	0.602
728.92	0.590
729.11	0.591
729.29	0.591
729.48	0.594
729.66	0.584
729.84	0.583
730.03	0.586
730.21	0.588
730.40	0.578
730.58	0.579
730.76	0.579
730.95	0.581
731.13	0.581
731.31	0.594
731.50	0.603
731.68	0.605
731.86	0.601
732.05	0.616
732.23	0.619
732.42	0.622
732.60	0.626
732.78	0.632
732.97	0.651
733.15	0.658
733.33	0.646
733.52	0.652
733.70	0.663
733.88	0.672
734.07	0.657
734.25	0.684
734.43	0.691
734.62	0.693
734.80	0.686
734.98	0.675
735.17	0.681
735.35	0.685
735.53	0.673
735.72	0.676
735.90	0.698
736.08	0.716
736.27	0.693
736.45	0.702
736.63	0.713
736.82	0.724
737.00	0.726
737.18	0.737
737.37	0.771
737.55	0.796
737.73	0.790
737.92	0.793
738.10	0.791
738.28	0.812
738.46	0.799
738.65	0.812
738.83	0.831
739.01	0.879
739.20	0.867
739.38	0.848
739.56	0.836
739.75	0.839
739.93	0.805
740.11	0.827
740.29	0.824
740.48	0.831
740.66	0.810
740.84	0.806
741.03	0.775
741.21	0.787
741.39	0.767
741.57	0.779
741.76	0.795
741.94	0.802
742.12	0.770
742.31	0.776
742.49	0.794
742.67	0.816
742.85	0.825
743.04	0.827
743.22	0.832
743.40	0.883
743.58	0.867
743.77	0.880
743.95	0.909
744.13	0.954
744.31	0.934
744.50	0.934
744.68	0.931
744.86	0.910
745.04	0.924
745.23	0.989
745.41	0.972
745.59	0.978
745.77	0.947
745.96	0.944
746.14	0.953
746.32	0.956
746.50	0.940
746.69	0.925
746.87	0.934
747.05	0.916
747.23	0.846
747.42	0.831
747.60	0.854
747.78	0.856
747.96	0.878
748.14	0.837
748.33	0.860
748.51	0.858
748.69	0.854
748.87	0.885
749.06	0.884
749.24	0.881
749.42	0.871
749.60	0.856
749.78	0.867
749.97	0.820
750.15	0.816
750.33	0.818
750.51	0.839
750.69	0.844
750.88	0.839
751.06	0.852
751.24	0.873
751.42	0.864
751.60	0.855
751.79	0.917
751.97	0.966
752.15	0.961
752.33	0.929
752.51	0.990
752.69	1.004
752.88	0.977
753.06	1.016
753.24	1.000
753.42	1.033
753.60	1.192
753.78	1.061
753.97	1.082
754.15	1.097
754.33	1.129
754.51	1.012
754.69	0.997
754.87	1.025
755.06	0.956
755.24	0.955
755.42	0.962
755.60	0.866
755.78	0.870
755.96	0.816
756.15	0.818
756.33	0.819
756.51	0.836
756.69	0.822
756.87	0.795
757.05	0.810
757.23	0.795
757.42	0.767
757.60	0.767
757.78	0.760
757.96	0.758
758.14	0.743
758.32	0.731
758.50	0.741
758.69	0.743
758.87	0.734
759.05	0.738
759.23	0.748
759.41	0.745
759.59	0.737
759.77	0.755
759.95	0.786
760.13	0.829
760.32	0.829
760.50	0.824
760.68	0.846
760.86	0.843
761.04	0.821
761.22	0.823
761.40	0.868
761.58	0.872
761.76	0.847
761.95	0.825
762.13	0.787
762.31	0.788
762.49	0.760
762.67	0.777
762.85	0.793
763.03	0.787
763.21	0.769
763.39	0.753
763.57	0.756
763.75	0.753
763.94	0.737
764.12	0.738
764.30	0.761
764.48	0.765
764.66	0.732
764.84	0.726
765.02	0.761
765.20	0.769
765.38	0.749
765.56	0.752
765.74	0.787
765.92	0.789
766.10	0.796
766.28	0.789
766.46	0.819
766.65	0.817
766.83	0.808
767.01	0.793
767.19	0.800
767.37	0.800
767.55	0.790
767.73	0.772
767.91	0.775
768.09	0.764
768.27	0.751
768.45	0.739
768.63	0.746
768.81	0.748
768.99	0.725
769.17	0.746
769.35	0.759
769.53	0.757
769.71	0.739
769.89	0.749
770.07	0.754
770.25	0.738
770.43	0.718
770.61	0.740
770.79	0.744
770.97	0.753
771.15	0.725
771.33	0.727
771.51	0.730
771.69	0.739
771.87	0.746
772.05	0.752
772.24	0.760
772.42	0.766
772.60	0.743
772.78	0.799
772.96	0.824
773.14	0.817
773.32	0.796
773.49	0.805
773.67	0.803
773.85	0.782
774.03	0.771
774.21	0.802
774.39	0.813
774.57	0.833
774.75	0.765
774.93	0.764
775.11	0.789
775.29	0.798
775.47	0.797
775.65	0.806
775.83	0.820
776.01	0.837
776.19	0.792
776.37	0.796
776.55	0.794
776.73	0.791
776.91	0.784
777.09	0.764
777.27	0.758
777.45	0.747
777.63	0.727
777.81	0.723
777.99	0.712
778.17	0.713
778.35	0.692
778.53	0.682
778.71	0.688
778.89	0.677
779.07	0.668
779.24	0.677
779.42	0.676
779.60	0.694
779.78	0.691
779.96	0.696
780.14	0.702
780.32	0.721
780.50	0.707
780.68	0.706
780.86	0.699
781.04	0.716
781.22	0.718
781.40	0.731
781.58	0.723
781.75	0.717
781.93	0.699
782.11	0.698
782.29	0.686
782.47	0.685
782.65	0.673
782.83	0.698
783.01	0.692
783.19	0.687
783.37	0.673
783.55	0.674
783.72	0.690
783.90	0.701
784.08	0.695
784.26	0.705
784.44	0.726
784.62	0.729
784.80	0.700
784.98	0.706
785.16	0.710
785.33	0.725
785.51	0.711
785.69	0.701
785.87	0.701
786.05	0.712
786.23	0.709
786.41	0.704
786.59	0.710
786.77	0.709
786.94	0.697
787.12	0.698
787.30	0.698
787.48	0.697
787.66	0.683
787.84	0.682
788.02	0.674
788.19	0.671
788.37	0.657
788.55	0.660
788.73	0.661
788.91	0.655
789.09	0.642
789.27	0.632
789.44	0.644
789.62	0.650
789.80	0.661
789.98	0.686
790.16	0.673
790.34	0.671
790.51	0.658
790.69	0.678
790.87	0.684
791.05	0.680
791.23	0.675
791.41	0.674
791.58	0.683
791.76	0.663
791.94	0.632
792.12	0.642
792.30	0.644
792.48	0.643
792.65	0.634
792.83	0.641
793.01	0.650
793.19	0.648
793.37	0.634
793.54	0.628
793.72	0.640
793.90	0.639
794.08	0.626
794.26	0.628
794.43	0.636
794.61	0.621
794.79	0.611
794.97	0.609
795.15	0.613
795.32	0.617
795.50	0.608
795.68	0.602
795.86	0.606
796.04	0.609
796.21	0.601
796.39	0.601
796.57	0.615
796.75	0.622
796.92	0.621
797.10	0.627
797.28	0.628
797.46	0.632
797.64	0.634
797.81	0.641
797.99	0.646
798.17	0.652
798.35	0.645
798.52	0.647
798.70	0.642
798.88	0.651
799.06	0.651
799.23	0.655
799.41	0.661
799.59	0.654
799.77	0.641
799.94	0.648
800.12	0.656
800.30	0.672
800.48	0.672
800.65	0.671
800.83	0.660
801.01	0.652
801.19	0.651
801.36	0.649
801.54	0.651
801.72	0.661
801.90	0.647
802.07	0.644
802.25	0.632
802.43	0.615
802.60	0.613
802.78	0.621
802.96	0.626
803.14	0.620
803.31	0.619
803.49	0.622
803.67	0.618
803.84	0.621
804.02	0.611
804.20	0.614
804.38	0.619
804.55	0.619
804.73	0.604
804.91	0.603
805.08	0.617
805.26	0.612
805.44	0.673
805.61	0.679
805.79	0.680
805.97	0.679
806.15	0.671
806.32	0.665
806.50	0.670
806.68	0.671
806.85	0.663
807.03	0.653
807.21	0.667
807.38	0.602
807.56	0.590
807.74	0.599
807.91	0.606
808.09	0.608
808.27	0.626
808.44	0.650
808.62	0.659
808.80	0.659
808.97	0.655
809.15	0.650
809.33	0.668
809.50	0.676
809.68	0.664
809.86	0.674
810.03	0.705
810.21	0.686
810.39	0.670
810.56	0.677
810.74	0.702
810.91	0.771
811.09	0.762
811.27	0.779
811.44	0.785
811.62	0.785
811.80	0.768
811.97	0.738
812.15	0.737
812.33	0.733
812.50	0.717
812.68	0.705
812.85	0.653
813.03	0.654
813.21	0.623
813.38	0.619
813.56	0.622
813.74	0.631
813.91	0.638
814.09	0.667
814.26	0.660
814.44	0.664
814.62	0.654
814.79	0.656
814.97	0.662
815.14	0.666
815.32	0.672
815.50	0.688
815.67	0.690
815.85	0.683
816.02	0.673
816.20	0.681
816.38	0.697
816.55	0.703
816.73	0.701
816.90	0.711
817.08	0.740
817.26	0.739
817.43	0.720
817.61	0.745
817.78	0.763
817.96	0.743
818.13	0.732
818.31	0.729
818.49	0.740
818.66	0.732
818.84	0.719
819.01	0.700
819.19	0.708
819.36	0.708
819.54	0.677
819.71	0.714
819.89	0.727
820.07	0.739
820.24	0.734
820.42	0.734
820.59	0.753
820.77	0.772
820.94	0.762
821.12	0.782
821.29	0.799
821.47	0.801
821.64	0.741
821.82	0.755
822.00	0.754
822.17	0.751
822.35	0.745
822.52	0.747
822.70	0.736
822.87	0.745
823.05	0.724
823.22	0.735
823.40	0.761
823.57	0.782
823.75	0.760
823.92	0.783
824.10	0.800
824.27	0.832
824.45	0.817
824.62	0.876
824.80	0.894
824.97	0.906
825.15	0.893
825.32	0.900
825.50	0.897
825.67	0.908
825.85	0.885
826.02	0.904
826.20	0.927
826.37	1.042
826.55	0.971
826.72	1.145
826.90	1.202
827.07	1.258
827.25	1.209
827.42	1.370
827.60	1.515
827.77	1.657
827.95	1.650
828.12	1.817
828.30	1.436
828.47	1.555
828.65	1.199
828.82	1.263
829.00	1.332
829.17	1.454
829.34	1.446
829.52	1.496
829.69	-0.000
829.87	-0.000
830.04	-0.000
830.22	-0.000
830.39	-0.000
830.57	-0.000
830.74	-0.000
830.92	-0.000
831.09	-0.000
831.26	-0.000
831.44	-0.000
831.61	-0.000
831.79	-0.000
831.96	-0.000
832.14	-0.000
832.31	-0.000
832.49	-0.000
832.66	-0.000
832.83	-0.000
833.01	-0.000
833.18	-0.000
833.36	-0.000
833.53	-0.000
833.70	-0.000
833.88	-0.000
834.05	-0.000
834.23	-0.000
834.40	-0.000
834.58	-0.000
834.75	-0.000
834.92	-0.000
835.10	-0.000
835.27	-0.000
835.45	-0.000
835.62	-0.000
835.79	-0.000
835.97	-0.000
836.14	-0.000
836.32	-0.000
836.49	-0.000
836.66	-0.000
836.84	-0.000
837.01	-0.000
837.18	-0.000
837.36	-0.000
837.53	-0.000
837.71	-0.000
837.88	-0.000
838.05	-0.000
838.23	-0.000
838.40	-0.000
838.58	-0.000
838.75	-0.000
838.92	-0.000
839.10	-0.000
839.27	-0.000
839.44	-0.000
839.62	-0.000
839.79	-0.000
839.96	-0.000
840.14	-0.000
840.31	-0.000
840.48	-0.000
840.66	-0.000
840.83	-0.000
841.01	-0.000
841.18	-0.000
841.35	-0.000
841.53	-0.000
841.70	-0.000
841.87	-0.000
842.05	-0.000
842.22	-0.000
842.39	-0.000
842.57	-0.000
842.74	-0.000
842.91	-0.000
843.09	-0.000
843.26	-0.000
843.43	-0.000
843.60	-0.000
843.78	-0.000
843.95	-0.000
844.12	-0.000
844.30	-0.000
844.47	-0.000
844.64	-0.000
844.82	-0.000
844.99	-0.000
845.16	-0.000
845.34	-0.000
845.51	-0.000
845.68	-0.000
845.85	-0.000
846.03	-0.000
846.20	-0.000
846.37	-0.000
846.55	-0.000
846.72	-0.000
846.89	-0.000
847.06	-0.000
847.24	-0.000
847.41	-0.000
847.58	-0.000
847.76	-0.000
847.93	-0.000
848.10	-0.000
848.27	-0.000
848.45	-0.000
848.62	-0.000
848.79	-0.000
848.97	-0.000
849.14	-0.000
849.31	-0.000
849.48	-0.000
849.66	-0.000
849.83	-0.000
850.00	-0.000
850.17	-0.000
850.35	-0.000
850.52	-0.000
850.69	-0.000
850.86	-0.000
851.04	-0.000
851.21	-0.000
851.38	-0.000
851.55	-0.000
851.72	-0.000
851.90	-0.000
852.07	-0.000
852.24	-0.000
852.41	-0.000
852.59	-0.000
852.76	-0.000
852.93	-0.000
853.10	-0.000
853.28	-0.000
853.45	-0.000
853.62	-0.000
853.79	-0.000
853.96	-0.000
854.14	-0.000
854.31	-0.000
854.48	-0.000
854.65	-0.000
854.82	-0.000
855.00	-0.000
855.17	-0.000
855.34	-0.000
855.51	-0.000
855.68	-0.000
855.86	-0.000
856.03	-0.000
856.20	-0.000
856.37	-0.000
856.54	-0.000
856.72	-0.000
856.89	-0.000
857.06	-0.000
857.23	-0.000
857.40	-0.000
857.57	-0.000
857.75	-0.000
857.92	-0.000
858.09	-0.000
858.26	-0.000
858.43	-0.000
858.60	-0.000
858.78	-0.000
858.95	-0.000
859.12	-0.000
859.29	-0.000
859.46	-0.000
859.63	-0.000
859.81	-0.000
859.98	-0.000
860.15	-0.000
860.32	-0.000
860.49	-0.000
860.66	-0.000
860.83	-0.000
861.01	-0.000
861.18	-0.000
861.35	-0.000
861.52	-0.000
861.69	-0.000
861.86	-0.000
862.03	-0.000
862.21	-0.000
862.38	-0.000
862.55	-0.000
862.72	-0.000
862.89	-0.000
863.06	-0.000
863.23	-0.000
863.40	-0.000
863.58	-0.000
863.75	-0.000
863.92	-0.000
864.09	-0.000
864.26	-0.000
864.43	-0.000
864.60	-0.000
864.77	-0.000
864.94	-0.000
865.11	-0.000
865.29	-0.000
865.46	-0.000
865.63	-0.000
865.80	-0.000
865.97	-0.000
866.14	-0.000
866.31	-0.000
866.48	-0.000
866.65	-0.000
866.82	-0.000
866.99	-0.000
867.16	-0.000
867.34	-0.000
867.51	-0.000
867.68	-0.000
867.85	-0.000
868.02	-0.000
868.19	-0.000
868.36	-0.000
868.53	-0.000
868.70	-0.000
868.87	-0.000
869.04	-0.000
869.21	-0.000
869.38	-0.000
869.55	-0.000
869.72	-0.000
869.89	-0.000
870.06	-0.000
870.24	-0.000
870.41	-0.000
870.58	-0.000
870.75	-0.000
870.92	-0.000
871.09	-0.000
871.26	-0.000
871.43	-0.000
871.60	-0.000
871.77	-0.000
871.94	-0.000
872.11	-0.000
872.28	-0.000
872.45	-0.000
872.62	-0.000
872.79	-0.000
872.96	-0.000
873.13	-0.000
873.30	-0.000
873.47	-0.000
873.64	-0.000
873.81	-0.000
873.98	-0.000
874.15	-0.000
874.32	-0.000
874.49	-0.000
874.66	-0.000
874.83	-0.000
875.00	-0.000
875.17	-0.000
875.34	-0.000
875.51	-0.000
875.68	-0.000
875.85	-0.000
876.02	-0.000
876.19	-0.000
876.36	-0.000
876.53	-0.000
876.70	-0.000
876.87	-0.000
877.04	-0.000
877.21	-0.000
877.38	-0.000
877.55	-0.000
877.72	-0.000
877.89	-0.000
878.06	-0.000
878.23	-0.000
878.39	-0.000
878.56	-0.000
878.73	-0.000
878.90	-0.000
879.07	-0.000
879.24	-0.000
879.41	-0.000
879.58	-0.000
879.75	-0.000
879.92	-0.000
880.09	-0.000
880.26	-0.000
880.43	-0.000
880.60	-0.000
880.77	-0.000
880.94	-0.000
881.11	-0.000
881.27	-0.000
881.44	-0.000
881.61	-0.000
881.78	-0.000
881.95	-0.000
882.12	-0.000
882.29	-0.000
882.46	-0.000
882.63	-0.000
882.80	-0.000
882.97	-0.000
883.14	-0.000
883.30	-0.000
883.47	-0.000
883.64	-0.000
883.81	-0.000
883.98	-0.000
884.15	-0.000
884.32	-0.000
884.49	-0.000
884.66	-0.000
884.82	-0.000
884.99	-0.000
885.16	-0.000
885.33	-0.000
885.50	-0.000
885.67	-0.000
885.84	-0.000
886.01	-0.000
886.17	-0.000
886.34	-0.000
886.51	-0.000
886.68	-0.000
886.85	-0.000
887.02	-0.000
887.19	-0.000
887.36	-0.000
887.52	-0.000
887.69	-0.000
887.86	-0.000
888.03	-0.000
888.20	-0.000
888.37	-0.000
888.54	-0.000
888.70	-0.000
888.87	-0.000
889.04	-0.000
889.21	-0.000
889.38	-0.000
889.55	-0.000
889.71	-0.000
889.88	-0.000
890.05	-0.000
890.22	-0.000
890.39	-0.000
>>>>>End Processed Spectral Data<<<<<
