SpectraSuite Data File
++++++++++++++++++++++++++++++++++++
Date: Fri Jun 19 14:49:18 CEST 2015
User: introlabs
Dark Spectrum Present: Yes
Reference Spectrum Present: Yes
Number of Sampled Component Spectra: 1
Spectrometers: USB4H08886
Integration Time (usec): 745692 (USB4H08886)
Spectra Averaged: 5 (USB4H08886)
Boxcar Smoothing: 5 (USB4H08886)
Correct for Electrical Dark: Yes (USB4H08886)
Strobe/Lamp Enabled: No (USB4H08886)
Correct for Detector Non-linearity: Yes (USB4H08886)
Correct for Stray Light: Yes (USB4H08886)
Number of Pixels in Processed Spectrum: 3648
>>>>>Begin Processed Spectral Data<<<<<
178.14	-0.000
178.36	-0.000
178.57	-0.000
178.79	-0.000
179.01	-0.000
179.22	-0.000
179.44	-0.000
179.65	-0.000
179.87	-0.000
180.08	-0.000
180.30	-0.000
180.52	-0.000
180.73	-0.000
180.95	-0.000
181.16	-0.000
181.38	-0.000
181.59	-0.000
181.81	-0.000
182.03	-0.000
182.24	-0.000
182.46	-0.000
182.67	-0.000
182.89	-0.000
183.10	-0.000
183.32	-0.000
183.54	-0.000
183.75	-0.000
183.97	-0.000
184.18	-0.000
184.40	-0.000
184.61	-0.000
184.83	-0.000
185.04	-0.000
185.26	-0.000
185.48	-0.000
185.69	-0.000
185.91	-0.000
186.12	-0.000
186.34	-0.000
186.55	-0.000
186.77	-0.000
186.98	-0.000
187.20	-0.000
187.42	-0.000
187.63	-0.000
187.85	-0.000
188.06	-0.000
188.28	-0.000
188.49	-0.000
188.71	-0.000
188.92	-0.000
189.14	-0.000
189.36	-0.000
189.57	-0.000
189.79	-0.000
190.00	-0.000
190.22	-0.000
190.43	-0.000
190.65	-0.000
190.86	-0.000
191.08	-0.000
191.29	-0.000
191.51	-0.000
191.72	-0.000
191.94	-0.000
192.16	-0.000
192.37	-0.000
192.59	-0.000
192.80	-0.000
193.02	-0.000
193.23	-0.000
193.45	-0.000
193.66	-0.000
193.88	-0.000
194.09	-0.000
194.31	-0.000
194.52	-0.000
194.74	-0.000
194.95	-0.000
195.17	-0.000
195.38	-0.000
195.60	-0.000
195.81	-0.000
196.03	-0.000
196.25	-0.000
196.46	-0.000
196.68	-0.000
196.89	-0.000
197.11	-0.000
197.32	-0.000
197.54	-0.000
197.75	-0.000
197.97	-0.000
198.18	-0.000
198.40	-0.000
198.61	-0.000
198.83	-0.000
199.04	-0.000
199.26	-0.000
199.47	-0.000
199.69	-0.000
199.90	-0.000
200.12	-0.000
200.33	-0.000
200.55	-0.000
200.76	-0.000
200.98	-0.000
201.19	-0.000
201.41	-0.000
201.62	-0.000
201.84	-0.000
202.05	-0.000
202.27	-0.000
202.48	-0.000
202.70	-0.000
202.91	-0.000
203.13	-0.000
203.34	-0.000
203.56	-0.000
203.77	-0.000
203.99	-0.000
204.20	-0.000
204.42	-0.000
204.63	-0.000
204.85	-0.000
205.06	-0.000
205.28	-0.000
205.49	-0.000
205.71	-0.000
205.92	-0.000
206.14	-0.000
206.35	-0.000
206.56	-0.000
206.78	-0.000
206.99	-0.000
207.21	-0.000
207.42	-0.000
207.64	-0.000
207.85	-0.000
208.07	-0.000
208.28	-0.000
208.50	-0.000
208.71	-0.000
208.93	-0.000
209.14	-0.000
209.36	-0.000
209.57	-0.000
209.79	-0.000
210.00	-0.000
210.22	-0.000
210.43	-0.000
210.64	-0.000
210.86	-0.000
211.07	-0.000
211.29	-0.000
211.50	-0.000
211.72	-0.000
211.93	-0.000
212.15	-0.000
212.36	-0.000
212.58	-0.000
212.79	-0.000
213.01	-0.000
213.22	-0.000
213.43	-0.000
213.65	-0.000
213.86	-0.000
214.08	-0.000
214.29	-0.000
214.51	-0.000
214.72	-0.000
214.94	-0.000
215.15	-0.000
215.36	-0.000
215.58	-0.000
215.79	-0.000
216.01	-0.000
216.22	-0.000
216.44	-0.000
216.65	-0.000
216.87	-0.000
217.08	-0.000
217.29	-0.000
217.51	-0.000
217.72	-0.000
217.94	-0.000
218.15	-0.000
218.37	-0.000
218.58	-0.000
218.80	-0.000
219.01	-0.000
219.22	-0.000
219.44	-0.000
219.65	-0.000
219.87	-0.000
220.08	-0.000
220.30	-0.000
220.51	-0.000
220.72	-0.000
220.94	-0.000
221.15	-0.000
221.37	-0.000
221.58	-0.000
221.79	-0.000
222.01	-0.000
222.22	-0.000
222.44	-0.000
222.65	-0.000
222.87	-0.000
223.08	-0.000
223.29	-0.000
223.51	-0.000
223.72	-0.000
223.94	-0.000
224.15	-0.000
224.36	-0.000
224.58	-0.000
224.79	-0.000
225.01	-0.000
225.22	-0.000
225.44	-0.000
225.65	-0.000
225.86	-0.000
226.08	-0.000
226.29	-0.000
226.51	-0.000
226.72	-0.000
226.93	-0.000
227.15	-0.000
227.36	-0.000
227.58	-0.000
227.79	-0.000
228.00	-0.000
228.22	-0.000
228.43	-0.000
228.65	-0.000
228.86	-0.000
229.07	-0.000
229.29	-0.000
229.50	-0.000
229.72	-0.000
229.93	-0.000
230.14	-0.000
230.36	-0.000
230.57	-0.000
230.78	-0.000
231.00	-0.000
231.21	-0.000
231.43	-0.000
231.64	-0.000
231.85	-0.000
232.07	-0.000
232.28	-0.000
232.50	-0.000
232.71	-0.000
232.92	-0.000
233.14	-0.000
233.35	-0.000
233.56	-0.000
233.78	-0.000
233.99	-0.000
234.21	-0.000
234.42	-0.000
234.63	-0.000
234.85	-0.000
235.06	-0.000
235.27	-0.000
235.49	-0.000
235.70	-0.000
235.91	-0.000
236.13	-0.000
236.34	-0.000
236.56	-0.000
236.77	-0.000
236.98	-0.000
237.20	-0.000
237.41	-0.000
237.62	-0.000
237.84	-0.000
238.05	-0.000
238.26	-0.000
238.48	-0.000
238.69	-0.000
238.91	-0.000
239.12	-0.000
239.33	-0.000
239.55	-0.000
239.76	-0.000
239.97	-0.000
240.19	-0.000
240.40	-0.000
240.61	-0.000
240.83	-0.000
241.04	-0.000
241.25	-0.000
241.47	-0.000
241.68	-0.000
241.89	-0.000
242.11	-0.000
242.32	-0.000
242.53	-0.000
242.75	-0.000
242.96	-0.000
243.17	-0.000
243.39	-0.000
243.60	-0.000
243.81	-0.000
244.03	-0.000
244.24	-0.000
244.45	-0.000
244.67	-0.000
244.88	-0.000
245.09	-0.000
245.31	-0.000
245.52	-0.000
245.73	-0.000
245.95	-0.000
246.16	-0.000
246.37	-0.000
246.59	-0.000
246.80	-0.000
247.01	-0.000
247.23	-0.000
247.44	-0.000
247.65	-0.000
247.87	-0.000
248.08	-0.000
248.29	-0.000
248.51	-0.000
248.72	-0.000
248.93	-0.000
249.15	-0.000
249.36	-0.000
249.57	-0.000
249.78	-0.000
250.00	-0.000
250.21	-0.000
250.42	-0.000
250.64	-0.000
250.85	-0.000
251.06	-0.000
251.28	-0.000
251.49	-0.000
251.70	-0.000
251.92	-0.000
252.13	-0.000
252.34	-0.000
252.55	-0.000
252.77	-0.000
252.98	-0.000
253.19	-0.000
253.41	-0.000
253.62	-0.000
253.83	-0.000
254.05	-0.000
254.26	-0.000
254.47	-0.000
254.68	-0.000
254.90	-0.000
255.11	-0.000
255.32	-0.000
255.54	-0.000
255.75	-0.000
255.96	-0.000
256.17	-0.000
256.39	-0.000
256.60	-0.000
256.81	-0.000
257.03	-0.000
257.24	-0.000
257.45	-0.000
257.66	-0.000
257.88	-0.000
258.09	-0.000
258.30	-0.000
258.51	-0.000
258.73	-0.000
258.94	-0.000
259.15	-0.000
259.37	-0.000
259.58	-0.000
259.79	-0.000
260.00	-0.000
260.22	-0.000
260.43	-0.000
260.64	-0.000
260.85	-0.000
261.07	-0.000
261.28	-0.000
261.49	-0.000
261.71	-0.000
261.92	-0.000
262.13	-0.000
262.34	-0.000
262.56	-0.000
262.77	-0.000
262.98	-0.000
263.19	-0.000
263.41	-0.000
263.62	-0.000
263.83	-0.000
264.04	-0.000
264.26	-0.000
264.47	-0.000
264.68	-0.000
264.89	-0.000
265.11	-0.000
265.32	-0.000
265.53	-0.000
265.74	-0.000
265.96	-0.000
266.17	-0.000
266.38	-0.000
266.59	-0.000
266.81	-0.000
267.02	-0.000
267.23	-0.000
267.44	-0.000
267.65	-0.000
267.87	-0.000
268.08	-0.000
268.29	-0.000
268.50	-0.000
268.72	-0.000
268.93	-0.000
269.14	-0.000
269.35	-0.000
269.57	-0.000
269.78	-0.000
269.99	-0.000
270.20	-0.000
270.41	-0.000
270.63	-0.000
270.84	-0.000
271.05	-0.000
271.26	-0.000
271.48	-0.000
271.69	-0.000
271.90	-0.000
272.11	-0.000
272.32	-0.000
272.54	-0.000
272.75	-0.000
272.96	-0.000
273.17	-0.000
273.39	-0.000
273.60	-0.000
273.81	-0.000
274.02	-0.000
274.23	-0.000
274.45	-0.000
274.66	-0.000
274.87	-0.000
275.08	-0.000
275.29	-0.000
275.51	-0.000
275.72	-0.000
275.93	-0.000
276.14	-0.000
276.35	-0.000
276.57	-0.000
276.78	-0.000
276.99	-0.000
277.20	-0.000
277.41	-0.000
277.63	-0.000
277.84	-0.000
278.05	-0.000
278.26	-0.000
278.47	-0.000
278.69	-0.000
278.90	-0.000
279.11	-0.000
279.32	-0.000
279.53	-0.000
279.74	-0.000
279.96	-0.000
280.17	-0.000
280.38	-0.000
280.59	-0.000
280.80	-0.000
281.02	-0.000
281.23	-0.000
281.44	-0.000
281.65	-0.000
281.86	-0.000
282.07	-0.000
282.29	-0.000
282.50	-0.000
282.71	-0.000
282.92	-0.000
283.13	-0.000
283.35	-0.000
283.56	-0.000
283.77	-0.000
283.98	-0.000
284.19	-0.000
284.40	-0.000
284.62	-0.000
284.83	-0.000
285.04	-0.000
285.25	-0.000
285.46	-0.000
285.67	-0.000
285.88	-0.000
286.10	-0.000
286.31	-0.000
286.52	-0.000
286.73	-0.000
286.94	-0.000
287.15	-0.000
287.37	-0.000
287.58	-0.000
287.79	-0.000
288.00	-0.000
288.21	-0.000
288.42	-0.000
288.63	-0.000
288.85	-0.000
289.06	-0.000
289.27	-0.000
289.48	-0.000
289.69	-0.000
289.90	-0.000
290.11	-0.000
290.33	-0.000
290.54	-0.000
290.75	-0.000
290.96	-0.000
291.17	-0.000
291.38	-0.000
291.59	-0.000
291.81	-0.000
292.02	-0.000
292.23	-0.000
292.44	-0.000
292.65	-0.000
292.86	-0.000
293.07	-0.000
293.28	-0.000
293.50	-0.000
293.71	-0.000
293.92	-0.000
294.13	-0.000
294.34	-0.000
294.55	-0.000
294.76	-0.000
294.97	-0.000
295.19	-0.000
295.40	-0.000
295.61	-0.000
295.82	-0.000
296.03	-0.000
296.24	-0.000
296.45	2.161
296.66	1.785
296.87	1.817
297.09	1.902
297.30	2.152
297.51	1.738
297.72	1.690
297.93	1.772
298.14	1.749
298.35	1.712
298.56	1.677
298.77	1.812
298.99	1.781
299.20	1.757
299.41	1.735
299.62	1.686
299.83	1.675
300.04	1.615
300.25	1.611
300.46	1.644
300.67	1.604
300.88	1.559
301.10	1.554
301.31	1.619
301.52	1.552
301.73	1.500
301.94	1.500
302.15	1.515
302.36	1.470
302.57	1.412
302.78	1.425
302.99	1.473
303.20	1.489
303.41	1.399
303.63	1.385
303.84	1.389
304.05	1.386
304.26	1.328
304.47	1.332
304.68	1.339
304.89	1.328
305.10	1.288
305.31	1.272
305.52	1.319
305.73	1.314
305.94	1.276
306.15	1.271
306.37	1.289
306.58	1.298
306.79	1.265
307.00	1.285
307.21	1.320
307.42	1.316
307.63	1.278
307.84	1.244
308.05	1.281
308.26	1.281
308.47	1.260
308.68	1.258
308.89	1.256
309.10	1.260
309.31	1.220
309.52	1.212
309.73	1.226
309.95	1.222
310.16	1.194
310.37	1.182
310.58	1.200
310.79	1.197
311.00	1.194
311.21	1.198
311.42	1.200
311.63	1.194
311.84	1.178
312.05	1.174
312.26	1.197
312.47	1.208
312.68	1.185
312.89	1.170
313.10	1.176
313.31	1.149
313.52	1.148
313.73	1.147
313.94	1.150
314.15	1.131
314.36	1.111
314.57	1.103
314.78	1.093
314.99	1.086
315.21	1.073
315.42	1.079
315.63	1.091
315.84	1.070
316.05	1.056
316.26	1.064
316.47	1.081
316.68	1.077
316.89	1.059
317.10	1.076
317.31	1.081
317.52	1.083
317.73	1.062
317.94	1.062
318.15	1.103
318.36	1.102
318.57	1.085
318.78	1.073
318.99	1.107
319.20	1.102
319.41	1.069
319.62	1.071
319.83	1.082
320.04	1.077
320.25	1.060
320.46	1.030
320.67	1.032
320.88	1.028
321.09	1.015
321.30	1.002
321.51	1.017
321.72	1.016
321.93	0.999
322.14	0.991
322.35	1.018
322.56	1.023
322.77	1.009
322.98	1.020
323.19	1.029
323.40	1.035
323.61	1.014
323.82	1.010
324.03	1.016
324.24	1.014
324.45	1.003
324.66	0.983
324.87	0.979
325.08	0.979
325.29	0.961
325.50	0.954
325.71	0.959
325.92	0.966
326.13	0.952
326.34	0.952
326.55	0.960
326.76	0.960
326.97	0.949
327.18	0.943
327.39	0.966
327.60	0.966
327.80	0.967
328.01	0.966
328.22	0.965
328.43	0.969
328.64	0.957
328.85	0.962
329.06	0.963
329.27	0.965
329.48	0.960
329.69	0.942
329.90	0.952
330.11	0.945
330.32	0.938
330.53	0.932
330.74	0.931
330.95	0.930
331.16	0.914
331.37	0.921
331.58	0.920
331.79	0.921
332.00	0.911
332.21	0.905
332.42	0.909
332.63	0.900
332.83	0.896
333.04	0.899
333.25	0.909
333.46	0.907
333.67	0.894
333.88	0.897
334.09	0.907
334.30	0.904
334.51	0.895
334.72	0.891
334.93	0.895
335.14	0.894
335.35	0.887
335.56	0.883
335.77	0.892
335.98	0.890
336.18	0.884
336.39	0.876
336.60	0.881
336.81	0.879
337.02	0.879
337.23	0.882
337.44	0.885
337.65	0.886
337.86	0.877
338.07	0.873
338.28	0.877
338.49	0.875
338.70	0.868
338.91	0.874
339.11	0.882
339.32	0.877
339.53	0.865
339.74	0.862
339.95	0.859
340.16	0.857
340.37	0.850
340.58	0.849
340.79	0.852
341.00	0.852
341.21	0.841
341.41	0.841
341.62	0.843
341.83	0.845
342.04	0.840
342.25	0.851
342.46	0.855
342.67	0.855
342.88	0.847
343.09	0.847
343.30	0.852
343.50	0.855
343.71	0.846
343.92	0.844
344.13	0.850
344.34	0.849
344.55	0.832
344.76	0.830
344.97	0.833
345.18	0.832
345.38	0.830
345.59	0.826
345.80	0.825
346.01	0.823
346.22	0.819
346.43	0.812
346.64	0.820
346.85	0.821
347.06	0.814
347.26	0.815
347.47	0.819
347.68	0.813
347.89	0.809
348.10	0.804
348.31	0.810
348.52	0.810
348.73	0.807
348.93	0.804
349.14	0.805
349.35	0.805
349.56	0.799
349.77	0.795
349.98	0.801
350.19	0.799
350.39	0.795
350.60	0.790
350.81	0.805
351.02	0.804
351.23	0.800
351.44	0.802
351.65	0.805
351.86	0.802
352.06	0.801
352.27	0.800
352.48	0.802
352.69	0.801
352.90	0.796
353.11	0.782
353.31	0.789
353.52	0.785
353.73	0.777
353.94	0.779
354.15	0.785
354.36	0.784
354.57	0.775
354.77	0.777
354.98	0.776
355.19	0.775
355.40	0.775
355.61	0.780
355.82	0.785
356.02	0.784
356.23	0.778
356.44	0.779
356.65	0.783
356.86	0.784
357.07	0.777
357.27	0.782
357.48	0.784
357.69	0.780
357.90	0.765
358.11	0.762
358.32	0.765
358.52	0.768
358.73	0.757
358.94	0.760
359.15	0.764
359.36	0.765
359.56	0.759
359.77	0.756
359.98	0.763
360.19	0.762
360.40	0.760
360.61	0.760
360.81	0.759
361.02	0.759
361.23	0.751
361.44	0.749
361.65	0.749
361.85	0.748
362.06	0.746
362.27	0.748
362.48	0.748
362.69	0.750
362.89	0.744
363.10	0.745
363.31	0.750
363.52	0.754
363.73	0.749
363.93	0.750
364.14	0.753
364.35	0.755
364.56	0.745
364.77	0.747
364.97	0.750
365.18	0.750
365.39	0.745
365.60	0.742
365.81	0.742
366.01	0.742
366.22	0.739
366.43	0.738
366.64	0.739
366.84	0.745
367.05	0.741
367.26	0.741
367.47	0.743
367.68	0.743
367.88	0.741
368.09	0.739
368.30	0.742
368.51	0.741
368.71	0.740
368.92	0.743
369.13	0.740
369.34	0.741
369.55	0.739
369.75	0.739
369.96	0.745
370.17	0.745
370.38	0.741
370.58	0.740
370.79	0.746
371.00	0.745
371.21	0.738
371.41	0.744
371.62	0.747
371.83	0.743
372.04	0.740
372.24	0.734
372.45	0.735
372.66	0.736
372.87	0.733
373.07	0.729
373.28	0.729
373.49	0.731
373.70	0.722
373.90	0.721
374.11	0.731
374.32	0.731
374.53	0.730
374.73	0.730
374.94	0.733
375.15	0.733
375.36	0.730
375.56	0.739
375.77	0.740
375.98	0.740
376.19	0.737
376.39	0.731
376.60	0.733
376.81	0.734
377.02	0.732
377.22	0.730
377.43	0.731
377.64	0.731
377.84	0.722
378.05	0.726
378.26	0.732
378.47	0.731
378.67	0.727
378.88	0.725
379.09	0.725
379.30	0.725
379.50	0.723
379.71	0.725
379.92	0.728
380.12	0.727
380.33	0.719
380.54	0.716
380.75	0.723
380.95	0.723
381.16	0.721
381.37	0.722
381.57	0.724
381.78	0.725
381.99	0.724
382.20	0.723
382.40	0.726
382.61	0.727
382.82	0.723
383.02	0.716
383.23	0.719
383.44	0.719
383.64	0.717
383.85	0.719
384.06	0.721
384.27	0.719
384.47	0.718
384.68	0.718
384.89	0.724
385.09	0.723
385.30	0.722
385.51	0.722
385.71	0.726
385.92	0.727
386.13	0.726
386.33	0.728
386.54	0.729
386.75	0.728
386.95	0.724
387.16	0.719
387.37	0.722
387.58	0.722
387.78	0.720
387.99	0.718
388.20	0.720
388.40	0.716
388.61	0.712
388.82	0.715
389.02	0.717
389.23	0.718
389.44	0.717
389.64	0.718
389.85	0.729
390.06	0.729
390.26	0.729
390.47	0.728
390.68	0.731
390.88	0.728
391.09	0.724
391.30	0.724
391.50	0.723
391.71	0.722
391.92	0.720
392.12	0.712
392.33	0.712
392.53	0.712
392.74	0.713
392.95	0.712
393.15	0.716
393.36	0.718
393.57	0.715
393.77	0.718
393.98	0.720
394.19	0.720
394.39	0.720
394.60	0.722
394.81	0.723
395.01	0.721
395.22	0.719
395.43	0.720
395.63	0.725
395.84	0.726
396.04	0.722
396.25	0.724
396.46	0.725
396.66	0.724
396.87	0.721
397.08	0.719
397.28	0.721
397.49	0.723
397.69	0.720
397.90	0.715
398.11	0.716
398.31	0.717
398.52	0.714
398.73	0.716
398.93	0.714
399.14	0.714
399.34	0.712
399.55	0.713
399.76	0.713
399.96	0.713
400.17	0.712
400.37	0.710
400.58	0.716
400.79	0.718
400.99	0.715
401.20	0.720
401.41	0.723
401.61	0.723
401.82	0.729
402.02	0.729
402.23	0.731
402.44	0.731
402.64	0.731
402.85	0.725
403.05	0.724
403.26	0.723
403.47	0.717
403.67	0.716
403.88	0.717
404.08	0.711
404.29	0.709
404.50	0.708
404.70	0.709
404.91	0.707
405.11	0.704
405.32	0.704
405.52	0.705
405.73	0.705
405.94	0.703
406.14	0.706
406.35	0.708
406.55	0.708
406.76	0.706
406.97	0.707
407.17	0.710
407.38	0.710
407.58	0.709
407.79	0.711
407.99	0.714
408.20	0.715
408.41	0.711
408.61	0.708
408.82	0.709
409.02	0.709
409.23	0.707
409.43	0.705
409.64	0.706
409.84	0.707
410.05	0.703
410.26	0.702
410.46	0.701
410.67	0.700
410.87	0.702
411.08	0.703
411.28	0.705
411.49	0.706
411.69	0.704
411.90	0.706
412.11	0.707
412.31	0.707
412.52	0.706
412.72	0.707
412.93	0.708
413.13	0.707
413.34	0.703
413.54	0.705
413.75	0.706
413.95	0.706
414.16	0.702
414.37	0.705
414.57	0.706
414.78	0.708
414.98	0.706
415.19	0.707
415.39	0.705
415.60	0.706
415.80	0.705
416.01	0.703
416.21	0.705
416.42	0.705
416.62	0.700
416.83	0.700
417.03	0.700
417.24	0.700
417.44	0.698
417.65	0.697
417.86	0.698
418.06	0.696
418.27	0.694
418.47	0.696
418.68	0.696
418.88	0.697
419.09	0.695
419.29	0.695
419.50	0.696
419.70	0.695
419.91	0.694
420.11	0.691
420.32	0.694
420.52	0.693
420.73	0.693
420.93	0.693
421.14	0.695
421.34	0.694
421.55	0.690
421.75	0.691
421.96	0.692
422.16	0.692
422.37	0.691
422.57	0.688
422.78	0.690
422.98	0.686
423.19	0.684
423.39	0.682
423.60	0.686
423.80	0.687
424.01	0.686
424.21	0.688
424.42	0.689
424.62	0.689
424.83	0.688
425.03	0.688
425.23	0.690
425.44	0.690
425.64	0.691
425.85	0.690
426.05	0.690
426.26	0.690
426.46	0.686
426.67	0.686
426.87	0.691
427.08	0.691
427.28	0.689
427.49	0.690
427.69	0.691
427.90	0.690
428.10	0.688
428.31	0.688
428.51	0.690
428.71	0.689
428.92	0.690
429.12	0.687
429.33	0.688
429.53	0.692
429.74	0.696
429.94	0.695
430.15	0.694
430.35	0.694
430.56	0.691
430.76	0.691
430.96	0.691
431.17	0.689
431.37	0.686
431.58	0.684
431.78	0.681
431.99	0.673
432.19	0.676
432.40	0.678
432.60	0.678
432.80	0.681
433.01	0.679
433.21	0.679
433.42	0.681
433.62	0.681
433.83	0.680
434.03	0.682
434.23	0.686
434.44	0.685
434.64	0.682
434.85	0.687
435.05	0.688
435.26	0.688
435.46	0.687
435.66	0.686
435.87	0.687
436.07	0.687
436.28	0.683
436.48	0.680
436.69	0.679
436.89	0.679
437.09	0.673
437.30	0.672
437.50	0.673
437.71	0.684
437.91	0.683
438.11	0.685
438.32	0.689
438.52	0.690
438.73	0.689
438.93	0.688
439.13	0.687
439.34	0.691
439.54	0.689
439.75	0.688
439.95	0.679
440.15	0.683
440.36	0.681
440.56	0.678
440.77	0.679
440.97	0.678
441.17	0.677
441.38	0.678
441.58	0.675
441.79	0.675
441.99	0.673
442.19	0.672
442.40	0.669
442.60	0.669
442.81	0.667
443.01	0.667
443.21	0.667
443.42	0.667
443.62	0.666
443.82	0.666
444.03	0.667
444.23	0.667
444.44	0.667
444.64	0.666
444.84	0.667
445.05	0.667
445.25	0.665
445.45	0.665
445.66	0.667
445.86	0.666
446.06	0.668
446.27	0.667
446.47	0.670
446.68	0.668
446.88	0.667
447.08	0.666
447.29	0.668
447.49	0.669
447.69	0.668
447.90	0.667
448.10	0.670
448.30	0.667
448.51	0.668
448.71	0.666
448.91	0.669
449.12	0.667
449.32	0.669
449.52	0.668
449.73	0.671
449.93	0.671
450.14	0.672
450.34	0.671
450.54	0.673
450.75	0.670
450.95	0.669
451.15	0.669
451.36	0.671
451.56	0.668
451.76	0.667
451.97	0.663
452.17	0.663
452.37	0.661
452.58	0.658
452.78	0.658
452.98	0.660
453.19	0.660
453.39	0.660
453.59	0.660
453.79	0.660
454.00	0.661
454.20	0.661
454.40	0.662
454.61	0.664
454.81	0.664
455.01	0.663
455.22	0.663
455.42	0.664
455.62	0.662
455.83	0.662
456.03	0.665
456.23	0.666
456.44	0.666
456.64	0.665
456.84	0.665
457.04	0.666
457.25	0.665
457.45	0.662
457.65	0.661
457.86	0.661
458.06	0.660
458.26	0.655
458.47	0.654
458.67	0.655
458.87	0.656
459.07	0.654
459.28	0.656
459.48	0.658
459.68	0.658
459.89	0.657
460.09	0.656
460.29	0.658
460.49	0.658
460.70	0.657
460.90	0.657
461.10	0.657
461.31	0.657
461.51	0.654
461.71	0.656
461.91	0.657
462.12	0.657
462.32	0.656
462.52	0.657
462.72	0.660
462.93	0.661
463.13	0.659
463.33	0.660
463.53	0.661
463.74	0.660
463.94	0.656
464.14	0.656
464.35	0.657
464.55	0.658
464.75	0.656
464.95	0.654
465.16	0.656
465.36	0.655
465.56	0.654
465.76	0.653
465.97	0.653
466.17	0.654
466.37	0.652
466.57	0.653
466.78	0.653
466.98	0.653
467.18	0.651
467.38	0.650
467.59	0.652
467.79	0.653
467.99	0.652
468.19	0.654
468.39	0.657
468.60	0.656
468.80	0.654
469.00	0.656
469.20	0.656
469.41	0.656
469.61	0.656
469.81	0.656
470.01	0.656
470.22	0.656
470.42	0.654
470.62	0.652
470.82	0.654
471.02	0.653
471.23	0.651
471.43	0.652
471.63	0.655
471.83	0.654
472.04	0.653
472.24	0.651
472.44	0.656
472.64	0.656
472.84	0.654
473.05	0.654
473.25	0.658
473.45	0.657
473.65	0.655
473.85	0.655
474.06	0.657
474.26	0.656
474.46	0.657
474.66	0.654
474.86	0.655
475.07	0.655
475.27	0.653
475.47	0.650
475.67	0.651
475.87	0.653
476.08	0.649
476.28	0.650
476.48	0.651
476.68	0.650
476.88	0.648
477.09	0.649
477.29	0.651
477.49	0.651
477.69	0.650
477.89	0.650
478.09	0.650
478.30	0.653
478.50	0.650
478.70	0.649
478.90	0.650
479.10	0.653
479.31	0.653
479.51	0.651
479.71	0.653
479.91	0.652
480.11	0.651
480.31	0.651
480.52	0.650
480.72	0.650
480.92	0.649
481.12	0.647
481.32	0.644
481.52	0.642
481.72	0.642
481.93	0.645
482.13	0.646
482.33	0.646
482.53	0.643
482.73	0.645
482.93	0.646
483.14	0.646
483.34	0.645
483.54	0.646
483.74	0.645
483.94	0.644
484.14	0.640
484.34	0.640
484.55	0.640
484.75	0.640
484.95	0.638
485.15	0.638
485.35	0.638
485.55	0.637
485.75	0.635
485.96	0.636
486.16	0.637
486.36	0.637
486.56	0.635
486.76	0.635
486.96	0.636
487.16	0.635
487.36	0.633
487.57	0.633
487.77	0.634
487.97	0.635
488.17	0.633
488.37	0.632
488.57	0.633
488.77	0.632
488.97	0.631
489.18	0.631
489.38	0.633
489.58	0.634
489.78	0.633
489.98	0.633
490.18	0.633
490.38	0.633
490.58	0.632
490.78	0.633
490.98	0.635
491.19	0.635
491.39	0.634
491.59	0.633
491.79	0.635
491.99	0.636
492.19	0.636
492.39	0.639
492.59	0.639
492.79	0.641
492.99	0.641
493.20	0.641
493.40	0.641
493.60	0.643
493.80	0.641
494.00	0.639
494.20	0.640
494.40	0.639
494.60	0.637
494.80	0.641
495.00	0.640
495.20	0.638
495.40	0.637
495.61	0.639
495.81	0.639
496.01	0.642
496.21	0.643
496.41	0.642
496.61	0.643
496.81	0.642
497.01	0.637
497.21	0.636
497.41	0.637
497.61	0.636
497.81	0.634
498.01	0.634
498.21	0.632
498.41	0.630
498.61	0.630
498.82	0.632
499.02	0.634
499.22	0.634
499.42	0.633
499.62	0.635
499.82	0.635
500.02	0.636
500.22	0.635
500.42	0.637
500.62	0.637
500.82	0.637
501.02	0.634
501.22	0.635
501.42	0.635
501.62	0.637
501.82	0.636
502.02	0.636
502.22	0.636
502.42	0.637
502.62	0.634
502.82	0.635
503.02	0.636
503.22	0.636
503.42	0.634
503.63	0.634
503.83	0.632
504.03	0.631
504.23	0.630
504.43	0.630
504.63	0.632
504.83	0.632
505.03	0.631
505.23	0.633
505.43	0.635
505.63	0.635
505.83	0.634
506.03	0.636
506.23	0.638
506.43	0.638
506.63	0.637
506.83	0.636
507.03	0.638
507.23	0.639
507.43	0.636
507.63	0.637
507.83	0.637
508.03	0.638
508.23	0.637
508.43	0.636
508.63	0.638
508.83	0.638
509.03	0.639
509.23	0.637
509.43	0.638
509.63	0.638
509.83	0.637
510.03	0.639
510.23	0.641
510.43	0.641
510.63	0.642
510.83	0.641
511.03	0.643
511.23	0.640
511.43	0.640
511.63	0.641
511.83	0.643
512.03	0.644
512.22	0.641
512.42	0.640
512.62	0.641
512.82	0.641
513.02	0.640
513.22	0.640
513.42	0.642
513.62	0.644
513.82	0.642
514.02	0.641
514.22	0.643
514.42	0.642
514.62	0.642
514.82	0.642
515.02	0.644
515.22	0.647
515.42	0.646
515.62	0.649
515.82	0.647
516.02	0.649
516.22	0.649
516.42	0.650
516.62	0.652
516.82	0.653
517.01	0.651
517.21	0.651
517.41	0.655
517.61	0.655
517.81	0.651
518.01	0.650
518.21	0.650
518.41	0.648
518.61	0.647
518.81	0.647
519.01	0.648
519.21	0.648
519.41	0.646
519.61	0.641
519.81	0.643
520.00	0.644
520.20	0.645
520.40	0.648
520.60	0.650
520.80	0.649
521.00	0.649
521.20	0.651
521.40	0.656
521.60	0.657
521.80	0.656
522.00	0.656
522.20	0.658
522.39	0.657
522.59	0.653
522.79	0.655
522.99	0.657
523.19	0.656
523.39	0.653
523.59	0.651
523.79	0.654
523.99	0.656
524.19	0.655
524.38	0.654
524.58	0.655
524.78	0.655
524.98	0.654
525.18	0.655
525.38	0.656
525.58	0.657
525.78	0.655
525.98	0.653
526.18	0.653
526.37	0.653
526.57	0.655
526.77	0.655
526.97	0.657
527.17	0.657
527.37	0.653
527.57	0.655
527.77	0.657
527.96	0.657
528.16	0.656
528.36	0.656
528.56	0.658
528.76	0.655
528.96	0.654
529.16	0.656
529.36	0.659
529.55	0.658
529.75	0.655
529.95	0.655
530.15	0.656
530.35	0.659
530.55	0.657
530.75	0.657
530.94	0.659
531.14	0.659
531.34	0.657
531.54	0.655
531.74	0.658
531.94	0.661
532.13	0.660
532.33	0.661
532.53	0.659
532.73	0.659
532.93	0.657
533.13	0.659
533.33	0.659
533.52	0.659
533.72	0.662
533.92	0.660
534.12	0.658
534.32	0.658
534.52	0.657
534.71	0.659
534.91	0.663
535.11	0.664
535.31	0.662
535.51	0.664
535.71	0.666
535.90	0.663
536.10	0.664
536.30	0.666
536.50	0.668
536.70	0.667
536.89	0.665
537.09	0.664
537.29	0.664
537.49	0.665
537.69	0.664
537.89	0.665
538.08	0.664
538.28	0.662
538.48	0.662
538.68	0.664
538.88	0.666
539.07	0.665
539.27	0.664
539.47	0.663
539.67	0.663
539.87	0.664
540.06	0.662
540.26	0.664
540.46	0.667
540.66	0.664
540.86	0.661
541.05	0.661
541.25	0.663
541.45	0.663
541.65	0.661
541.84	0.663
542.04	0.664
542.24	0.664
542.44	0.663
542.64	0.664
542.83	0.667
543.03	0.667
543.23	0.665
543.43	0.665
543.62	0.667
543.82	0.668
544.02	0.667
544.22	0.667
544.42	0.671
544.61	0.671
544.81	0.667
545.01	0.666
545.21	0.668
545.40	0.669
545.60	0.667
545.80	0.671
546.00	0.670
546.19	0.669
546.39	0.667
546.59	0.665
546.79	0.666
546.98	0.666
547.18	0.666
547.38	0.667
547.58	0.669
547.77	0.669
547.97	0.666
548.17	0.668
548.37	0.669
548.56	0.669
548.76	0.668
548.96	0.670
549.16	0.673
549.35	0.673
549.55	0.670
549.75	0.670
549.95	0.673
550.14	0.674
550.34	0.672
550.54	0.677
550.73	0.681
550.93	0.681
551.13	0.678
551.33	0.676
551.52	0.677
551.72	0.678
551.92	0.676
552.12	0.677
552.31	0.677
552.51	0.677
552.71	0.672
552.90	0.672
553.10	0.673
553.30	0.673
553.50	0.673
553.69	0.674
553.89	0.674
554.09	0.675
554.28	0.671
554.48	0.673
554.68	0.675
554.87	0.675
555.07	0.671
555.27	0.672
555.47	0.673
555.66	0.673
555.86	0.672
556.06	0.675
556.25	0.676
556.45	0.684
556.65	0.682
556.84	0.685
557.04	0.688
557.24	0.690
557.43	0.690
557.63	0.693
557.83	0.694
558.02	0.695
558.22	0.699
558.42	0.700
558.61	0.693
558.81	0.693
559.01	0.689
559.21	0.689
559.40	0.690
559.60	0.690
559.80	0.687
559.99	0.688
560.19	0.689
560.39	0.684
560.58	0.681
560.78	0.681
560.97	0.684
561.17	0.683
561.37	0.681
561.56	0.682
561.76	0.683
561.96	0.682
562.15	0.679
562.35	0.682
562.55	0.683
562.74	0.683
562.94	0.682
563.14	0.680
563.33	0.681
563.53	0.681
563.73	0.678
563.92	0.680
564.12	0.683
564.31	0.685
564.51	0.683
564.71	0.684
564.90	0.688
565.10	0.688
565.30	0.691
565.49	0.692
565.69	0.694
565.89	0.694
566.08	0.692
566.28	0.693
566.47	0.694
566.67	0.692
566.87	0.689
567.06	0.691
567.26	0.698
567.46	0.694
567.65	0.693
567.85	0.694
568.04	0.697
568.24	0.696
568.44	0.694
568.63	0.692
568.83	0.693
569.02	0.691
569.22	0.687
569.42	0.683
569.61	0.685
569.81	0.683
570.00	0.682
570.20	0.683
570.40	0.684
570.59	0.684
570.79	0.683
570.98	0.682
571.18	0.684
571.38	0.683
571.57	0.680
571.77	0.678
571.96	0.682
572.16	0.680
572.35	0.674
572.55	0.675
572.75	0.673
572.94	0.673
573.14	0.671
573.33	0.671
573.53	0.672
573.73	0.671
573.92	0.669
574.12	0.667
574.31	0.670
574.51	0.671
574.70	0.668
574.90	0.669
575.09	0.672
575.29	0.672
575.49	0.669
575.68	0.670
575.88	0.671
576.07	0.673
576.27	0.671
576.46	0.669
576.66	0.669
576.86	0.668
577.05	0.666
577.25	0.664
577.44	0.666
577.64	0.666
577.83	0.664
578.03	0.665
578.22	0.665
578.42	0.664
578.61	0.662
578.81	0.663
579.00	0.663
579.20	0.663
579.40	0.662
579.59	0.660
579.79	0.660
579.98	0.660
580.18	0.659
580.37	0.659
580.57	0.661
580.76	0.666
580.96	0.664
581.15	0.664
581.35	0.666
581.54	0.665
581.74	0.665
581.93	0.666
582.13	0.667
582.32	0.665
582.52	0.663
582.71	0.663
582.91	0.659
583.10	0.659
583.30	0.658
583.49	0.657
583.69	0.662
583.88	0.662
584.08	0.662
584.27	0.664
584.47	0.667
584.66	0.668
584.86	0.667
585.05	0.669
585.25	0.672
585.44	0.671
585.64	0.670
585.83	0.666
586.03	0.667
586.22	0.665
586.42	0.661
586.61	0.663
586.81	0.665
587.00	0.665
587.20	0.662
587.39	0.662
587.59	0.664
587.78	0.665
587.98	0.666
588.17	0.666
588.37	0.669
588.56	0.671
588.76	0.667
588.95	0.667
589.15	0.671
589.34	0.673
589.54	0.671
589.73	0.672
589.92	0.675
590.12	0.675
590.31	0.673
590.51	0.678
590.70	0.680
590.90	0.681
591.09	0.679
591.29	0.677
591.48	0.677
591.68	0.678
591.87	0.676
592.06	0.676
592.26	0.679
592.45	0.678
592.65	0.671
592.84	0.671
593.04	0.673
593.23	0.675
593.43	0.673
593.62	0.673
593.81	0.674
594.01	0.673
594.20	0.671
594.40	0.669
594.59	0.671
594.79	0.671
594.98	0.670
595.17	0.669
595.37	0.670
595.56	0.672
595.76	0.670
595.95	0.672
596.14	0.675
596.34	0.676
596.53	0.675
596.73	0.677
596.92	0.678
597.12	0.681
597.31	0.680
597.50	0.680
597.70	0.682
597.89	0.681
598.09	0.678
598.28	0.679
598.47	0.682
598.67	0.681
598.86	0.677
599.06	0.678
599.25	0.678
599.44	0.676
599.64	0.674
599.83	0.671
600.03	0.674
600.22	0.675
600.41	0.675
600.61	0.673
600.80	0.675
601.00	0.675
601.19	0.671
601.38	0.670
601.58	0.673
601.77	0.674
601.96	0.676
602.16	0.676
602.35	0.684
602.55	0.682
602.74	0.682
602.93	0.684
603.13	0.689
603.32	0.692
603.51	0.692
603.71	0.695
603.90	0.696
604.09	0.697
604.29	0.694
604.48	0.689
604.68	0.690
604.87	0.689
605.06	0.685
605.26	0.682
605.45	0.683
605.64	0.681
605.84	0.676
606.03	0.676
606.22	0.675
606.42	0.674
606.61	0.671
606.80	0.671
607.00	0.672
607.19	0.672
607.38	0.671
607.58	0.672
607.77	0.674
607.96	0.674
608.16	0.672
608.35	0.676
608.54	0.679
608.74	0.682
608.93	0.687
609.12	0.690
609.32	0.692
609.51	0.695
609.70	0.694
609.90	0.696
610.09	0.701
610.28	0.707
610.48	0.701
610.67	0.702
610.86	0.703
611.06	0.698
611.25	0.695
611.44	0.696
611.64	0.696
611.83	0.699
612.02	0.695
612.21	0.694
612.41	0.693
612.60	0.692
612.79	0.688
612.99	0.688
613.18	0.690
613.37	0.688
613.57	0.686
613.76	0.688
613.95	0.685
614.14	0.685
614.34	0.682
614.53	0.683
614.72	0.685
614.92	0.685
615.11	0.682
615.30	0.679
615.49	0.680
615.69	0.683
615.88	0.678
616.07	0.679
616.26	0.682
616.46	0.683
616.65	0.679
616.84	0.678
617.04	0.680
617.23	0.683
617.42	0.683
617.61	0.687
617.81	0.687
618.00	0.690
618.19	0.688
618.38	0.692
618.58	0.695
618.77	0.697
618.96	0.697
619.15	0.699
619.35	0.701
619.54	0.702
619.73	0.698
619.92	0.700
620.12	0.704
620.31	0.705
620.50	0.699
620.69	0.699
620.89	0.702
621.08	0.702
621.27	0.701
621.46	0.700
621.66	0.704
621.85	0.704
622.04	0.700
622.23	0.700
622.43	0.701
622.62	0.701
622.81	0.700
623.00	0.700
623.19	0.704
623.39	0.702
623.58	0.700
623.77	0.699
623.96	0.701
624.16	0.701
624.35	0.696
624.54	0.699
624.73	0.703
624.92	0.701
625.12	0.698
625.31	0.699
625.50	0.702
625.69	0.703
625.88	0.699
626.08	0.699
626.27	0.701
626.46	0.702
626.65	0.698
626.84	0.698
627.04	0.703
627.23	0.703
627.42	0.699
627.61	0.700
627.80	0.703
628.00	0.704
628.19	0.702
628.38	0.704
628.57	0.707
628.76	0.707
628.96	0.704
629.15	0.704
629.34	0.707
629.53	0.707
629.72	0.702
629.91	0.702
630.11	0.707
630.30	0.708
630.49	0.710
630.68	0.710
630.87	0.713
631.06	0.715
631.26	0.709
631.45	0.711
631.64	0.719
631.83	0.721
632.02	0.718
632.21	0.716
632.41	0.723
632.60	0.717
632.79	0.715
632.98	0.716
633.17	0.717
633.36	0.719
633.55	0.715
633.75	0.712
633.94	0.714
634.13	0.714
634.32	0.712
634.51	0.706
634.70	0.708
634.89	0.708
635.09	0.704
635.28	0.704
635.47	0.704
635.66	0.707
635.85	0.703
636.04	0.704
636.23	0.709
636.43	0.710
636.62	0.711
636.81	0.710
637.00	0.713
637.19	0.716
637.38	0.712
637.57	0.713
637.76	0.713
637.95	0.715
638.15	0.711
638.34	0.708
638.53	0.711
638.72	0.713
638.91	0.711
639.10	0.709
639.29	0.709
639.48	0.711
639.67	0.711
639.87	0.710
640.06	0.715
640.25	0.714
640.44	0.714
640.63	0.714
640.82	0.716
641.01	0.715
641.20	0.715
641.39	0.717
641.58	0.719
641.78	0.718
641.97	0.713
642.16	0.727
642.35	0.729
642.54	0.728
642.73	0.723
642.92	0.721
643.11	0.724
643.30	0.724
643.49	0.718
643.68	0.720
643.87	0.721
644.06	0.722
644.25	0.703
644.45	0.704
644.64	0.706
644.83	0.707
645.02	0.704
645.21	0.703
645.40	0.704
645.59	0.705
645.78	0.699
645.97	0.701
646.16	0.702
646.35	0.701
646.54	0.700
646.73	0.701
646.92	0.703
647.11	0.702
647.30	0.698
647.49	0.700
647.68	0.699
647.88	0.697
648.07	0.691
648.26	0.695
648.45	0.697
648.64	0.692
648.83	0.690
649.02	0.692
649.21	0.702
649.40	0.701
649.59	0.697
649.78	0.699
649.97	0.713
650.16	0.713
650.35	0.707
650.54	0.710
650.73	0.718
650.92	0.715
651.11	0.708
651.30	0.706
651.49	0.710
651.68	0.711
651.87	0.707
652.06	0.696
652.25	0.699
652.44	0.702
652.63	0.699
652.82	0.700
653.01	0.700
653.20	0.699
653.39	0.687
653.58	0.685
653.77	0.684
653.96	0.680
654.15	0.672
654.34	0.670
654.53	0.665
654.72	0.659
654.91	0.649
655.10	0.645
655.29	0.643
655.48	0.640
655.67	0.635
655.86	0.633
656.05	0.632
656.24	0.631
656.43	0.626
656.62	0.625
656.81	0.625
657.00	0.623
657.19	0.620
657.38	0.620
657.57	0.619
657.76	0.621
657.95	0.619
658.14	0.622
658.33	0.626
658.51	0.630
658.70	0.630
658.89	0.632
659.08	0.641
659.27	0.649
659.46	0.649
659.65	0.655
659.84	0.658
660.03	0.661
660.22	0.662
660.41	0.666
660.60	0.665
660.79	0.666
660.98	0.673
661.17	0.672
661.36	0.671
661.55	0.672
661.74	0.669
661.92	0.672
662.11	0.674
662.30	0.673
662.49	0.667
662.68	0.666
662.87	0.669
663.06	0.663
663.25	0.664
663.44	0.664
663.63	0.664
663.82	0.663
664.01	0.658
664.20	0.657
664.38	0.658
664.57	0.659
664.76	0.658
664.95	0.659
665.14	0.663
665.33	0.659
665.52	0.666
665.71	0.670
665.90	0.670
666.09	0.671
666.28	0.668
666.46	0.667
666.65	0.667
666.84	0.666
667.03	0.660
667.22	0.657
667.41	0.660
667.60	0.649
667.79	0.643
667.98	0.645
668.16	0.646
668.35	0.645
668.54	0.642
668.73	0.643
668.92	0.644
669.11	0.643
669.30	0.637
669.49	0.633
669.67	0.635
669.86	0.638
670.05	0.635
670.24	0.633
670.43	0.632
670.62	0.630
670.81	0.625
671.00	0.627
671.18	0.628
671.37	0.627
671.56	0.625
671.75	0.624
671.94	0.620
672.13	0.619
672.32	0.614
672.50	0.614
672.69	0.615
672.88	0.615
673.07	0.610
673.26	0.612
673.45	0.614
673.63	0.613
673.82	0.610
674.01	0.612
674.20	0.611
674.39	0.611
674.58	0.609
674.76	0.609
674.95	0.607
675.14	0.607
675.33	0.602
675.52	0.601
675.71	0.601
675.89	0.600
676.08	0.597
676.27	0.596
676.46	0.597
676.65	0.597
676.84	0.596
677.02	0.599
677.21	0.601
677.40	0.600
677.59	0.597
677.78	0.597
677.96	0.600
678.15	0.599
678.34	0.597
678.53	0.598
678.72	0.598
678.90	0.595
679.09	0.591
679.28	0.587
679.47	0.587
679.66	0.587
679.84	0.584
680.03	0.582
680.22	0.580
680.41	0.582
680.60	0.578
680.78	0.578
680.97	0.581
681.16	0.581
681.35	0.580
681.53	0.579
681.72	0.580
681.91	0.582
682.10	0.580
682.29	0.582
682.47	0.580
682.66	0.579
682.85	0.577
683.04	0.575
683.22	0.574
683.41	0.576
683.60	0.575
683.79	0.576
683.97	0.575
684.16	0.574
684.35	0.570
684.54	0.572
684.72	0.572
684.91	0.573
685.10	0.572
685.29	0.573
685.47	0.570
685.66	0.568
685.85	0.565
686.04	0.564
686.22	0.566
686.41	0.569
686.60	0.566
686.79	0.568
686.97	0.569
687.16	0.571
687.35	0.569
687.54	0.573
687.72	0.577
687.91	0.577
688.10	0.579
688.29	0.579
688.47	0.577
688.66	0.577
688.85	0.573
689.03	0.571
689.22	0.576
689.41	0.575
689.60	0.570
689.78	0.568
689.97	0.568
690.16	0.565
690.34	0.561
690.53	0.561
690.72	0.560
690.91	0.558
691.09	0.556
691.28	0.550
691.47	0.549
691.65	0.548
691.84	0.546
692.03	0.545
692.21	0.543
692.40	0.543
692.59	0.541
692.77	0.539
692.96	0.540
693.15	0.541
693.34	0.538
693.52	0.538
693.71	0.539
693.90	0.540
694.08	0.540
694.27	0.542
694.46	0.551
694.64	0.552
694.83	0.552
695.02	0.551
695.20	0.551
695.39	0.551
695.58	0.551
695.76	0.552
695.95	0.552
696.14	0.550
696.32	0.549
696.51	0.539
696.70	0.538
696.88	0.539
697.07	0.538
697.26	0.539
697.44	0.541
697.63	0.539
697.81	0.536
698.00	0.536
698.19	0.536
698.37	0.535
698.56	0.535
698.75	0.535
698.93	0.535
699.12	0.535
699.31	0.534
699.49	0.533
699.68	0.534
699.87	0.536
700.05	0.537
700.24	0.536
700.42	0.538
700.61	0.537
700.80	0.535
700.98	0.535
701.17	0.536
701.36	0.536
701.54	0.535
701.73	0.536
701.91	0.534
702.10	0.533
702.29	0.531
702.47	0.530
702.66	0.532
702.84	0.533
703.03	0.530
703.22	0.532
703.40	0.532
703.59	0.533
703.77	0.532
703.96	0.532
704.15	0.532
704.33	0.533
704.52	0.532
704.70	0.532
704.89	0.531
705.08	0.530
705.26	0.526
705.45	0.525
705.63	0.525
705.82	0.521
706.00	0.520
706.19	0.520
706.38	0.520
706.56	0.520
706.75	0.517
706.93	0.516
707.12	0.518
707.30	0.518
707.49	0.516
707.68	0.514
707.86	0.514
708.05	0.514
708.23	0.511
708.42	0.512
708.60	0.514
708.79	0.514
708.98	0.513
709.16	0.512
709.35	0.514
709.53	0.517
709.72	0.517
709.90	0.519
710.09	0.520
710.27	0.522
710.46	0.526
710.64	0.525
710.83	0.527
711.02	0.528
711.20	0.527
711.39	0.525
711.57	0.523
711.76	0.524
711.94	0.521
712.13	0.523
712.31	0.522
712.50	0.517
712.68	0.515
712.87	0.515
713.05	0.516
713.24	0.517
713.42	0.516
713.61	0.517
713.79	0.518
713.98	0.518
714.16	0.518
714.35	0.518
714.54	0.519
714.72	0.519
714.91	0.517
715.09	0.523
715.28	0.525
715.46	0.525
715.65	0.522
715.83	0.522
716.02	0.525
716.20	0.521
716.39	0.520
716.57	0.521
716.76	0.524
716.94	0.524
717.12	0.516
717.31	0.517
717.49	0.520
717.68	0.522
717.86	0.523
718.05	0.524
718.23	0.527
718.42	0.529
718.60	0.530
718.79	0.537
718.97	0.539
719.16	0.540
719.34	0.538
719.53	0.538
719.71	0.538
719.90	0.539
720.08	0.536
720.27	0.536
720.45	0.537
720.63	0.535
720.82	0.529
721.00	0.532
721.19	0.535
721.37	0.534
721.56	0.534
721.74	0.537
721.93	0.546
722.11	0.552
722.30	0.551
722.48	0.555
722.66	0.556
722.85	0.556
723.03	0.557
723.22	0.555
723.40	0.558
723.59	0.557
723.77	0.561
723.95	0.555
724.14	0.557
724.32	0.559
724.51	0.558
724.69	0.559
724.88	0.560
725.06	0.558
725.24	0.559
725.43	0.561
725.61	0.564
725.80	0.558
725.98	0.556
726.16	0.552
726.35	0.557
726.53	0.555
726.72	0.554
726.90	0.564
727.09	0.566
727.27	0.571
727.45	0.567
727.64	0.575
727.82	0.583
728.01	0.587
728.19	0.585
728.37	0.590
728.56	0.594
728.74	0.600
728.92	0.588
729.11	0.590
729.29	0.589
729.48	0.593
729.66	0.582
729.84	0.579
730.03	0.583
730.21	0.586
730.40	0.575
730.58	0.575
730.76	0.575
730.95	0.577
731.13	0.577
731.31	0.590
731.50	0.599
731.68	0.602
731.86	0.601
732.05	0.615
732.23	0.617
732.42	0.621
732.60	0.626
732.78	0.631
732.97	0.648
733.15	0.654
733.33	0.643
733.52	0.649
733.70	0.660
733.88	0.667
734.07	0.653
734.25	0.679
734.43	0.688
734.62	0.689
734.80	0.684
734.98	0.675
735.17	0.682
735.35	0.688
735.53	0.677
735.72	0.680
735.90	0.703
736.08	0.720
736.27	0.697
736.45	0.705
736.63	0.717
736.82	0.728
737.00	0.727
737.18	0.739
737.37	0.767
737.55	0.789
737.73	0.784
737.92	0.786
738.10	0.783
738.28	0.803
738.46	0.792
738.65	0.803
738.83	0.823
739.01	0.876
739.20	0.867
739.38	0.850
739.56	0.843
739.75	0.845
739.93	0.813
740.11	0.836
740.29	0.835
740.48	0.837
740.66	0.818
740.84	0.814
741.03	0.780
741.21	0.787
741.39	0.768
741.57	0.779
741.76	0.797
741.94	0.800
742.12	0.769
742.31	0.774
742.49	0.795
742.67	0.816
742.85	0.828
743.04	0.831
743.22	0.840
743.40	0.891
743.58	0.876
743.77	0.894
743.95	0.925
744.13	0.970
744.31	0.950
744.50	0.943
744.68	0.940
744.86	0.915
745.04	0.925
745.23	0.984
745.41	0.964
745.59	0.967
745.77	0.934
745.96	0.928
746.14	0.932
746.32	0.931
746.50	0.925
746.69	0.910
746.87	0.923
747.05	0.908
747.23	0.840
747.42	0.832
747.60	0.853
747.78	0.853
747.96	0.878
748.14	0.840
748.33	0.870
748.51	0.862
748.69	0.855
748.87	0.882
749.06	0.882
749.24	0.880
749.42	0.865
749.60	0.854
749.78	0.862
749.97	0.819
750.15	0.813
750.33	0.811
750.51	0.838
750.69	0.843
750.88	0.844
751.06	0.851
751.24	0.876
751.42	0.866
751.60	0.858
751.79	0.923
751.97	0.964
752.15	0.967
752.33	0.940
752.51	0.996
752.69	1.009
752.88	0.980
753.06	1.024
753.24	1.002
753.42	1.038
753.60	1.188
753.78	1.062
753.97	1.082
754.15	1.096
754.33	1.126
754.51	1.006
754.69	0.996
754.87	1.024
755.06	0.957
755.24	0.952
755.42	0.959
755.60	0.867
755.78	0.877
755.96	0.825
756.15	0.826
756.33	0.830
756.51	0.853
756.69	0.837
756.87	0.805
757.05	0.823
757.23	0.810
757.42	0.778
757.60	0.775
757.78	0.765
757.96	0.764
758.14	0.746
758.32	0.731
758.50	0.740
758.69	0.738
758.87	0.732
759.05	0.734
759.23	0.744
759.41	0.744
759.59	0.739
759.77	0.758
759.95	0.784
760.13	0.830
760.32	0.828
760.50	0.823
760.68	0.845
760.86	0.846
761.04	0.822
761.22	0.825
761.40	0.870
761.58	0.873
761.76	0.849
761.95	0.830
762.13	0.790
762.31	0.793
762.49	0.764
762.67	0.781
762.85	0.794
763.03	0.790
763.21	0.775
763.39	0.755
763.57	0.756
763.75	0.751
763.94	0.739
764.12	0.739
764.30	0.759
764.48	0.764
764.66	0.730
764.84	0.727
765.02	0.759
765.20	0.764
765.38	0.748
765.56	0.755
765.74	0.791
765.92	0.790
766.10	0.796
766.28	0.790
766.46	0.816
766.65	0.818
766.83	0.806
767.01	0.794
767.19	0.801
767.37	0.799
767.55	0.785
767.73	0.765
767.91	0.769
768.09	0.759
768.27	0.747
768.45	0.736
768.63	0.743
768.81	0.743
768.99	0.719
769.17	0.741
769.35	0.756
769.53	0.756
769.71	0.739
769.89	0.746
770.07	0.750
770.25	0.735
770.43	0.714
770.61	0.735
770.79	0.743
770.97	0.751
771.15	0.720
771.33	0.721
771.51	0.722
771.69	0.731
771.87	0.738
772.05	0.745
772.24	0.751
772.42	0.762
772.60	0.741
772.78	0.796
772.96	0.824
773.14	0.822
773.32	0.801
773.49	0.807
773.67	0.805
773.85	0.784
774.03	0.773
774.21	0.806
774.39	0.816
774.57	0.839
774.75	0.767
774.93	0.765
775.11	0.786
775.29	0.796
775.47	0.798
775.65	0.807
775.83	0.823
776.01	0.842
776.19	0.794
776.37	0.793
776.55	0.790
776.73	0.788
776.91	0.780
777.09	0.764
777.27	0.761
777.45	0.749
777.63	0.730
777.81	0.726
777.99	0.715
778.17	0.717
778.35	0.699
778.53	0.688
778.71	0.692
778.89	0.681
779.07	0.672
779.24	0.677
779.42	0.680
779.60	0.697
779.78	0.694
779.96	0.698
780.14	0.704
780.32	0.723
780.50	0.710
780.68	0.711
780.86	0.704
781.04	0.719
781.22	0.723
781.40	0.731
781.58	0.723
781.75	0.716
781.93	0.699
782.11	0.700
782.29	0.685
782.47	0.681
782.65	0.670
782.83	0.693
783.01	0.688
783.19	0.680
783.37	0.668
783.55	0.671
783.72	0.689
783.90	0.699
784.08	0.692
784.26	0.704
784.44	0.724
784.62	0.728
784.80	0.701
784.98	0.708
785.16	0.714
785.33	0.729
785.51	0.715
785.69	0.699
785.87	0.700
786.05	0.711
786.23	0.706
786.41	0.702
786.59	0.709
786.77	0.708
786.94	0.696
787.12	0.699
787.30	0.698
787.48	0.696
787.66	0.687
787.84	0.687
788.02	0.679
788.19	0.680
788.37	0.669
788.55	0.669
788.73	0.670
788.91	0.663
789.09	0.647
789.27	0.638
789.44	0.647
789.62	0.653
789.80	0.662
789.98	0.685
790.16	0.670
790.34	0.666
790.51	0.657
790.69	0.674
790.87	0.680
791.05	0.676
791.23	0.669
791.41	0.670
791.58	0.676
791.76	0.657
791.94	0.628
792.12	0.638
792.30	0.640
792.48	0.636
792.65	0.631
792.83	0.636
793.01	0.647
793.19	0.645
793.37	0.631
793.54	0.627
793.72	0.637
793.90	0.636
794.08	0.625
794.26	0.627
794.43	0.637
794.61	0.620
794.79	0.610
794.97	0.607
795.15	0.613
795.32	0.618
795.50	0.608
795.68	0.604
795.86	0.608
796.04	0.608
796.21	0.601
796.39	0.599
796.57	0.614
796.75	0.622
796.92	0.624
797.10	0.627
797.28	0.628
797.46	0.631
797.64	0.633
797.81	0.640
797.99	0.644
798.17	0.650
798.35	0.645
798.52	0.648
798.70	0.644
798.88	0.654
799.06	0.653
799.23	0.657
799.41	0.665
799.59	0.657
799.77	0.648
799.94	0.655
800.12	0.664
800.30	0.680
800.48	0.678
800.65	0.678
800.83	0.667
801.01	0.659
801.19	0.656
801.36	0.653
801.54	0.656
801.72	0.665
801.90	0.653
802.07	0.646
802.25	0.633
802.43	0.616
802.60	0.612
802.78	0.620
802.96	0.623
803.14	0.618
803.31	0.617
803.49	0.618
803.67	0.614
803.84	0.618
804.02	0.613
804.20	0.617
804.38	0.623
804.55	0.623
804.73	0.607
804.91	0.609
805.08	0.619
805.26	0.616
805.44	0.676
805.61	0.679
805.79	0.680
805.97	0.678
806.15	0.669
806.32	0.664
806.50	0.670
806.68	0.670
806.85	0.662
807.03	0.655
807.21	0.670
807.38	0.606
807.56	0.596
807.74	0.604
807.91	0.609
808.09	0.611
808.27	0.629
808.44	0.653
808.62	0.662
808.80	0.664
808.97	0.658
809.15	0.654
809.33	0.670
809.50	0.677
809.68	0.664
809.86	0.671
810.03	0.702
810.21	0.681
810.39	0.665
810.56	0.669
810.74	0.693
810.91	0.759
811.09	0.748
811.27	0.767
811.44	0.774
811.62	0.777
811.80	0.761
811.97	0.731
812.15	0.730
812.33	0.726
812.50	0.713
812.68	0.702
812.85	0.649
813.03	0.651
813.21	0.621
813.38	0.616
813.56	0.617
813.74	0.628
813.91	0.637
814.09	0.664
814.26	0.656
814.44	0.660
814.62	0.649
814.79	0.652
814.97	0.656
815.14	0.660
815.32	0.664
815.50	0.681
815.67	0.681
815.85	0.674
816.02	0.666
816.20	0.673
816.38	0.684
816.55	0.690
816.73	0.690
816.90	0.697
817.08	0.727
817.26	0.732
817.43	0.713
817.61	0.737
817.78	0.751
817.96	0.731
818.13	0.721
818.31	0.722
818.49	0.733
818.66	0.723
818.84	0.712
819.01	0.692
819.19	0.697
819.36	0.699
819.54	0.672
819.71	0.713
819.89	0.727
820.07	0.739
820.24	0.733
820.42	0.735
820.59	0.755
820.77	0.774
820.94	0.764
821.12	0.780
821.29	0.791
821.47	0.793
821.64	0.734
821.82	0.746
822.00	0.743
822.17	0.741
822.35	0.731
822.52	0.733
822.70	0.725
822.87	0.736
823.05	0.717
823.22	0.727
823.40	0.753
823.57	0.774
823.75	0.757
823.92	0.783
824.10	0.802
824.27	0.843
824.45	0.831
824.62	0.890
824.80	0.903
824.97	0.915
825.15	0.908
825.32	0.913
825.50	0.913
825.67	0.921
825.85	0.893
826.02	0.908
826.20	0.931
826.37	1.039
826.55	0.963
826.72	1.129
826.90	1.181
827.07	1.220
827.25	1.175
827.42	1.293
827.60	1.405
827.77	1.535
827.95	1.518
828.12	1.575
828.30	1.332
828.47	1.445
828.65	1.144
828.82	1.193
829.00	1.244
829.17	1.313
829.34	1.317
829.52	1.359
829.69	-0.000
829.87	-0.000
830.04	-0.000
830.22	-0.000
830.39	-0.000
830.57	-0.000
830.74	-0.000
830.92	-0.000
831.09	-0.000
831.26	-0.000
831.44	-0.000
831.61	-0.000
831.79	-0.000
831.96	-0.000
832.14	-0.000
832.31	-0.000
832.49	-0.000
832.66	-0.000
832.83	-0.000
833.01	-0.000
833.18	-0.000
833.36	-0.000
833.53	-0.000
833.70	-0.000
833.88	-0.000
834.05	-0.000
834.23	-0.000
834.40	-0.000
834.58	-0.000
834.75	-0.000
834.92	-0.000
835.10	-0.000
835.27	-0.000
835.45	-0.000
835.62	-0.000
835.79	-0.000
835.97	-0.000
836.14	-0.000
836.32	-0.000
836.49	-0.000
836.66	-0.000
836.84	-0.000
837.01	-0.000
837.18	-0.000
837.36	-0.000
837.53	-0.000
837.71	-0.000
837.88	-0.000
838.05	-0.000
838.23	-0.000
838.40	-0.000
838.58	-0.000
838.75	-0.000
838.92	-0.000
839.10	-0.000
839.27	-0.000
839.44	-0.000
839.62	-0.000
839.79	-0.000
839.96	-0.000
840.14	-0.000
840.31	-0.000
840.48	-0.000
840.66	-0.000
840.83	-0.000
841.01	-0.000
841.18	-0.000
841.35	-0.000
841.53	-0.000
841.70	-0.000
841.87	-0.000
842.05	-0.000
842.22	-0.000
842.39	-0.000
842.57	-0.000
842.74	-0.000
842.91	-0.000
843.09	-0.000
843.26	-0.000
843.43	-0.000
843.60	-0.000
843.78	-0.000
843.95	-0.000
844.12	-0.000
844.30	-0.000
844.47	-0.000
844.64	-0.000
844.82	-0.000
844.99	-0.000
845.16	-0.000
845.34	-0.000
845.51	-0.000
845.68	-0.000
845.85	-0.000
846.03	-0.000
846.20	-0.000
846.37	-0.000
846.55	-0.000
846.72	-0.000
846.89	-0.000
847.06	-0.000
847.24	-0.000
847.41	-0.000
847.58	-0.000
847.76	-0.000
847.93	-0.000
848.10	-0.000
848.27	-0.000
848.45	-0.000
848.62	-0.000
848.79	-0.000
848.97	-0.000
849.14	-0.000
849.31	-0.000
849.48	-0.000
849.66	-0.000
849.83	-0.000
850.00	-0.000
850.17	-0.000
850.35	-0.000
850.52	-0.000
850.69	-0.000
850.86	-0.000
851.04	-0.000
851.21	-0.000
851.38	-0.000
851.55	-0.000
851.72	-0.000
851.90	-0.000
852.07	-0.000
852.24	-0.000
852.41	-0.000
852.59	-0.000
852.76	-0.000
852.93	-0.000
853.10	-0.000
853.28	-0.000
853.45	-0.000
853.62	-0.000
853.79	-0.000
853.96	-0.000
854.14	-0.000
854.31	-0.000
854.48	-0.000
854.65	-0.000
854.82	-0.000
855.00	-0.000
855.17	-0.000
855.34	-0.000
855.51	-0.000
855.68	-0.000
855.86	-0.000
856.03	-0.000
856.20	-0.000
856.37	-0.000
856.54	-0.000
856.72	-0.000
856.89	-0.000
857.06	-0.000
857.23	-0.000
857.40	-0.000
857.57	-0.000
857.75	-0.000
857.92	-0.000
858.09	-0.000
858.26	-0.000
858.43	-0.000
858.60	-0.000
858.78	-0.000
858.95	-0.000
859.12	-0.000
859.29	-0.000
859.46	-0.000
859.63	-0.000
859.81	-0.000
859.98	-0.000
860.15	-0.000
860.32	-0.000
860.49	-0.000
860.66	-0.000
860.83	-0.000
861.01	-0.000
861.18	-0.000
861.35	-0.000
861.52	-0.000
861.69	-0.000
861.86	-0.000
862.03	-0.000
862.21	-0.000
862.38	-0.000
862.55	-0.000
862.72	-0.000
862.89	-0.000
863.06	-0.000
863.23	-0.000
863.40	-0.000
863.58	-0.000
863.75	-0.000
863.92	-0.000
864.09	-0.000
864.26	-0.000
864.43	-0.000
864.60	-0.000
864.77	-0.000
864.94	-0.000
865.11	-0.000
865.29	-0.000
865.46	-0.000
865.63	-0.000
865.80	-0.000
865.97	-0.000
866.14	-0.000
866.31	-0.000
866.48	-0.000
866.65	-0.000
866.82	-0.000
866.99	-0.000
867.16	-0.000
867.34	-0.000
867.51	-0.000
867.68	-0.000
867.85	-0.000
868.02	-0.000
868.19	-0.000
868.36	-0.000
868.53	-0.000
868.70	-0.000
868.87	-0.000
869.04	-0.000
869.21	-0.000
869.38	-0.000
869.55	-0.000
869.72	-0.000
869.89	-0.000
870.06	-0.000
870.24	-0.000
870.41	-0.000
870.58	-0.000
870.75	-0.000
870.92	-0.000
871.09	-0.000
871.26	-0.000
871.43	-0.000
871.60	-0.000
871.77	-0.000
871.94	-0.000
872.11	-0.000
872.28	-0.000
872.45	-0.000
872.62	-0.000
872.79	-0.000
872.96	-0.000
873.13	-0.000
873.30	-0.000
873.47	-0.000
873.64	-0.000
873.81	-0.000
873.98	-0.000
874.15	-0.000
874.32	-0.000
874.49	-0.000
874.66	-0.000
874.83	-0.000
875.00	-0.000
875.17	-0.000
875.34	-0.000
875.51	-0.000
875.68	-0.000
875.85	-0.000
876.02	-0.000
876.19	-0.000
876.36	-0.000
876.53	-0.000
876.70	-0.000
876.87	-0.000
877.04	-0.000
877.21	-0.000
877.38	-0.000
877.55	-0.000
877.72	-0.000
877.89	-0.000
878.06	-0.000
878.23	-0.000
878.39	-0.000
878.56	-0.000
878.73	-0.000
878.90	-0.000
879.07	-0.000
879.24	-0.000
879.41	-0.000
879.58	-0.000
879.75	-0.000
879.92	-0.000
880.09	-0.000
880.26	-0.000
880.43	-0.000
880.60	-0.000
880.77	-0.000
880.94	-0.000
881.11	-0.000
881.27	-0.000
881.44	-0.000
881.61	-0.000
881.78	-0.000
881.95	-0.000
882.12	-0.000
882.29	-0.000
882.46	-0.000
882.63	-0.000
882.80	-0.000
882.97	-0.000
883.14	-0.000
883.30	-0.000
883.47	-0.000
883.64	-0.000
883.81	-0.000
883.98	-0.000
884.15	-0.000
884.32	-0.000
884.49	-0.000
884.66	-0.000
884.82	-0.000
884.99	-0.000
885.16	-0.000
885.33	-0.000
885.50	-0.000
885.67	-0.000
885.84	-0.000
886.01	-0.000
886.17	-0.000
886.34	-0.000
886.51	-0.000
886.68	-0.000
886.85	-0.000
887.02	-0.000
887.19	-0.000
887.36	-0.000
887.52	-0.000
887.69	-0.000
887.86	-0.000
888.03	-0.000
888.20	-0.000
888.37	-0.000
888.54	-0.000
888.70	-0.000
888.87	-0.000
889.04	-0.000
889.21	-0.000
889.38	-0.000
889.55	-0.000
889.71	-0.000
889.88	-0.000
890.05	-0.000
890.22	-0.000
890.39	-0.000
>>>>>End Processed Spectral Data<<<<<
