SpectraSuite Data File
++++++++++++++++++++++++++++++++++++
Date: Fri Jun 19 15:45:30 CEST 2015
User: introlabs
Dark Spectrum Present: Yes
Reference Spectrum Present: Yes
Number of Sampled Component Spectra: 1
Spectrometers: USB4H08886
Integration Time (usec): 745692 (USB4H08886)
Spectra Averaged: 5 (USB4H08886)
Boxcar Smoothing: 5 (USB4H08886)
Correct for Electrical Dark: Yes (USB4H08886)
Strobe/Lamp Enabled: No (USB4H08886)
Correct for Detector Non-linearity: Yes (USB4H08886)
Correct for Stray Light: Yes (USB4H08886)
Number of Pixels in Processed Spectrum: 3648
>>>>>Begin Processed Spectral Data<<<<<
178.14	-0.000
178.36	-0.000
178.57	-0.000
178.79	-0.000
179.01	-0.000
179.22	-0.000
179.44	-0.000
179.65	-0.000
179.87	-0.000
180.08	-0.000
180.30	-0.000
180.52	-0.000
180.73	-0.000
180.95	-0.000
181.16	-0.000
181.38	-0.000
181.59	-0.000
181.81	-0.000
182.03	-0.000
182.24	-0.000
182.46	-0.000
182.67	-0.000
182.89	-0.000
183.10	-0.000
183.32	-0.000
183.54	-0.000
183.75	-0.000
183.97	-0.000
184.18	-0.000
184.40	-0.000
184.61	-0.000
184.83	-0.000
185.04	-0.000
185.26	-0.000
185.48	-0.000
185.69	-0.000
185.91	-0.000
186.12	-0.000
186.34	-0.000
186.55	-0.000
186.77	-0.000
186.98	-0.000
187.20	-0.000
187.42	-0.000
187.63	-0.000
187.85	-0.000
188.06	-0.000
188.28	-0.000
188.49	-0.000
188.71	-0.000
188.92	-0.000
189.14	-0.000
189.36	-0.000
189.57	-0.000
189.79	-0.000
190.00	-0.000
190.22	-0.000
190.43	-0.000
190.65	-0.000
190.86	-0.000
191.08	-0.000
191.29	-0.000
191.51	-0.000
191.72	-0.000
191.94	-0.000
192.16	-0.000
192.37	-0.000
192.59	-0.000
192.80	-0.000
193.02	-0.000
193.23	-0.000
193.45	-0.000
193.66	-0.000
193.88	-0.000
194.09	-0.000
194.31	-0.000
194.52	-0.000
194.74	-0.000
194.95	-0.000
195.17	-0.000
195.38	-0.000
195.60	-0.000
195.81	-0.000
196.03	-0.000
196.25	-0.000
196.46	-0.000
196.68	-0.000
196.89	-0.000
197.11	-0.000
197.32	-0.000
197.54	-0.000
197.75	-0.000
197.97	-0.000
198.18	-0.000
198.40	-0.000
198.61	-0.000
198.83	-0.000
199.04	-0.000
199.26	-0.000
199.47	-0.000
199.69	-0.000
199.90	-0.000
200.12	-0.000
200.33	-0.000
200.55	-0.000
200.76	-0.000
200.98	-0.000
201.19	-0.000
201.41	-0.000
201.62	-0.000
201.84	-0.000
202.05	-0.000
202.27	-0.000
202.48	-0.000
202.70	-0.000
202.91	-0.000
203.13	-0.000
203.34	-0.000
203.56	-0.000
203.77	-0.000
203.99	-0.000
204.20	-0.000
204.42	-0.000
204.63	-0.000
204.85	-0.000
205.06	-0.000
205.28	-0.000
205.49	-0.000
205.71	-0.000
205.92	-0.000
206.14	-0.000
206.35	-0.000
206.56	-0.000
206.78	-0.000
206.99	-0.000
207.21	-0.000
207.42	-0.000
207.64	-0.000
207.85	-0.000
208.07	-0.000
208.28	-0.000
208.50	-0.000
208.71	-0.000
208.93	-0.000
209.14	-0.000
209.36	-0.000
209.57	-0.000
209.79	-0.000
210.00	-0.000
210.22	-0.000
210.43	-0.000
210.64	-0.000
210.86	-0.000
211.07	-0.000
211.29	-0.000
211.50	-0.000
211.72	-0.000
211.93	-0.000
212.15	-0.000
212.36	-0.000
212.58	-0.000
212.79	-0.000
213.01	-0.000
213.22	-0.000
213.43	-0.000
213.65	-0.000
213.86	-0.000
214.08	-0.000
214.29	-0.000
214.51	-0.000
214.72	-0.000
214.94	-0.000
215.15	-0.000
215.36	-0.000
215.58	-0.000
215.79	-0.000
216.01	-0.000
216.22	-0.000
216.44	-0.000
216.65	-0.000
216.87	-0.000
217.08	-0.000
217.29	-0.000
217.51	-0.000
217.72	-0.000
217.94	-0.000
218.15	-0.000
218.37	-0.000
218.58	-0.000
218.80	-0.000
219.01	-0.000
219.22	-0.000
219.44	-0.000
219.65	-0.000
219.87	-0.000
220.08	-0.000
220.30	-0.000
220.51	-0.000
220.72	-0.000
220.94	-0.000
221.15	-0.000
221.37	-0.000
221.58	-0.000
221.79	-0.000
222.01	-0.000
222.22	-0.000
222.44	-0.000
222.65	-0.000
222.87	-0.000
223.08	-0.000
223.29	-0.000
223.51	-0.000
223.72	-0.000
223.94	-0.000
224.15	-0.000
224.36	-0.000
224.58	-0.000
224.79	-0.000
225.01	-0.000
225.22	-0.000
225.44	-0.000
225.65	-0.000
225.86	-0.000
226.08	-0.000
226.29	-0.000
226.51	-0.000
226.72	-0.000
226.93	-0.000
227.15	-0.000
227.36	-0.000
227.58	-0.000
227.79	-0.000
228.00	-0.000
228.22	-0.000
228.43	-0.000
228.65	-0.000
228.86	-0.000
229.07	-0.000
229.29	-0.000
229.50	-0.000
229.72	-0.000
229.93	-0.000
230.14	-0.000
230.36	-0.000
230.57	-0.000
230.78	-0.000
231.00	-0.000
231.21	-0.000
231.43	-0.000
231.64	-0.000
231.85	-0.000
232.07	-0.000
232.28	-0.000
232.50	-0.000
232.71	-0.000
232.92	-0.000
233.14	-0.000
233.35	-0.000
233.56	-0.000
233.78	-0.000
233.99	-0.000
234.21	-0.000
234.42	-0.000
234.63	-0.000
234.85	-0.000
235.06	-0.000
235.27	-0.000
235.49	-0.000
235.70	-0.000
235.91	-0.000
236.13	-0.000
236.34	-0.000
236.56	-0.000
236.77	-0.000
236.98	-0.000
237.20	-0.000
237.41	-0.000
237.62	-0.000
237.84	-0.000
238.05	-0.000
238.26	-0.000
238.48	-0.000
238.69	-0.000
238.91	-0.000
239.12	-0.000
239.33	-0.000
239.55	-0.000
239.76	-0.000
239.97	-0.000
240.19	-0.000
240.40	-0.000
240.61	-0.000
240.83	-0.000
241.04	-0.000
241.25	-0.000
241.47	-0.000
241.68	-0.000
241.89	-0.000
242.11	-0.000
242.32	-0.000
242.53	-0.000
242.75	-0.000
242.96	-0.000
243.17	-0.000
243.39	-0.000
243.60	-0.000
243.81	-0.000
244.03	-0.000
244.24	-0.000
244.45	-0.000
244.67	-0.000
244.88	-0.000
245.09	-0.000
245.31	-0.000
245.52	-0.000
245.73	-0.000
245.95	-0.000
246.16	-0.000
246.37	-0.000
246.59	-0.000
246.80	-0.000
247.01	-0.000
247.23	-0.000
247.44	-0.000
247.65	-0.000
247.87	-0.000
248.08	-0.000
248.29	-0.000
248.51	-0.000
248.72	-0.000
248.93	-0.000
249.15	-0.000
249.36	-0.000
249.57	-0.000
249.78	-0.000
250.00	-0.000
250.21	-0.000
250.42	-0.000
250.64	-0.000
250.85	-0.000
251.06	-0.000
251.28	-0.000
251.49	-0.000
251.70	-0.000
251.92	-0.000
252.13	-0.000
252.34	-0.000
252.55	-0.000
252.77	-0.000
252.98	-0.000
253.19	-0.000
253.41	-0.000
253.62	-0.000
253.83	-0.000
254.05	-0.000
254.26	-0.000
254.47	-0.000
254.68	-0.000
254.90	-0.000
255.11	-0.000
255.32	-0.000
255.54	-0.000
255.75	-0.000
255.96	-0.000
256.17	-0.000
256.39	-0.000
256.60	-0.000
256.81	-0.000
257.03	-0.000
257.24	-0.000
257.45	-0.000
257.66	-0.000
257.88	-0.000
258.09	-0.000
258.30	-0.000
258.51	-0.000
258.73	-0.000
258.94	-0.000
259.15	-0.000
259.37	-0.000
259.58	-0.000
259.79	-0.000
260.00	-0.000
260.22	-0.000
260.43	-0.000
260.64	-0.000
260.85	-0.000
261.07	-0.000
261.28	-0.000
261.49	-0.000
261.71	-0.000
261.92	-0.000
262.13	-0.000
262.34	-0.000
262.56	-0.000
262.77	-0.000
262.98	-0.000
263.19	-0.000
263.41	-0.000
263.62	-0.000
263.83	-0.000
264.04	-0.000
264.26	-0.000
264.47	-0.000
264.68	-0.000
264.89	-0.000
265.11	-0.000
265.32	-0.000
265.53	-0.000
265.74	-0.000
265.96	-0.000
266.17	-0.000
266.38	-0.000
266.59	-0.000
266.81	-0.000
267.02	-0.000
267.23	-0.000
267.44	-0.000
267.65	-0.000
267.87	-0.000
268.08	-0.000
268.29	-0.000
268.50	-0.000
268.72	-0.000
268.93	-0.000
269.14	-0.000
269.35	-0.000
269.57	-0.000
269.78	-0.000
269.99	-0.000
270.20	-0.000
270.41	-0.000
270.63	-0.000
270.84	-0.000
271.05	-0.000
271.26	-0.000
271.48	-0.000
271.69	-0.000
271.90	-0.000
272.11	-0.000
272.32	-0.000
272.54	-0.000
272.75	-0.000
272.96	-0.000
273.17	-0.000
273.39	-0.000
273.60	-0.000
273.81	-0.000
274.02	-0.000
274.23	-0.000
274.45	-0.000
274.66	-0.000
274.87	-0.000
275.08	-0.000
275.29	-0.000
275.51	-0.000
275.72	-0.000
275.93	-0.000
276.14	-0.000
276.35	-0.000
276.57	-0.000
276.78	-0.000
276.99	-0.000
277.20	-0.000
277.41	-0.000
277.63	-0.000
277.84	-0.000
278.05	-0.000
278.26	-0.000
278.47	-0.000
278.69	-0.000
278.90	-0.000
279.11	-0.000
279.32	-0.000
279.53	-0.000
279.74	-0.000
279.96	-0.000
280.17	-0.000
280.38	-0.000
280.59	-0.000
280.80	-0.000
281.02	-0.000
281.23	-0.000
281.44	-0.000
281.65	-0.000
281.86	-0.000
282.07	-0.000
282.29	-0.000
282.50	-0.000
282.71	-0.000
282.92	-0.000
283.13	-0.000
283.35	-0.000
283.56	-0.000
283.77	-0.000
283.98	-0.000
284.19	-0.000
284.40	-0.000
284.62	-0.000
284.83	-0.000
285.04	-0.000
285.25	-0.000
285.46	-0.000
285.67	-0.000
285.88	-0.000
286.10	-0.000
286.31	-0.000
286.52	-0.000
286.73	-0.000
286.94	-0.000
287.15	-0.000
287.37	-0.000
287.58	-0.000
287.79	-0.000
288.00	-0.000
288.21	-0.000
288.42	-0.000
288.63	-0.000
288.85	-0.000
289.06	-0.000
289.27	-0.000
289.48	-0.000
289.69	-0.000
289.90	-0.000
290.11	-0.000
290.33	-0.000
290.54	-0.000
290.75	-0.000
290.96	-0.000
291.17	-0.000
291.38	-0.000
291.59	-0.000
291.81	-0.000
292.02	-0.000
292.23	-0.000
292.44	-0.000
292.65	2.611
292.86	-0.000
293.07	3.133
293.28	2.111
293.50	2.272
293.71	2.827
293.92	2.391
294.13	-0.000
294.34	-0.000
294.55	-0.000
294.76	-0.000
294.97	2.595
295.19	-0.000
295.40	-0.000
295.61	-0.000
295.82	2.493
296.03	2.175
296.24	2.230
296.45	1.786
296.66	1.597
296.87	1.617
297.09	1.653
297.30	1.759
297.51	1.553
297.72	1.537
297.93	1.589
298.14	1.560
298.35	1.533
298.56	1.520
298.77	1.598
298.99	1.579
299.20	1.567
299.41	1.546
299.62	1.508
299.83	1.503
300.04	1.465
300.25	1.461
300.46	1.478
300.67	1.464
300.88	1.429
301.10	1.432
301.31	1.478
301.52	1.431
301.73	1.398
301.94	1.402
302.15	1.407
302.36	1.371
302.57	1.327
302.78	1.334
302.99	1.361
303.20	1.380
303.41	1.312
303.63	1.299
303.84	1.304
304.05	1.301
304.26	1.255
304.47	1.262
304.68	1.263
304.89	1.257
305.10	1.228
305.31	1.215
305.52	1.247
305.73	1.244
305.94	1.214
306.15	1.206
306.37	1.223
306.58	1.229
306.79	1.206
307.00	1.225
307.21	1.252
307.42	1.248
307.63	1.222
307.84	1.192
308.05	1.219
308.26	1.221
308.47	1.204
308.68	1.198
308.89	1.194
309.10	1.193
309.31	1.163
309.52	1.157
309.73	1.169
309.95	1.163
310.16	1.140
310.37	1.132
310.58	1.144
310.79	1.144
311.00	1.147
311.21	1.150
311.42	1.146
311.63	1.139
311.84	1.126
312.05	1.122
312.26	1.138
312.47	1.151
312.68	1.130
312.89	1.115
313.10	1.119
313.31	1.092
313.52	1.097
313.73	1.100
313.94	1.100
314.15	1.083
314.36	1.065
314.57	1.061
314.78	1.046
314.99	1.044
315.21	1.034
315.42	1.039
315.63	1.049
315.84	1.029
316.05	1.018
316.26	1.026
316.47	1.040
316.68	1.039
316.89	1.023
317.10	1.041
317.31	1.044
317.52	1.045
317.73	1.028
317.94	1.028
318.15	1.061
318.36	1.062
318.57	1.046
318.78	1.037
318.99	1.066
319.20	1.062
319.41	1.033
319.62	1.034
319.83	1.046
320.04	1.041
320.25	1.030
320.46	1.002
320.67	1.003
320.88	1.001
321.09	0.991
321.30	0.979
321.51	0.993
321.72	0.992
321.93	0.978
322.14	0.971
322.35	0.994
322.56	0.996
322.77	0.985
322.98	0.994
323.19	0.999
323.40	1.004
323.61	0.986
323.82	0.982
324.03	0.985
324.24	0.984
324.45	0.973
324.66	0.957
324.87	0.952
325.08	0.953
325.29	0.937
325.50	0.931
325.71	0.935
325.92	0.942
326.13	0.929
326.34	0.930
326.55	0.936
326.76	0.935
326.97	0.926
327.18	0.921
327.39	0.943
327.60	0.944
327.80	0.945
328.01	0.944
328.22	0.943
328.43	0.946
328.64	0.935
328.85	0.939
329.06	0.939
329.27	0.939
329.48	0.937
329.69	0.919
329.90	0.928
330.11	0.922
330.32	0.917
330.53	0.911
330.74	0.911
330.95	0.910
331.16	0.898
331.37	0.905
331.58	0.904
331.79	0.903
332.00	0.896
332.21	0.889
332.42	0.892
332.63	0.883
332.83	0.880
333.04	0.880
333.25	0.890
333.46	0.889
333.67	0.877
333.88	0.880
334.09	0.890
334.30	0.887
334.51	0.879
334.72	0.875
334.93	0.877
335.14	0.876
335.35	0.871
335.56	0.867
335.77	0.873
335.98	0.871
336.18	0.865
336.39	0.858
336.60	0.860
336.81	0.860
337.02	0.861
337.23	0.866
337.44	0.868
337.65	0.870
337.86	0.861
338.07	0.857
338.28	0.861
338.49	0.860
338.70	0.854
338.91	0.860
339.11	0.866
339.32	0.863
339.53	0.852
339.74	0.850
339.95	0.846
340.16	0.844
340.37	0.838
340.58	0.836
340.79	0.838
341.00	0.838
341.21	0.829
341.41	0.828
341.62	0.828
341.83	0.829
342.04	0.824
342.25	0.836
342.46	0.839
342.67	0.838
342.88	0.832
343.09	0.832
343.30	0.838
343.50	0.841
343.71	0.833
343.92	0.831
344.13	0.834
344.34	0.834
344.55	0.819
344.76	0.817
344.97	0.822
345.18	0.820
345.38	0.818
345.59	0.813
345.80	0.812
346.01	0.810
346.22	0.807
346.43	0.802
346.64	0.808
346.85	0.808
347.06	0.803
347.26	0.802
347.47	0.806
347.68	0.801
347.89	0.798
348.10	0.793
348.31	0.799
348.52	0.798
348.73	0.796
348.93	0.794
349.14	0.795
349.35	0.794
349.56	0.789
349.77	0.785
349.98	0.789
350.19	0.787
350.39	0.784
350.60	0.780
350.81	0.795
351.02	0.793
351.23	0.788
351.44	0.791
351.65	0.793
351.86	0.791
352.06	0.790
352.27	0.790
352.48	0.790
352.69	0.790
352.90	0.785
353.11	0.772
353.31	0.779
353.52	0.775
353.73	0.768
353.94	0.769
354.15	0.774
354.36	0.774
354.57	0.767
354.77	0.769
354.98	0.769
355.19	0.769
355.40	0.769
355.61	0.774
355.82	0.777
356.02	0.777
356.23	0.771
356.44	0.773
356.65	0.775
356.86	0.775
357.07	0.770
357.27	0.773
357.48	0.774
357.69	0.770
357.90	0.756
358.11	0.753
358.32	0.755
358.52	0.758
358.73	0.749
358.94	0.751
359.15	0.755
359.36	0.756
359.56	0.751
359.77	0.749
359.98	0.755
360.19	0.755
360.40	0.752
360.61	0.754
360.81	0.753
361.02	0.753
361.23	0.746
361.44	0.744
361.65	0.745
361.85	0.744
362.06	0.743
362.27	0.745
362.48	0.744
362.69	0.747
362.89	0.740
363.10	0.741
363.31	0.745
363.52	0.749
363.73	0.744
363.93	0.743
364.14	0.746
364.35	0.747
364.56	0.737
364.77	0.740
364.97	0.741
365.18	0.741
365.39	0.737
365.60	0.735
365.81	0.734
366.01	0.734
366.22	0.732
366.43	0.731
366.64	0.733
366.84	0.738
367.05	0.735
367.26	0.735
367.47	0.737
367.68	0.737
367.88	0.735
368.09	0.733
368.30	0.735
368.51	0.735
368.71	0.735
368.92	0.738
369.13	0.737
369.34	0.736
369.55	0.736
369.75	0.736
369.96	0.742
370.17	0.741
370.38	0.738
370.58	0.737
370.79	0.741
371.00	0.739
371.21	0.732
371.41	0.737
371.62	0.740
371.83	0.735
372.04	0.733
372.24	0.727
372.45	0.729
372.66	0.730
372.87	0.727
373.07	0.724
373.28	0.726
373.49	0.729
373.70	0.720
373.90	0.719
374.11	0.728
374.32	0.727
374.53	0.727
374.73	0.727
374.94	0.728
375.15	0.728
375.36	0.726
375.56	0.734
375.77	0.734
375.98	0.734
376.19	0.732
376.39	0.727
376.60	0.730
376.81	0.730
377.02	0.729
377.22	0.728
377.43	0.727
377.64	0.727
377.84	0.720
378.05	0.725
378.26	0.730
378.47	0.729
378.67	0.726
378.88	0.724
379.09	0.724
379.30	0.724
379.50	0.722
379.71	0.725
379.92	0.728
380.12	0.727
380.33	0.719
380.54	0.715
380.75	0.722
380.95	0.722
381.16	0.721
381.37	0.721
381.57	0.722
381.78	0.723
381.99	0.723
382.20	0.721
382.40	0.723
382.61	0.723
382.82	0.721
383.02	0.715
383.23	0.718
383.44	0.718
383.64	0.717
383.85	0.720
384.06	0.722
384.27	0.720
384.47	0.719
384.68	0.719
384.89	0.725
385.09	0.724
385.30	0.724
385.51	0.723
385.71	0.726
385.92	0.726
386.13	0.726
386.33	0.728
386.54	0.729
386.75	0.728
386.95	0.725
387.16	0.721
387.37	0.723
387.58	0.723
387.78	0.721
387.99	0.720
388.20	0.721
388.40	0.718
388.61	0.714
388.82	0.717
389.02	0.719
389.23	0.720
389.44	0.718
389.64	0.719
389.85	0.729
390.06	0.730
390.26	0.730
390.47	0.729
390.68	0.732
390.88	0.731
391.09	0.727
391.30	0.727
391.50	0.726
391.71	0.727
391.92	0.724
392.12	0.717
392.33	0.718
392.53	0.717
392.74	0.718
392.95	0.717
393.15	0.719
393.36	0.721
393.57	0.719
393.77	0.722
393.98	0.723
394.19	0.723
394.39	0.722
394.60	0.723
394.81	0.725
395.01	0.724
395.22	0.723
395.43	0.724
395.63	0.728
395.84	0.729
396.04	0.725
396.25	0.727
396.46	0.728
396.66	0.727
396.87	0.725
397.08	0.722
397.28	0.724
397.49	0.726
397.69	0.722
397.90	0.717
398.11	0.718
398.31	0.719
398.52	0.717
398.73	0.718
398.93	0.717
399.14	0.716
399.34	0.715
399.55	0.716
399.76	0.715
399.96	0.717
400.17	0.716
400.37	0.714
400.58	0.721
400.79	0.722
400.99	0.720
401.20	0.726
401.41	0.728
401.61	0.729
401.82	0.735
402.02	0.735
402.23	0.735
402.44	0.735
402.64	0.736
402.85	0.731
403.05	0.730
403.26	0.728
403.47	0.723
403.67	0.722
403.88	0.723
404.08	0.716
404.29	0.715
404.50	0.715
404.70	0.716
404.91	0.714
405.11	0.712
405.32	0.712
405.52	0.713
405.73	0.712
405.94	0.711
406.14	0.714
406.35	0.716
406.55	0.715
406.76	0.713
406.97	0.714
407.17	0.716
407.38	0.716
407.58	0.715
407.79	0.718
407.99	0.720
408.20	0.720
408.41	0.716
408.61	0.714
408.82	0.716
409.02	0.715
409.23	0.713
409.43	0.712
409.64	0.714
409.84	0.713
410.05	0.710
410.26	0.709
410.46	0.708
410.67	0.707
410.87	0.709
411.08	0.711
411.28	0.712
411.49	0.713
411.69	0.712
411.90	0.713
412.11	0.714
412.31	0.715
412.52	0.713
412.72	0.714
412.93	0.715
413.13	0.714
413.34	0.710
413.54	0.712
413.75	0.714
413.95	0.712
414.16	0.709
414.37	0.711
414.57	0.711
414.78	0.714
414.98	0.712
415.19	0.713
415.39	0.710
415.60	0.713
415.80	0.712
416.01	0.711
416.21	0.713
416.42	0.713
416.62	0.709
416.83	0.709
417.03	0.709
417.24	0.709
417.44	0.707
417.65	0.706
417.86	0.706
418.06	0.704
418.27	0.702
418.47	0.703
418.68	0.704
418.88	0.705
419.09	0.704
419.29	0.704
419.50	0.704
419.70	0.704
419.91	0.703
420.11	0.701
420.32	0.703
420.52	0.703
420.73	0.702
420.93	0.703
421.14	0.704
421.34	0.702
421.55	0.699
421.75	0.699
421.96	0.700
422.16	0.700
422.37	0.699
422.57	0.696
422.78	0.697
422.98	0.693
423.19	0.691
423.39	0.689
423.60	0.693
423.80	0.695
424.01	0.693
424.21	0.696
424.42	0.697
424.62	0.696
424.83	0.696
425.03	0.697
425.23	0.698
425.44	0.698
425.64	0.699
425.85	0.698
426.05	0.698
426.26	0.699
426.46	0.695
426.67	0.695
426.87	0.699
427.08	0.700
427.28	0.698
427.49	0.699
427.69	0.700
427.90	0.699
428.10	0.696
428.31	0.696
428.51	0.697
428.71	0.697
428.92	0.698
429.12	0.696
429.33	0.696
429.53	0.700
429.74	0.704
429.94	0.704
430.15	0.703
430.35	0.703
430.56	0.700
430.76	0.699
430.96	0.700
431.17	0.697
431.37	0.694
431.58	0.692
431.78	0.688
431.99	0.681
432.19	0.683
432.40	0.684
432.60	0.685
432.80	0.687
433.01	0.686
433.21	0.686
433.42	0.688
433.62	0.688
433.83	0.688
434.03	0.691
434.23	0.693
434.44	0.693
434.64	0.691
434.85	0.696
435.05	0.697
435.26	0.697
435.46	0.696
435.66	0.695
435.87	0.695
436.07	0.695
436.28	0.691
436.48	0.688
436.69	0.687
436.89	0.686
437.09	0.680
437.30	0.678
437.50	0.678
437.71	0.690
437.91	0.689
438.11	0.690
438.32	0.694
438.52	0.694
438.73	0.693
438.93	0.692
439.13	0.692
439.34	0.695
439.54	0.693
439.75	0.694
439.95	0.684
440.15	0.689
440.36	0.687
440.56	0.685
440.77	0.686
440.97	0.685
441.17	0.684
441.38	0.685
441.58	0.682
441.79	0.682
441.99	0.681
442.19	0.680
442.40	0.677
442.60	0.676
442.81	0.674
443.01	0.674
443.21	0.674
443.42	0.674
443.62	0.673
443.82	0.673
444.03	0.674
444.23	0.673
444.44	0.674
444.64	0.672
444.84	0.673
445.05	0.674
445.25	0.672
445.45	0.672
445.66	0.674
445.86	0.673
446.06	0.675
446.27	0.673
446.47	0.676
446.68	0.674
446.88	0.674
447.08	0.673
447.29	0.674
447.49	0.674
447.69	0.673
447.90	0.672
448.10	0.675
448.30	0.672
448.51	0.674
448.71	0.672
448.91	0.674
449.12	0.673
449.32	0.674
449.52	0.673
449.73	0.677
449.93	0.675
450.14	0.676
450.34	0.675
450.54	0.677
450.75	0.674
450.95	0.673
451.15	0.673
451.36	0.675
451.56	0.672
451.76	0.672
451.97	0.668
452.17	0.669
452.37	0.667
452.58	0.664
452.78	0.663
452.98	0.665
453.19	0.665
453.39	0.666
453.59	0.664
453.79	0.665
454.00	0.665
454.20	0.664
454.40	0.665
454.61	0.666
454.81	0.667
455.01	0.666
455.22	0.667
455.42	0.668
455.62	0.666
455.83	0.666
456.03	0.669
456.23	0.670
456.44	0.671
456.64	0.670
456.84	0.670
457.04	0.670
457.25	0.669
457.45	0.666
457.65	0.665
457.86	0.667
458.06	0.665
458.26	0.661
458.47	0.660
458.67	0.660
458.87	0.660
459.07	0.658
459.28	0.660
459.48	0.662
459.68	0.662
459.89	0.660
460.09	0.659
460.29	0.660
460.49	0.661
460.70	0.660
460.90	0.660
461.10	0.660
461.31	0.660
461.51	0.658
461.71	0.660
461.91	0.661
462.12	0.661
462.32	0.660
462.52	0.661
462.72	0.663
462.93	0.664
463.13	0.663
463.33	0.664
463.53	0.665
463.74	0.664
463.94	0.660
464.14	0.660
464.35	0.661
464.55	0.661
464.75	0.660
464.95	0.658
465.16	0.659
465.36	0.658
465.56	0.657
465.76	0.656
465.97	0.656
466.17	0.656
466.37	0.655
466.57	0.655
466.78	0.655
466.98	0.655
467.18	0.653
467.38	0.652
467.59	0.653
467.79	0.654
467.99	0.654
468.19	0.655
468.39	0.657
468.60	0.657
468.80	0.656
469.00	0.657
469.20	0.659
469.41	0.659
469.61	0.658
469.81	0.659
470.01	0.658
470.22	0.659
470.42	0.657
470.62	0.656
470.82	0.657
471.02	0.656
471.23	0.654
471.43	0.654
471.63	0.657
471.83	0.657
472.04	0.655
472.24	0.655
472.44	0.660
472.64	0.660
472.84	0.657
473.05	0.656
473.25	0.660
473.45	0.659
473.65	0.658
473.85	0.658
474.06	0.659
474.26	0.659
474.46	0.660
474.66	0.656
474.86	0.656
475.07	0.657
475.27	0.656
475.47	0.653
475.67	0.653
475.87	0.655
476.08	0.652
476.28	0.653
476.48	0.655
476.68	0.653
476.88	0.651
477.09	0.653
477.29	0.654
477.49	0.654
477.69	0.654
477.89	0.654
478.09	0.653
478.30	0.656
478.50	0.653
478.70	0.652
478.90	0.652
479.10	0.655
479.31	0.656
479.51	0.654
479.71	0.654
479.91	0.655
480.11	0.654
480.31	0.654
480.52	0.653
480.72	0.652
480.92	0.652
481.12	0.650
481.32	0.648
481.52	0.646
481.72	0.646
481.93	0.649
482.13	0.649
482.33	0.649
482.53	0.647
482.73	0.649
482.93	0.650
483.14	0.649
483.34	0.648
483.54	0.649
483.74	0.648
483.94	0.648
484.14	0.644
484.34	0.644
484.55	0.644
484.75	0.644
484.95	0.641
485.15	0.640
485.35	0.640
485.55	0.640
485.75	0.639
485.96	0.639
486.16	0.640
486.36	0.639
486.56	0.638
486.76	0.638
486.96	0.638
487.16	0.638
487.36	0.637
487.57	0.637
487.77	0.636
487.97	0.637
488.17	0.635
488.37	0.634
488.57	0.635
488.77	0.635
488.97	0.633
489.18	0.633
489.38	0.635
489.58	0.636
489.78	0.636
489.98	0.636
490.18	0.635
490.38	0.636
490.58	0.634
490.78	0.635
490.98	0.637
491.19	0.638
491.39	0.637
491.59	0.636
491.79	0.638
491.99	0.639
492.19	0.638
492.39	0.641
492.59	0.641
492.79	0.643
492.99	0.644
493.20	0.644
493.40	0.644
493.60	0.645
493.80	0.644
494.00	0.641
494.20	0.642
494.40	0.641
494.60	0.639
494.80	0.643
495.00	0.642
495.20	0.640
495.40	0.639
495.61	0.641
495.81	0.640
496.01	0.643
496.21	0.645
496.41	0.644
496.61	0.644
496.81	0.643
497.01	0.638
497.21	0.638
497.41	0.638
497.61	0.637
497.81	0.635
498.01	0.636
498.21	0.634
498.41	0.632
498.61	0.632
498.82	0.633
499.02	0.635
499.22	0.636
499.42	0.635
499.62	0.637
499.82	0.637
500.02	0.639
500.22	0.637
500.42	0.639
500.62	0.640
500.82	0.640
501.02	0.638
501.22	0.638
501.42	0.638
501.62	0.640
501.82	0.639
502.02	0.639
502.22	0.638
502.42	0.640
502.62	0.637
502.82	0.638
503.02	0.638
503.22	0.638
503.42	0.636
503.63	0.636
503.83	0.634
504.03	0.633
504.23	0.631
504.43	0.632
504.63	0.632
504.83	0.632
505.03	0.632
505.23	0.633
505.43	0.635
505.63	0.635
505.83	0.635
506.03	0.636
506.23	0.638
506.43	0.638
506.63	0.637
506.83	0.636
507.03	0.639
507.23	0.639
507.43	0.636
507.63	0.637
507.83	0.638
508.03	0.638
508.23	0.638
508.43	0.637
508.63	0.639
508.83	0.639
509.03	0.640
509.23	0.639
509.43	0.640
509.63	0.640
509.83	0.639
510.03	0.642
510.23	0.642
510.43	0.643
510.63	0.644
510.83	0.644
511.03	0.645
511.23	0.643
511.43	0.642
511.63	0.644
511.83	0.645
512.03	0.645
512.22	0.642
512.42	0.642
512.62	0.643
512.82	0.642
513.02	0.641
513.22	0.641
513.42	0.643
513.62	0.646
513.82	0.644
514.02	0.643
514.22	0.644
514.42	0.644
514.62	0.644
514.82	0.644
515.02	0.646
515.22	0.649
515.42	0.647
515.62	0.650
515.82	0.648
516.02	0.650
516.22	0.650
516.42	0.651
516.62	0.653
516.82	0.654
517.01	0.652
517.21	0.652
517.41	0.655
517.61	0.655
517.81	0.652
518.01	0.651
518.21	0.650
518.41	0.649
518.61	0.648
518.81	0.648
519.01	0.649
519.21	0.649
519.41	0.649
519.61	0.643
519.81	0.646
520.00	0.645
520.20	0.646
520.40	0.649
520.60	0.650
520.80	0.650
521.00	0.651
521.20	0.652
521.40	0.656
521.60	0.656
521.80	0.656
522.00	0.656
522.20	0.659
522.39	0.657
522.59	0.654
522.79	0.656
522.99	0.658
523.19	0.656
523.39	0.654
523.59	0.653
523.79	0.656
523.99	0.658
524.19	0.657
524.38	0.656
524.58	0.657
524.78	0.658
524.98	0.656
525.18	0.657
525.38	0.658
525.58	0.659
525.78	0.657
525.98	0.655
526.18	0.655
526.37	0.654
526.57	0.657
526.77	0.656
526.97	0.656
527.17	0.657
527.37	0.654
527.57	0.656
527.77	0.657
527.96	0.657
528.16	0.656
528.36	0.657
528.56	0.658
528.76	0.656
528.96	0.655
529.16	0.656
529.36	0.659
529.55	0.659
529.75	0.656
529.95	0.656
530.15	0.657
530.35	0.660
530.55	0.658
530.75	0.658
530.94	0.659
531.14	0.659
531.34	0.659
531.54	0.657
531.74	0.660
531.94	0.663
532.13	0.662
532.33	0.663
532.53	0.662
532.73	0.662
532.93	0.660
533.13	0.662
533.33	0.662
533.52	0.662
533.72	0.666
533.92	0.663
534.12	0.661
534.32	0.661
534.52	0.660
534.71	0.661
534.91	0.663
535.11	0.665
535.31	0.663
535.51	0.665
535.71	0.666
535.90	0.663
536.10	0.665
536.30	0.666
536.50	0.667
536.70	0.667
536.89	0.665
537.09	0.665
537.29	0.666
537.49	0.667
537.69	0.665
537.89	0.666
538.08	0.666
538.28	0.664
538.48	0.665
538.68	0.666
538.88	0.669
539.07	0.668
539.27	0.667
539.47	0.666
539.67	0.666
539.87	0.667
540.06	0.665
540.26	0.666
540.46	0.668
540.66	0.665
540.86	0.662
541.05	0.662
541.25	0.664
541.45	0.664
541.65	0.663
541.84	0.664
542.04	0.665
542.24	0.665
542.44	0.664
542.64	0.665
542.83	0.666
543.03	0.667
543.23	0.665
543.43	0.666
543.62	0.668
543.82	0.667
544.02	0.667
544.22	0.667
544.42	0.670
544.61	0.671
544.81	0.668
545.01	0.668
545.21	0.670
545.40	0.670
545.60	0.668
545.80	0.670
546.00	0.671
546.19	0.670
546.39	0.669
546.59	0.667
546.79	0.668
546.98	0.668
547.18	0.668
547.38	0.669
547.58	0.671
547.77	0.671
547.97	0.668
548.17	0.670
548.37	0.670
548.56	0.671
548.76	0.670
548.96	0.671
549.16	0.673
549.35	0.673
549.55	0.671
549.75	0.671
549.95	0.674
550.14	0.675
550.34	0.673
550.54	0.678
550.73	0.681
550.93	0.682
551.13	0.679
551.33	0.678
551.52	0.679
551.72	0.680
551.92	0.678
552.12	0.678
552.31	0.679
552.51	0.679
552.71	0.674
552.90	0.674
553.10	0.675
553.30	0.675
553.50	0.674
553.69	0.675
553.89	0.674
554.09	0.674
554.28	0.671
554.48	0.672
554.68	0.674
554.87	0.674
555.07	0.671
555.27	0.671
555.47	0.673
555.66	0.673
555.86	0.672
556.06	0.675
556.25	0.676
556.45	0.684
556.65	0.682
556.84	0.685
557.04	0.687
557.24	0.689
557.43	0.689
557.63	0.692
557.83	0.694
558.02	0.695
558.22	0.699
558.42	0.700
558.61	0.692
558.81	0.693
559.01	0.690
559.21	0.691
559.40	0.691
559.60	0.691
559.80	0.688
559.99	0.689
560.19	0.691
560.39	0.685
560.58	0.683
560.78	0.683
560.97	0.686
561.17	0.684
561.37	0.682
561.56	0.683
561.76	0.684
561.96	0.683
562.15	0.680
562.35	0.682
562.55	0.683
562.74	0.682
562.94	0.681
563.14	0.679
563.33	0.679
563.53	0.679
563.73	0.677
563.92	0.679
564.12	0.681
564.31	0.683
564.51	0.681
564.71	0.683
564.90	0.686
565.10	0.687
565.30	0.690
565.49	0.691
565.69	0.694
565.89	0.694
566.08	0.691
566.28	0.693
566.47	0.694
566.67	0.694
566.87	0.691
567.06	0.693
567.26	0.699
567.46	0.695
567.65	0.695
567.85	0.697
568.04	0.699
568.24	0.699
568.44	0.697
568.63	0.696
568.83	0.696
569.02	0.695
569.22	0.692
569.42	0.687
569.61	0.689
569.81	0.688
570.00	0.685
570.20	0.686
570.40	0.687
570.59	0.686
570.79	0.684
570.98	0.683
571.18	0.684
571.38	0.683
571.57	0.681
571.77	0.679
571.96	0.682
572.16	0.681
572.35	0.676
572.55	0.677
572.75	0.675
572.94	0.674
573.14	0.673
573.33	0.673
573.53	0.673
573.73	0.672
573.92	0.671
574.12	0.668
574.31	0.671
574.51	0.672
574.70	0.669
574.90	0.671
575.09	0.673
575.29	0.674
575.49	0.671
575.68	0.672
575.88	0.672
576.07	0.674
576.27	0.672
576.46	0.670
576.66	0.669
576.86	0.668
577.05	0.666
577.25	0.664
577.44	0.665
577.64	0.666
577.83	0.664
578.03	0.666
578.22	0.665
578.42	0.664
578.61	0.663
578.81	0.664
579.00	0.664
579.20	0.663
579.40	0.662
579.59	0.660
579.79	0.661
579.98	0.661
580.18	0.660
580.37	0.660
580.57	0.662
580.76	0.666
580.96	0.665
581.15	0.666
581.35	0.668
581.54	0.668
581.74	0.668
581.93	0.669
582.13	0.669
582.32	0.666
582.52	0.664
582.71	0.663
582.91	0.659
583.10	0.659
583.30	0.657
583.49	0.656
583.69	0.659
583.88	0.660
584.08	0.659
584.27	0.662
584.47	0.666
584.66	0.667
584.86	0.666
585.05	0.668
585.25	0.670
585.44	0.670
585.64	0.669
585.83	0.667
586.03	0.667
586.22	0.665
586.42	0.661
586.61	0.662
586.81	0.664
587.00	0.663
587.20	0.661
587.39	0.662
587.59	0.663
587.78	0.664
587.98	0.664
588.17	0.665
588.37	0.667
588.56	0.669
588.76	0.665
588.95	0.665
589.15	0.668
589.34	0.670
589.54	0.669
589.73	0.670
589.92	0.674
590.12	0.674
590.31	0.673
590.51	0.679
590.70	0.681
590.90	0.682
591.09	0.681
591.29	0.679
591.48	0.679
591.68	0.679
591.87	0.678
592.06	0.677
592.26	0.679
592.45	0.678
592.65	0.672
592.84	0.671
593.04	0.673
593.23	0.675
593.43	0.672
593.62	0.672
593.81	0.672
594.01	0.671
594.20	0.668
594.40	0.667
594.59	0.668
594.79	0.669
594.98	0.668
595.17	0.667
595.37	0.667
595.56	0.670
595.76	0.670
595.95	0.673
596.14	0.676
596.34	0.678
596.53	0.677
596.73	0.679
596.92	0.680
597.12	0.683
597.31	0.683
597.50	0.682
597.70	0.684
597.89	0.683
598.09	0.680
598.28	0.681
598.47	0.683
598.67	0.681
598.86	0.678
599.06	0.680
599.25	0.680
599.44	0.678
599.64	0.675
599.83	0.672
600.03	0.674
600.22	0.674
600.41	0.674
600.61	0.671
600.80	0.673
601.00	0.674
601.19	0.669
601.38	0.667
601.58	0.669
601.77	0.670
601.96	0.672
602.16	0.672
602.35	0.681
602.55	0.679
602.74	0.681
602.93	0.683
603.13	0.688
603.32	0.690
603.51	0.691
603.71	0.694
603.90	0.696
604.09	0.697
604.29	0.695
604.48	0.689
604.68	0.691
604.87	0.689
605.06	0.686
605.26	0.682
605.45	0.683
605.64	0.681
605.84	0.677
606.03	0.676
606.22	0.674
606.42	0.673
606.61	0.670
606.80	0.670
607.00	0.671
607.19	0.671
607.38	0.670
607.58	0.670
607.77	0.673
607.96	0.672
608.16	0.671
608.35	0.675
608.54	0.678
608.74	0.680
608.93	0.686
609.12	0.689
609.32	0.691
609.51	0.694
609.70	0.694
609.90	0.696
610.09	0.700
610.28	0.706
610.48	0.701
610.67	0.703
610.86	0.703
611.06	0.698
611.25	0.696
611.44	0.697
611.64	0.696
611.83	0.699
612.02	0.696
612.21	0.695
612.41	0.693
612.60	0.692
612.79	0.688
612.99	0.688
613.18	0.689
613.37	0.687
613.57	0.685
613.76	0.687
613.95	0.683
614.14	0.682
614.34	0.679
614.53	0.679
614.72	0.682
614.92	0.682
615.11	0.680
615.30	0.677
615.49	0.677
615.69	0.680
615.88	0.676
616.07	0.677
616.26	0.680
616.46	0.681
616.65	0.679
616.84	0.677
617.04	0.677
617.23	0.680
617.42	0.681
617.61	0.685
617.81	0.685
618.00	0.687
618.19	0.685
618.38	0.689
618.58	0.693
618.77	0.694
618.96	0.694
619.15	0.697
619.35	0.698
619.54	0.699
619.73	0.696
619.92	0.698
620.12	0.702
620.31	0.703
620.50	0.699
620.69	0.699
620.89	0.702
621.08	0.701
621.27	0.701
621.46	0.701
621.66	0.704
621.85	0.704
622.04	0.700
622.23	0.702
622.43	0.701
622.62	0.701
622.81	0.701
623.00	0.700
623.19	0.702
623.39	0.700
623.58	0.696
623.77	0.695
623.96	0.698
624.16	0.698
624.35	0.693
624.54	0.696
624.73	0.699
624.92	0.696
625.12	0.694
625.31	0.695
625.50	0.698
625.69	0.700
625.88	0.697
626.08	0.696
626.27	0.697
626.46	0.697
626.65	0.694
626.84	0.694
627.04	0.699
627.23	0.699
627.42	0.696
627.61	0.698
627.80	0.701
628.00	0.701
628.19	0.700
628.38	0.703
628.57	0.704
628.76	0.703
628.96	0.700
629.15	0.701
629.34	0.704
629.53	0.704
629.72	0.699
629.91	0.699
630.11	0.703
630.30	0.704
630.49	0.707
630.68	0.708
630.87	0.711
631.06	0.714
631.26	0.709
631.45	0.711
631.64	0.717
631.83	0.718
632.02	0.717
632.21	0.715
632.41	0.721
632.60	0.716
632.79	0.714
632.98	0.715
633.17	0.715
633.36	0.717
633.55	0.714
633.75	0.711
633.94	0.712
634.13	0.712
634.32	0.710
634.51	0.705
634.70	0.705
634.89	0.706
635.09	0.703
635.28	0.703
635.47	0.703
635.66	0.706
635.85	0.703
636.04	0.704
636.23	0.707
636.43	0.709
636.62	0.707
636.81	0.707
637.00	0.708
637.19	0.712
637.38	0.709
637.57	0.709
637.76	0.711
637.95	0.711
638.15	0.710
638.34	0.706
638.53	0.709
638.72	0.710
638.91	0.708
639.10	0.706
639.29	0.705
639.48	0.706
639.67	0.706
639.87	0.705
640.06	0.710
640.25	0.708
640.44	0.709
640.63	0.710
640.82	0.712
641.01	0.712
641.20	0.712
641.39	0.715
641.58	0.716
641.78	0.714
641.97	0.711
642.16	0.724
642.35	0.724
642.54	0.724
642.73	0.719
642.92	0.717
643.11	0.720
643.30	0.721
643.49	0.716
643.68	0.719
643.87	0.719
644.06	0.719
644.25	0.700
644.45	0.703
644.64	0.704
644.83	0.705
645.02	0.702
645.21	0.701
645.40	0.701
645.59	0.702
645.78	0.696
645.97	0.699
646.16	0.700
646.35	0.700
646.54	0.698
646.73	0.699
646.92	0.700
647.11	0.700
647.30	0.696
647.49	0.698
647.68	0.697
647.88	0.696
648.07	0.689
648.26	0.692
648.45	0.693
648.64	0.690
648.83	0.688
649.02	0.690
649.21	0.699
649.40	0.698
649.59	0.694
649.78	0.695
649.97	0.709
650.16	0.708
650.35	0.703
650.54	0.705
650.73	0.713
650.92	0.710
651.11	0.703
651.30	0.701
651.49	0.705
651.68	0.705
651.87	0.703
652.06	0.693
652.25	0.696
652.44	0.700
652.63	0.700
652.82	0.702
653.01	0.703
653.20	0.703
653.39	0.694
653.58	0.692
653.77	0.691
653.96	0.686
654.15	0.679
654.34	0.677
654.53	0.671
654.72	0.664
654.91	0.654
655.10	0.650
655.29	0.647
655.48	0.644
655.67	0.639
655.86	0.636
656.05	0.634
656.24	0.633
656.43	0.628
656.62	0.627
656.81	0.625
657.00	0.621
657.19	0.617
657.38	0.616
657.57	0.614
657.76	0.615
657.95	0.613
658.14	0.615
658.33	0.617
658.51	0.621
658.70	0.621
658.89	0.623
659.08	0.633
659.27	0.642
659.46	0.643
659.65	0.650
659.84	0.654
660.03	0.658
660.22	0.660
660.41	0.663
660.60	0.663
660.79	0.664
660.98	0.671
661.17	0.669
661.36	0.668
661.55	0.669
661.74	0.668
661.92	0.671
662.11	0.672
662.30	0.670
662.49	0.664
662.68	0.663
662.87	0.667
663.06	0.661
663.25	0.663
663.44	0.663
663.63	0.664
663.82	0.662
664.01	0.657
664.20	0.657
664.38	0.658
664.57	0.659
664.76	0.659
664.95	0.660
665.14	0.663
665.33	0.658
665.52	0.665
665.71	0.668
665.90	0.668
666.09	0.669
666.28	0.667
666.46	0.665
666.65	0.666
666.84	0.664
667.03	0.659
667.22	0.658
667.41	0.660
667.60	0.651
667.79	0.645
667.98	0.647
668.16	0.647
668.35	0.648
668.54	0.644
668.73	0.645
668.92	0.646
669.11	0.644
669.30	0.639
669.49	0.635
669.67	0.637
669.86	0.639
670.05	0.636
670.24	0.634
670.43	0.632
670.62	0.631
670.81	0.626
671.00	0.627
671.18	0.627
671.37	0.626
671.56	0.623
671.75	0.621
671.94	0.618
672.13	0.616
672.32	0.612
672.50	0.611
672.69	0.611
672.88	0.611
673.07	0.607
673.26	0.610
673.45	0.610
673.63	0.610
673.82	0.607
674.01	0.609
674.20	0.608
674.39	0.608
674.58	0.608
674.76	0.608
674.95	0.607
675.14	0.608
675.33	0.603
675.52	0.603
675.71	0.602
675.89	0.602
676.08	0.598
676.27	0.598
676.46	0.599
676.65	0.598
676.84	0.598
677.02	0.599
677.21	0.600
677.40	0.600
677.59	0.598
677.78	0.598
677.96	0.601
678.15	0.600
678.34	0.598
678.53	0.598
678.72	0.598
678.90	0.594
679.09	0.590
679.28	0.587
679.47	0.587
679.66	0.586
679.84	0.583
680.03	0.580
680.22	0.579
680.41	0.580
680.60	0.577
680.78	0.576
680.97	0.577
681.16	0.577
681.35	0.576
681.53	0.576
681.72	0.576
681.91	0.578
682.10	0.576
682.29	0.579
682.47	0.577
682.66	0.575
682.85	0.574
683.04	0.572
683.22	0.573
683.41	0.574
683.60	0.572
683.79	0.574
683.97	0.573
684.16	0.572
684.35	0.569
684.54	0.570
684.72	0.571
684.91	0.572
685.10	0.570
685.29	0.571
685.47	0.568
685.66	0.567
685.85	0.563
686.04	0.563
686.22	0.565
686.41	0.567
686.60	0.565
686.79	0.568
686.97	0.568
687.16	0.569
687.35	0.567
687.54	0.571
687.72	0.574
687.91	0.575
688.10	0.577
688.29	0.576
688.47	0.574
688.66	0.574
688.85	0.571
689.03	0.569
689.22	0.573
689.41	0.574
689.60	0.569
689.78	0.567
689.97	0.567
690.16	0.564
690.34	0.561
690.53	0.561
690.72	0.561
690.91	0.559
691.09	0.557
691.28	0.551
691.47	0.549
691.65	0.548
691.84	0.545
692.03	0.544
692.21	0.542
692.40	0.541
692.59	0.539
692.77	0.538
692.96	0.539
693.15	0.540
693.34	0.538
693.52	0.538
693.71	0.539
693.90	0.539
694.08	0.540
694.27	0.542
694.46	0.550
694.64	0.551
694.83	0.551
695.02	0.549
695.20	0.548
695.39	0.548
695.58	0.547
695.76	0.548
695.95	0.547
696.14	0.545
696.32	0.543
696.51	0.534
696.70	0.534
696.88	0.535
697.07	0.534
697.26	0.535
697.44	0.537
697.63	0.536
697.81	0.534
698.00	0.534
698.19	0.534
698.37	0.534
698.56	0.534
698.75	0.534
698.93	0.533
699.12	0.533
699.31	0.532
699.49	0.532
699.68	0.532
699.87	0.535
700.05	0.535
700.24	0.535
700.42	0.536
700.61	0.535
700.80	0.534
700.98	0.535
701.17	0.536
701.36	0.535
701.54	0.535
701.73	0.535
701.91	0.533
702.10	0.531
702.29	0.530
702.47	0.528
702.66	0.530
702.84	0.530
703.03	0.528
703.22	0.528
703.40	0.528
703.59	0.529
703.77	0.529
703.96	0.529
704.15	0.530
704.33	0.530
704.52	0.529
704.70	0.529
704.89	0.528
705.08	0.527
705.26	0.525
705.45	0.526
705.63	0.525
705.82	0.523
706.00	0.521
706.19	0.521
706.38	0.521
706.56	0.520
706.75	0.518
706.93	0.517
707.12	0.518
707.30	0.518
707.49	0.515
707.68	0.513
707.86	0.512
708.05	0.513
708.23	0.509
708.42	0.510
708.60	0.511
708.79	0.511
708.98	0.510
709.16	0.509
709.35	0.510
709.53	0.514
709.72	0.513
709.90	0.515
710.09	0.516
710.27	0.518
710.46	0.522
710.64	0.521
710.83	0.522
711.02	0.524
711.20	0.523
711.39	0.522
711.57	0.520
711.76	0.520
711.94	0.519
712.13	0.520
712.31	0.520
712.50	0.516
712.68	0.513
712.87	0.515
713.05	0.515
713.24	0.516
713.42	0.516
713.61	0.516
713.79	0.518
713.98	0.517
714.16	0.518
714.35	0.517
714.54	0.519
714.72	0.518
714.91	0.517
715.09	0.523
715.28	0.525
715.46	0.525
715.65	0.523
715.83	0.522
716.02	0.525
716.20	0.521
716.39	0.521
716.57	0.522
716.76	0.524
716.94	0.524
717.12	0.517
717.31	0.517
717.49	0.519
717.68	0.522
717.86	0.521
718.05	0.523
718.23	0.525
718.42	0.527
718.60	0.528
718.79	0.537
718.97	0.539
719.16	0.539
719.34	0.536
719.53	0.536
719.71	0.535
719.90	0.536
720.08	0.533
720.27	0.533
720.45	0.533
720.63	0.531
720.82	0.524
721.00	0.526
721.19	0.529
721.37	0.530
721.56	0.530
721.74	0.532
721.93	0.540
722.11	0.546
722.30	0.546
722.48	0.550
722.66	0.552
722.85	0.552
723.03	0.553
723.22	0.551
723.40	0.554
723.59	0.555
723.77	0.559
723.95	0.553
724.14	0.556
724.32	0.558
724.51	0.558
724.69	0.559
724.88	0.558
725.06	0.558
725.24	0.559
725.43	0.561
725.61	0.563
725.80	0.558
725.98	0.556
726.16	0.553
726.35	0.558
726.53	0.556
726.72	0.555
726.90	0.564
727.09	0.564
727.27	0.569
727.45	0.566
727.64	0.575
727.82	0.581
728.01	0.585
728.19	0.584
728.37	0.588
728.56	0.592
728.74	0.597
728.92	0.587
729.11	0.589
729.29	0.587
729.48	0.590
729.66	0.580
729.84	0.580
730.03	0.582
730.21	0.584
730.40	0.575
730.58	0.576
730.76	0.576
730.95	0.578
731.13	0.578
731.31	0.592
731.50	0.601
731.68	0.606
731.86	0.604
732.05	0.617
732.23	0.620
732.42	0.624
732.60	0.629
732.78	0.635
732.97	0.651
733.15	0.658
733.33	0.647
733.52	0.654
733.70	0.663
733.88	0.672
734.07	0.658
734.25	0.682
734.43	0.688
734.62	0.691
734.80	0.686
734.98	0.678
735.17	0.683
735.35	0.688
735.53	0.676
735.72	0.678
735.90	0.696
736.08	0.715
736.27	0.696
736.45	0.702
736.63	0.710
736.82	0.720
737.00	0.720
737.18	0.729
737.37	0.759
737.55	0.781
737.73	0.776
737.92	0.777
738.10	0.769
738.28	0.784
738.46	0.778
738.65	0.792
738.83	0.810
739.01	0.860
739.20	0.854
739.38	0.831
739.56	0.821
739.75	0.825
739.93	0.799
740.11	0.825
740.29	0.824
740.48	0.830
740.66	0.808
740.84	0.803
741.03	0.769
741.21	0.779
741.39	0.767
741.57	0.780
741.76	0.790
741.94	0.796
742.12	0.765
742.31	0.770
742.49	0.788
742.67	0.811
742.85	0.827
743.04	0.828
743.22	0.832
743.40	0.879
743.58	0.862
743.77	0.881
743.95	0.911
744.13	0.953
744.31	0.940
744.50	0.932
744.68	0.930
744.86	0.905
745.04	0.921
745.23	0.983
745.41	0.963
745.59	0.969
745.77	0.939
745.96	0.928
746.14	0.935
746.32	0.930
746.50	0.924
746.69	0.909
746.87	0.916
747.05	0.902
747.23	0.834
747.42	0.821
747.60	0.841
747.78	0.849
747.96	0.876
748.14	0.844
748.33	0.863
748.51	0.856
748.69	0.852
748.87	0.874
749.06	0.867
749.24	0.867
749.42	0.855
749.60	0.839
749.78	0.840
749.97	0.800
750.15	0.789
750.33	0.793
750.51	0.812
750.69	0.815
750.88	0.826
751.06	0.836
751.24	0.859
751.42	0.854
751.60	0.846
751.79	0.909
751.97	0.947
752.15	0.947
752.33	0.922
752.51	0.976
752.69	0.987
752.88	0.955
753.06	0.995
753.24	0.971
753.42	0.997
753.60	1.147
753.78	1.030
753.97	1.047
754.15	1.057
754.33	1.087
754.51	0.993
754.69	0.980
754.87	0.999
755.06	0.938
755.24	0.946
755.42	0.958
755.60	0.867
755.78	0.876
755.96	0.830
756.15	0.831
756.33	0.831
756.51	0.844
756.69	0.837
756.87	0.805
757.05	0.821
757.23	0.805
757.42	0.776
757.60	0.769
757.78	0.758
757.96	0.757
758.14	0.744
758.32	0.730
758.50	0.740
758.69	0.737
758.87	0.732
759.05	0.733
759.23	0.739
759.41	0.738
759.59	0.734
759.77	0.750
759.95	0.773
760.13	0.815
760.32	0.816
760.50	0.810
760.68	0.826
760.86	0.829
761.04	0.806
761.22	0.810
761.40	0.850
761.58	0.855
761.76	0.836
761.95	0.818
762.13	0.779
762.31	0.780
762.49	0.755
762.67	0.775
762.85	0.787
763.03	0.785
763.21	0.768
763.39	0.751
763.57	0.747
763.75	0.744
763.94	0.731
764.12	0.733
764.30	0.754
764.48	0.759
764.66	0.726
764.84	0.721
765.02	0.752
765.20	0.761
765.38	0.746
765.56	0.751
765.74	0.783
765.92	0.784
766.10	0.788
766.28	0.782
766.46	0.804
766.65	0.805
766.83	0.796
767.01	0.783
767.19	0.787
767.37	0.785
767.55	0.776
767.73	0.758
767.91	0.759
768.09	0.750
768.27	0.738
768.45	0.731
768.63	0.734
768.81	0.736
768.99	0.714
769.17	0.732
769.35	0.743
769.53	0.743
769.71	0.728
769.89	0.735
770.07	0.737
770.25	0.720
770.43	0.702
770.61	0.721
770.79	0.725
770.97	0.735
771.15	0.709
771.33	0.710
771.51	0.710
771.69	0.720
771.87	0.729
772.05	0.734
772.24	0.742
772.42	0.749
772.60	0.732
772.78	0.783
772.96	0.799
773.14	0.797
773.32	0.780
773.49	0.786
773.67	0.784
773.85	0.768
774.03	0.760
774.21	0.790
774.39	0.798
774.57	0.816
774.75	0.753
774.93	0.752
775.11	0.768
775.29	0.774
775.47	0.774
775.65	0.781
775.83	0.792
776.01	0.810
776.19	0.773
776.37	0.770
776.55	0.771
776.73	0.770
776.91	0.769
777.09	0.757
777.27	0.752
777.45	0.745
777.63	0.725
777.81	0.720
777.99	0.707
778.17	0.704
778.35	0.688
778.53	0.676
778.71	0.677
778.89	0.664
779.07	0.656
779.24	0.659
779.42	0.661
779.60	0.679
779.78	0.678
779.96	0.681
780.14	0.688
780.32	0.707
780.50	0.694
780.68	0.695
780.86	0.690
781.04	0.707
781.22	0.713
781.40	0.719
781.58	0.707
781.75	0.703
781.93	0.689
782.11	0.690
782.29	0.676
782.47	0.674
782.65	0.665
782.83	0.689
783.01	0.680
783.19	0.674
783.37	0.664
783.55	0.668
783.72	0.681
783.90	0.689
784.08	0.683
784.26	0.693
784.44	0.714
784.62	0.716
784.80	0.688
784.98	0.694
785.16	0.698
785.33	0.710
785.51	0.700
785.69	0.688
785.87	0.686
786.05	0.696
786.23	0.694
786.41	0.688
786.59	0.693
786.77	0.692
786.94	0.684
787.12	0.688
787.30	0.689
787.48	0.687
787.66	0.678
787.84	0.681
788.02	0.670
788.19	0.668
788.37	0.659
788.55	0.660
788.73	0.659
788.91	0.654
789.09	0.639
789.27	0.628
789.44	0.635
789.62	0.640
789.80	0.648
789.98	0.670
790.16	0.660
790.34	0.656
790.51	0.645
790.69	0.663
790.87	0.667
791.05	0.667
791.23	0.664
791.41	0.666
791.58	0.673
791.76	0.653
791.94	0.627
792.12	0.634
792.30	0.635
792.48	0.632
792.65	0.625
792.83	0.631
793.01	0.635
793.19	0.633
793.37	0.620
793.54	0.615
793.72	0.624
793.90	0.623
794.08	0.612
794.26	0.613
794.43	0.620
794.61	0.607
794.79	0.597
794.97	0.596
795.15	0.598
795.32	0.603
795.50	0.595
795.68	0.589
795.86	0.592
796.04	0.593
796.21	0.589
796.39	0.589
796.57	0.600
796.75	0.606
796.92	0.609
797.10	0.614
797.28	0.614
797.46	0.619
797.64	0.621
797.81	0.627
797.99	0.631
798.17	0.635
798.35	0.630
798.52	0.633
798.70	0.628
798.88	0.635
799.06	0.636
799.23	0.637
799.41	0.641
799.59	0.637
799.77	0.631
799.94	0.638
800.12	0.645
800.30	0.661
800.48	0.661
800.65	0.662
800.83	0.651
801.01	0.645
801.19	0.647
801.36	0.645
801.54	0.647
801.72	0.653
801.90	0.641
802.07	0.636
802.25	0.622
802.43	0.609
802.60	0.606
802.78	0.613
802.96	0.614
803.14	0.610
803.31	0.609
803.49	0.610
803.67	0.605
803.84	0.609
804.02	0.603
804.20	0.605
804.38	0.608
804.55	0.608
804.73	0.597
804.91	0.598
805.08	0.609
805.26	0.607
805.44	0.667
805.61	0.672
805.79	0.671
805.97	0.670
806.15	0.663
806.32	0.659
806.50	0.662
806.68	0.664
806.85	0.656
807.03	0.645
807.21	0.656
807.38	0.593
807.56	0.582
807.74	0.592
807.91	0.597
808.09	0.599
808.27	0.616
808.44	0.640
808.62	0.646
808.80	0.648
808.97	0.645
809.15	0.642
809.33	0.656
809.50	0.664
809.68	0.653
809.86	0.661
810.03	0.688
810.21	0.669
810.39	0.655
810.56	0.659
810.74	0.679
810.91	0.744
811.09	0.734
811.27	0.753
811.44	0.758
811.62	0.760
811.80	0.747
811.97	0.722
812.15	0.723
812.33	0.719
812.50	0.709
812.68	0.698
812.85	0.644
813.03	0.646
813.21	0.618
813.38	0.615
813.56	0.615
813.74	0.624
813.91	0.630
814.09	0.655
814.26	0.646
814.44	0.648
814.62	0.641
814.79	0.646
814.97	0.647
815.14	0.651
815.32	0.657
815.50	0.672
815.67	0.672
815.85	0.664
816.02	0.655
816.20	0.660
816.38	0.672
816.55	0.676
816.73	0.676
816.90	0.686
817.08	0.711
817.26	0.711
817.43	0.695
817.61	0.719
817.78	0.732
817.96	0.714
818.13	0.707
818.31	0.707
818.49	0.716
818.66	0.708
818.84	0.698
819.01	0.678
819.19	0.682
819.36	0.684
819.54	0.657
819.71	0.696
819.89	0.705
820.07	0.719
820.24	0.716
820.42	0.717
820.59	0.731
820.77	0.751
820.94	0.748
821.12	0.764
821.29	0.775
821.47	0.776
821.64	0.724
821.82	0.739
822.00	0.735
822.17	0.734
822.35	0.727
822.52	0.729
822.70	0.718
822.87	0.729
823.05	0.712
823.22	0.722
823.40	0.743
823.57	0.761
823.75	0.745
823.92	0.764
824.10	0.777
824.27	0.815
824.45	0.806
824.62	0.859
824.80	0.863
824.97	0.872
825.15	0.865
825.32	0.874
825.50	0.874
825.67	0.889
825.85	0.875
826.02	0.890
826.20	0.902
826.37	1.009
826.55	0.948
826.72	1.102
826.90	1.156
827.07	1.206
827.25	1.169
827.42	1.292
827.60	1.381
827.77	1.505
827.95	1.485
828.12	1.540
828.30	1.289
828.47	1.366
828.65	1.114
828.82	1.148
829.00	1.172
829.17	1.228
829.34	1.217
829.52	1.239
829.69	-0.000
829.87	-0.000
830.04	-0.000
830.22	-0.000
830.39	-0.000
830.57	-0.000
830.74	-0.000
830.92	-0.000
831.09	-0.000
831.26	-0.000
831.44	-0.000
831.61	-0.000
831.79	-0.000
831.96	-0.000
832.14	-0.000
832.31	-0.000
832.49	-0.000
832.66	-0.000
832.83	-0.000
833.01	-0.000
833.18	-0.000
833.36	-0.000
833.53	-0.000
833.70	-0.000
833.88	-0.000
834.05	-0.000
834.23	-0.000
834.40	-0.000
834.58	-0.000
834.75	-0.000
834.92	-0.000
835.10	-0.000
835.27	-0.000
835.45	-0.000
835.62	-0.000
835.79	-0.000
835.97	-0.000
836.14	-0.000
836.32	-0.000
836.49	-0.000
836.66	-0.000
836.84	-0.000
837.01	-0.000
837.18	-0.000
837.36	-0.000
837.53	-0.000
837.71	-0.000
837.88	-0.000
838.05	-0.000
838.23	-0.000
838.40	-0.000
838.58	-0.000
838.75	-0.000
838.92	-0.000
839.10	-0.000
839.27	-0.000
839.44	-0.000
839.62	-0.000
839.79	-0.000
839.96	-0.000
840.14	-0.000
840.31	-0.000
840.48	-0.000
840.66	-0.000
840.83	-0.000
841.01	-0.000
841.18	-0.000
841.35	-0.000
841.53	-0.000
841.70	-0.000
841.87	-0.000
842.05	-0.000
842.22	-0.000
842.39	-0.000
842.57	-0.000
842.74	-0.000
842.91	-0.000
843.09	-0.000
843.26	-0.000
843.43	-0.000
843.60	-0.000
843.78	-0.000
843.95	-0.000
844.12	-0.000
844.30	-0.000
844.47	-0.000
844.64	-0.000
844.82	-0.000
844.99	-0.000
845.16	-0.000
845.34	-0.000
845.51	-0.000
845.68	-0.000
845.85	-0.000
846.03	-0.000
846.20	-0.000
846.37	-0.000
846.55	-0.000
846.72	-0.000
846.89	-0.000
847.06	-0.000
847.24	-0.000
847.41	-0.000
847.58	-0.000
847.76	-0.000
847.93	-0.000
848.10	-0.000
848.27	-0.000
848.45	-0.000
848.62	-0.000
848.79	-0.000
848.97	-0.000
849.14	-0.000
849.31	-0.000
849.48	-0.000
849.66	-0.000
849.83	-0.000
850.00	-0.000
850.17	-0.000
850.35	-0.000
850.52	-0.000
850.69	-0.000
850.86	-0.000
851.04	-0.000
851.21	-0.000
851.38	-0.000
851.55	-0.000
851.72	-0.000
851.90	-0.000
852.07	-0.000
852.24	-0.000
852.41	-0.000
852.59	-0.000
852.76	-0.000
852.93	-0.000
853.10	-0.000
853.28	-0.000
853.45	-0.000
853.62	-0.000
853.79	-0.000
853.96	-0.000
854.14	-0.000
854.31	-0.000
854.48	-0.000
854.65	-0.000
854.82	-0.000
855.00	-0.000
855.17	-0.000
855.34	-0.000
855.51	-0.000
855.68	-0.000
855.86	-0.000
856.03	-0.000
856.20	-0.000
856.37	-0.000
856.54	-0.000
856.72	-0.000
856.89	-0.000
857.06	-0.000
857.23	-0.000
857.40	-0.000
857.57	-0.000
857.75	-0.000
857.92	-0.000
858.09	-0.000
858.26	-0.000
858.43	-0.000
858.60	-0.000
858.78	-0.000
858.95	-0.000
859.12	-0.000
859.29	-0.000
859.46	-0.000
859.63	-0.000
859.81	-0.000
859.98	-0.000
860.15	-0.000
860.32	-0.000
860.49	-0.000
860.66	-0.000
860.83	-0.000
861.01	-0.000
861.18	-0.000
861.35	-0.000
861.52	-0.000
861.69	-0.000
861.86	-0.000
862.03	-0.000
862.21	-0.000
862.38	-0.000
862.55	-0.000
862.72	-0.000
862.89	-0.000
863.06	-0.000
863.23	-0.000
863.40	-0.000
863.58	-0.000
863.75	-0.000
863.92	-0.000
864.09	-0.000
864.26	-0.000
864.43	-0.000
864.60	-0.000
864.77	-0.000
864.94	-0.000
865.11	-0.000
865.29	-0.000
865.46	-0.000
865.63	-0.000
865.80	-0.000
865.97	-0.000
866.14	-0.000
866.31	-0.000
866.48	-0.000
866.65	-0.000
866.82	-0.000
866.99	-0.000
867.16	-0.000
867.34	-0.000
867.51	-0.000
867.68	-0.000
867.85	-0.000
868.02	-0.000
868.19	-0.000
868.36	-0.000
868.53	-0.000
868.70	-0.000
868.87	-0.000
869.04	-0.000
869.21	-0.000
869.38	-0.000
869.55	-0.000
869.72	-0.000
869.89	-0.000
870.06	-0.000
870.24	-0.000
870.41	-0.000
870.58	-0.000
870.75	-0.000
870.92	-0.000
871.09	-0.000
871.26	-0.000
871.43	-0.000
871.60	-0.000
871.77	-0.000
871.94	-0.000
872.11	-0.000
872.28	-0.000
872.45	-0.000
872.62	-0.000
872.79	-0.000
872.96	-0.000
873.13	-0.000
873.30	-0.000
873.47	-0.000
873.64	-0.000
873.81	-0.000
873.98	-0.000
874.15	-0.000
874.32	-0.000
874.49	-0.000
874.66	-0.000
874.83	-0.000
875.00	-0.000
875.17	-0.000
875.34	-0.000
875.51	-0.000
875.68	-0.000
875.85	-0.000
876.02	-0.000
876.19	-0.000
876.36	-0.000
876.53	-0.000
876.70	-0.000
876.87	-0.000
877.04	-0.000
877.21	-0.000
877.38	-0.000
877.55	-0.000
877.72	-0.000
877.89	-0.000
878.06	-0.000
878.23	-0.000
878.39	-0.000
878.56	-0.000
878.73	-0.000
878.90	-0.000
879.07	-0.000
879.24	-0.000
879.41	-0.000
879.58	-0.000
879.75	-0.000
879.92	-0.000
880.09	-0.000
880.26	-0.000
880.43	-0.000
880.60	-0.000
880.77	-0.000
880.94	-0.000
881.11	-0.000
881.27	-0.000
881.44	-0.000
881.61	-0.000
881.78	-0.000
881.95	-0.000
882.12	-0.000
882.29	-0.000
882.46	-0.000
882.63	-0.000
882.80	-0.000
882.97	-0.000
883.14	-0.000
883.30	-0.000
883.47	-0.000
883.64	-0.000
883.81	-0.000
883.98	-0.000
884.15	-0.000
884.32	-0.000
884.49	-0.000
884.66	-0.000
884.82	-0.000
884.99	-0.000
885.16	-0.000
885.33	-0.000
885.50	-0.000
885.67	-0.000
885.84	-0.000
886.01	-0.000
886.17	-0.000
886.34	-0.000
886.51	-0.000
886.68	-0.000
886.85	-0.000
887.02	-0.000
887.19	-0.000
887.36	-0.000
887.52	-0.000
887.69	-0.000
887.86	-0.000
888.03	-0.000
888.20	-0.000
888.37	-0.000
888.54	-0.000
888.70	-0.000
888.87	-0.000
889.04	-0.000
889.21	-0.000
889.38	-0.000
889.55	-0.000
889.71	-0.000
889.88	-0.000
890.05	-0.000
890.22	-0.000
890.39	-0.000
>>>>>End Processed Spectral Data<<<<<
