SpectraSuite Data File
++++++++++++++++++++++++++++++++++++
Date: Fri Jun 19 14:16:10 CEST 2015
User: introlabs
Dark Spectrum Present: Yes
Reference Spectrum Present: Yes
Number of Sampled Component Spectra: 1
Spectrometers: USB4H08886
Integration Time (usec): 745692 (USB4H08886)
Spectra Averaged: 5 (USB4H08886)
Boxcar Smoothing: 5 (USB4H08886)
Correct for Electrical Dark: Yes (USB4H08886)
Strobe/Lamp Enabled: No (USB4H08886)
Correct for Detector Non-linearity: Yes (USB4H08886)
Correct for Stray Light: Yes (USB4H08886)
Number of Pixels in Processed Spectrum: 3648
>>>>>Begin Processed Spectral Data<<<<<
178.14	-0.000
178.36	-0.000
178.57	-0.000
178.79	-0.000
179.01	-0.000
179.22	-0.000
179.44	-0.000
179.65	-0.000
179.87	-0.000
180.08	-0.000
180.30	-0.000
180.52	-0.000
180.73	-0.000
180.95	-0.000
181.16	-0.000
181.38	-0.000
181.59	-0.000
181.81	-0.000
182.03	-0.000
182.24	-0.000
182.46	-0.000
182.67	-0.000
182.89	-0.000
183.10	-0.000
183.32	-0.000
183.54	-0.000
183.75	-0.000
183.97	-0.000
184.18	-0.000
184.40	-0.000
184.61	-0.000
184.83	-0.000
185.04	-0.000
185.26	-0.000
185.48	-0.000
185.69	-0.000
185.91	-0.000
186.12	-0.000
186.34	-0.000
186.55	-0.000
186.77	-0.000
186.98	-0.000
187.20	-0.000
187.42	-0.000
187.63	-0.000
187.85	-0.000
188.06	-0.000
188.28	-0.000
188.49	-0.000
188.71	-0.000
188.92	-0.000
189.14	-0.000
189.36	-0.000
189.57	-0.000
189.79	-0.000
190.00	-0.000
190.22	-0.000
190.43	-0.000
190.65	-0.000
190.86	-0.000
191.08	-0.000
191.29	-0.000
191.51	-0.000
191.72	-0.000
191.94	-0.000
192.16	-0.000
192.37	-0.000
192.59	-0.000
192.80	-0.000
193.02	-0.000
193.23	-0.000
193.45	-0.000
193.66	-0.000
193.88	-0.000
194.09	-0.000
194.31	-0.000
194.52	-0.000
194.74	-0.000
194.95	-0.000
195.17	-0.000
195.38	-0.000
195.60	-0.000
195.81	-0.000
196.03	-0.000
196.25	-0.000
196.46	-0.000
196.68	-0.000
196.89	-0.000
197.11	-0.000
197.32	-0.000
197.54	-0.000
197.75	-0.000
197.97	-0.000
198.18	-0.000
198.40	-0.000
198.61	-0.000
198.83	-0.000
199.04	-0.000
199.26	-0.000
199.47	-0.000
199.69	-0.000
199.90	-0.000
200.12	-0.000
200.33	-0.000
200.55	-0.000
200.76	-0.000
200.98	-0.000
201.19	-0.000
201.41	-0.000
201.62	-0.000
201.84	-0.000
202.05	-0.000
202.27	-0.000
202.48	-0.000
202.70	-0.000
202.91	-0.000
203.13	-0.000
203.34	-0.000
203.56	-0.000
203.77	-0.000
203.99	-0.000
204.20	-0.000
204.42	-0.000
204.63	-0.000
204.85	-0.000
205.06	-0.000
205.28	-0.000
205.49	-0.000
205.71	-0.000
205.92	-0.000
206.14	-0.000
206.35	-0.000
206.56	-0.000
206.78	-0.000
206.99	-0.000
207.21	-0.000
207.42	-0.000
207.64	-0.000
207.85	-0.000
208.07	-0.000
208.28	-0.000
208.50	-0.000
208.71	-0.000
208.93	-0.000
209.14	-0.000
209.36	-0.000
209.57	-0.000
209.79	-0.000
210.00	-0.000
210.22	-0.000
210.43	-0.000
210.64	-0.000
210.86	-0.000
211.07	-0.000
211.29	-0.000
211.50	-0.000
211.72	-0.000
211.93	-0.000
212.15	-0.000
212.36	-0.000
212.58	-0.000
212.79	-0.000
213.01	-0.000
213.22	-0.000
213.43	-0.000
213.65	-0.000
213.86	-0.000
214.08	-0.000
214.29	-0.000
214.51	-0.000
214.72	-0.000
214.94	-0.000
215.15	-0.000
215.36	-0.000
215.58	-0.000
215.79	-0.000
216.01	-0.000
216.22	-0.000
216.44	-0.000
216.65	-0.000
216.87	-0.000
217.08	-0.000
217.29	-0.000
217.51	-0.000
217.72	-0.000
217.94	-0.000
218.15	-0.000
218.37	-0.000
218.58	-0.000
218.80	-0.000
219.01	-0.000
219.22	-0.000
219.44	-0.000
219.65	-0.000
219.87	-0.000
220.08	-0.000
220.30	-0.000
220.51	-0.000
220.72	-0.000
220.94	-0.000
221.15	-0.000
221.37	-0.000
221.58	-0.000
221.79	-0.000
222.01	-0.000
222.22	-0.000
222.44	-0.000
222.65	-0.000
222.87	-0.000
223.08	-0.000
223.29	-0.000
223.51	-0.000
223.72	-0.000
223.94	-0.000
224.15	-0.000
224.36	-0.000
224.58	-0.000
224.79	-0.000
225.01	-0.000
225.22	-0.000
225.44	-0.000
225.65	-0.000
225.86	-0.000
226.08	-0.000
226.29	-0.000
226.51	-0.000
226.72	-0.000
226.93	-0.000
227.15	-0.000
227.36	-0.000
227.58	-0.000
227.79	-0.000
228.00	-0.000
228.22	-0.000
228.43	-0.000
228.65	-0.000
228.86	-0.000
229.07	-0.000
229.29	-0.000
229.50	-0.000
229.72	-0.000
229.93	-0.000
230.14	-0.000
230.36	-0.000
230.57	-0.000
230.78	-0.000
231.00	-0.000
231.21	-0.000
231.43	-0.000
231.64	-0.000
231.85	-0.000
232.07	-0.000
232.28	-0.000
232.50	-0.000
232.71	-0.000
232.92	-0.000
233.14	-0.000
233.35	-0.000
233.56	-0.000
233.78	-0.000
233.99	-0.000
234.21	-0.000
234.42	-0.000
234.63	-0.000
234.85	-0.000
235.06	-0.000
235.27	-0.000
235.49	-0.000
235.70	-0.000
235.91	-0.000
236.13	-0.000
236.34	-0.000
236.56	-0.000
236.77	-0.000
236.98	-0.000
237.20	-0.000
237.41	-0.000
237.62	-0.000
237.84	-0.000
238.05	-0.000
238.26	-0.000
238.48	-0.000
238.69	-0.000
238.91	-0.000
239.12	-0.000
239.33	-0.000
239.55	-0.000
239.76	-0.000
239.97	-0.000
240.19	-0.000
240.40	-0.000
240.61	-0.000
240.83	-0.000
241.04	-0.000
241.25	-0.000
241.47	-0.000
241.68	-0.000
241.89	-0.000
242.11	-0.000
242.32	-0.000
242.53	-0.000
242.75	-0.000
242.96	-0.000
243.17	-0.000
243.39	-0.000
243.60	-0.000
243.81	-0.000
244.03	-0.000
244.24	-0.000
244.45	-0.000
244.67	-0.000
244.88	-0.000
245.09	-0.000
245.31	-0.000
245.52	-0.000
245.73	-0.000
245.95	-0.000
246.16	-0.000
246.37	-0.000
246.59	-0.000
246.80	-0.000
247.01	-0.000
247.23	-0.000
247.44	-0.000
247.65	-0.000
247.87	-0.000
248.08	-0.000
248.29	-0.000
248.51	-0.000
248.72	-0.000
248.93	-0.000
249.15	-0.000
249.36	-0.000
249.57	-0.000
249.78	-0.000
250.00	-0.000
250.21	-0.000
250.42	-0.000
250.64	-0.000
250.85	-0.000
251.06	-0.000
251.28	-0.000
251.49	-0.000
251.70	-0.000
251.92	-0.000
252.13	-0.000
252.34	-0.000
252.55	-0.000
252.77	-0.000
252.98	-0.000
253.19	-0.000
253.41	-0.000
253.62	-0.000
253.83	-0.000
254.05	-0.000
254.26	-0.000
254.47	-0.000
254.68	-0.000
254.90	-0.000
255.11	-0.000
255.32	-0.000
255.54	-0.000
255.75	-0.000
255.96	-0.000
256.17	-0.000
256.39	-0.000
256.60	-0.000
256.81	-0.000
257.03	-0.000
257.24	-0.000
257.45	-0.000
257.66	-0.000
257.88	-0.000
258.09	-0.000
258.30	-0.000
258.51	-0.000
258.73	-0.000
258.94	-0.000
259.15	-0.000
259.37	-0.000
259.58	-0.000
259.79	-0.000
260.00	-0.000
260.22	-0.000
260.43	-0.000
260.64	-0.000
260.85	-0.000
261.07	-0.000
261.28	-0.000
261.49	-0.000
261.71	-0.000
261.92	-0.000
262.13	-0.000
262.34	-0.000
262.56	-0.000
262.77	-0.000
262.98	-0.000
263.19	-0.000
263.41	-0.000
263.62	-0.000
263.83	-0.000
264.04	-0.000
264.26	-0.000
264.47	-0.000
264.68	-0.000
264.89	-0.000
265.11	-0.000
265.32	-0.000
265.53	-0.000
265.74	-0.000
265.96	-0.000
266.17	-0.000
266.38	-0.000
266.59	-0.000
266.81	-0.000
267.02	-0.000
267.23	-0.000
267.44	-0.000
267.65	-0.000
267.87	-0.000
268.08	-0.000
268.29	-0.000
268.50	-0.000
268.72	-0.000
268.93	-0.000
269.14	-0.000
269.35	-0.000
269.57	-0.000
269.78	-0.000
269.99	-0.000
270.20	-0.000
270.41	-0.000
270.63	-0.000
270.84	-0.000
271.05	-0.000
271.26	-0.000
271.48	-0.000
271.69	-0.000
271.90	-0.000
272.11	-0.000
272.32	-0.000
272.54	-0.000
272.75	-0.000
272.96	-0.000
273.17	-0.000
273.39	-0.000
273.60	-0.000
273.81	-0.000
274.02	-0.000
274.23	-0.000
274.45	-0.000
274.66	-0.000
274.87	-0.000
275.08	-0.000
275.29	-0.000
275.51	-0.000
275.72	-0.000
275.93	-0.000
276.14	-0.000
276.35	-0.000
276.57	-0.000
276.78	-0.000
276.99	-0.000
277.20	-0.000
277.41	-0.000
277.63	-0.000
277.84	-0.000
278.05	-0.000
278.26	-0.000
278.47	-0.000
278.69	-0.000
278.90	-0.000
279.11	-0.000
279.32	-0.000
279.53	-0.000
279.74	-0.000
279.96	-0.000
280.17	-0.000
280.38	-0.000
280.59	-0.000
280.80	-0.000
281.02	-0.000
281.23	-0.000
281.44	-0.000
281.65	-0.000
281.86	-0.000
282.07	-0.000
282.29	-0.000
282.50	-0.000
282.71	-0.000
282.92	-0.000
283.13	-0.000
283.35	-0.000
283.56	-0.000
283.77	-0.000
283.98	-0.000
284.19	-0.000
284.40	-0.000
284.62	-0.000
284.83	-0.000
285.04	-0.000
285.25	-0.000
285.46	-0.000
285.67	-0.000
285.88	-0.000
286.10	-0.000
286.31	-0.000
286.52	-0.000
286.73	-0.000
286.94	-0.000
287.15	-0.000
287.37	-0.000
287.58	-0.000
287.79	-0.000
288.00	-0.000
288.21	-0.000
288.42	-0.000
288.63	-0.000
288.85	-0.000
289.06	-0.000
289.27	-0.000
289.48	-0.000
289.69	-0.000
289.90	-0.000
290.11	-0.000
290.33	-0.000
290.54	-0.000
290.75	-0.000
290.96	-0.000
291.17	-0.000
291.38	-0.000
291.59	-0.000
291.81	-0.000
292.02	-0.000
292.23	-0.000
292.44	-0.000
292.65	-0.000
292.86	-0.000
293.07	-0.000
293.28	2.764
293.50	-0.000
293.71	-0.000
293.92	-0.000
294.13	-0.000
294.34	-0.000
294.55	-0.000
294.76	-0.000
294.97	-0.000
295.19	-0.000
295.40	-0.000
295.61	-0.000
295.82	-0.000
296.03	2.423
296.24	2.715
296.45	1.892
296.66	1.638
296.87	1.654
297.09	1.723
297.30	1.863
297.51	1.605
297.72	1.569
297.93	1.646
298.14	1.622
298.35	1.594
298.56	1.570
298.77	1.672
298.99	1.660
299.20	1.638
299.41	1.612
299.62	1.583
299.83	1.568
300.04	1.518
300.25	1.507
300.46	1.539
300.67	1.515
300.88	1.465
301.10	1.469
301.31	1.528
301.52	1.479
301.73	1.428
301.94	1.427
302.15	1.441
302.36	1.397
302.57	1.344
302.78	1.353
302.99	1.394
303.20	1.416
303.41	1.336
303.63	1.324
303.84	1.330
304.05	1.329
304.26	1.271
304.47	1.277
304.68	1.281
304.89	1.273
305.10	1.237
305.31	1.222
305.52	1.258
305.73	1.253
305.94	1.214
306.15	1.207
306.37	1.226
306.58	1.236
306.79	1.210
307.00	1.229
307.21	1.267
307.42	1.260
307.63	1.227
307.84	1.198
308.05	1.230
308.26	1.230
308.47	1.209
308.68	1.207
308.89	1.207
309.10	1.201
309.31	1.164
309.52	1.157
309.73	1.168
309.95	1.161
310.16	1.136
310.37	1.128
310.58	1.145
310.79	1.143
311.00	1.139
311.21	1.141
311.42	1.144
311.63	1.138
311.84	1.121
312.05	1.121
312.26	1.143
312.47	1.153
312.68	1.129
312.89	1.115
313.10	1.122
313.31	1.096
313.52	1.097
313.73	1.098
313.94	1.102
314.15	1.084
314.36	1.063
314.57	1.058
314.78	1.047
314.99	1.042
315.21	1.028
315.42	1.034
315.63	1.047
315.84	1.026
316.05	1.014
316.26	1.020
316.47	1.037
316.68	1.033
316.89	1.014
317.10	1.032
317.31	1.037
317.52	1.038
317.73	1.017
317.94	1.016
318.15	1.054
318.36	1.055
318.57	1.038
318.78	1.028
318.99	1.060
319.20	1.058
319.41	1.026
319.62	1.028
319.83	1.043
320.04	1.037
320.25	1.023
320.46	0.994
320.67	0.997
320.88	0.993
321.09	0.979
321.30	0.966
321.51	0.981
321.72	0.980
321.93	0.964
322.14	0.956
322.35	0.982
322.56	0.986
322.77	0.973
322.98	0.985
323.19	0.994
323.40	1.001
323.61	0.982
323.82	0.979
324.03	0.984
324.24	0.982
324.45	0.969
324.66	0.950
324.87	0.946
325.08	0.945
325.29	0.925
325.50	0.918
325.71	0.923
325.92	0.930
326.13	0.916
326.34	0.916
326.55	0.924
326.76	0.924
326.97	0.915
327.18	0.909
327.39	0.932
327.60	0.932
327.80	0.932
328.01	0.931
328.22	0.931
328.43	0.935
328.64	0.924
328.85	0.929
329.06	0.931
329.27	0.931
329.48	0.928
329.69	0.910
329.90	0.921
330.11	0.915
330.32	0.909
330.53	0.902
330.74	0.903
330.95	0.903
331.16	0.888
331.37	0.895
331.58	0.895
331.79	0.893
332.00	0.885
332.21	0.879
332.42	0.882
332.63	0.874
332.83	0.869
333.04	0.870
333.25	0.881
333.46	0.880
333.67	0.867
333.88	0.870
334.09	0.880
334.30	0.878
334.51	0.869
334.72	0.865
334.93	0.868
335.14	0.867
335.35	0.859
335.56	0.855
335.77	0.864
335.98	0.863
336.18	0.856
336.39	0.849
336.60	0.854
336.81	0.851
337.02	0.851
337.23	0.855
337.44	0.857
337.65	0.859
337.86	0.850
338.07	0.845
338.28	0.849
338.49	0.847
338.70	0.839
338.91	0.846
339.11	0.853
339.32	0.849
339.53	0.837
339.74	0.836
339.95	0.833
340.16	0.830
340.37	0.824
340.58	0.823
340.79	0.828
341.00	0.827
341.21	0.816
341.41	0.817
341.62	0.818
341.83	0.819
342.04	0.814
342.25	0.824
342.46	0.828
342.67	0.826
342.88	0.819
343.09	0.818
343.30	0.826
343.50	0.830
343.71	0.821
343.92	0.818
344.13	0.822
344.34	0.821
344.55	0.806
344.76	0.806
344.97	0.811
345.18	0.809
345.38	0.805
345.59	0.800
345.80	0.799
346.01	0.797
346.22	0.793
346.43	0.788
346.64	0.797
346.85	0.794
347.06	0.787
347.26	0.787
347.47	0.791
347.68	0.787
347.89	0.783
348.10	0.779
348.31	0.786
348.52	0.785
348.73	0.783
348.93	0.779
349.14	0.782
349.35	0.781
349.56	0.776
349.77	0.771
349.98	0.777
350.19	0.774
350.39	0.770
350.60	0.765
350.81	0.780
351.02	0.778
351.23	0.774
351.44	0.777
351.65	0.781
351.86	0.779
352.06	0.778
352.27	0.777
352.48	0.779
352.69	0.779
352.90	0.773
353.11	0.760
353.31	0.766
353.52	0.763
353.73	0.755
353.94	0.756
354.15	0.761
354.36	0.761
354.57	0.752
354.77	0.755
354.98	0.754
355.19	0.754
355.40	0.754
355.61	0.760
355.82	0.764
356.02	0.763
356.23	0.756
356.44	0.757
356.65	0.761
356.86	0.761
357.07	0.755
357.27	0.758
357.48	0.762
357.69	0.757
357.90	0.743
358.11	0.740
358.32	0.744
358.52	0.746
358.73	0.737
358.94	0.739
359.15	0.744
359.36	0.745
359.56	0.740
359.77	0.736
359.98	0.743
360.19	0.743
360.40	0.739
360.61	0.740
360.81	0.739
361.02	0.740
361.23	0.732
361.44	0.731
361.65	0.731
361.85	0.730
362.06	0.727
362.27	0.730
362.48	0.729
362.69	0.731
362.89	0.726
363.10	0.727
363.31	0.732
363.52	0.735
363.73	0.730
363.93	0.731
364.14	0.734
364.35	0.736
364.56	0.725
364.77	0.727
364.97	0.729
365.18	0.730
365.39	0.724
365.60	0.720
365.81	0.721
366.01	0.721
366.22	0.717
366.43	0.717
366.64	0.719
366.84	0.725
367.05	0.722
367.26	0.721
367.47	0.723
367.68	0.723
367.88	0.720
368.09	0.719
368.30	0.722
368.51	0.722
368.71	0.721
368.92	0.725
369.13	0.723
369.34	0.722
369.55	0.721
369.75	0.721
369.96	0.728
370.17	0.727
370.38	0.723
370.58	0.722
370.79	0.728
371.00	0.726
371.21	0.717
371.41	0.723
371.62	0.726
371.83	0.723
372.04	0.721
372.24	0.714
372.45	0.715
372.66	0.716
372.87	0.713
373.07	0.709
373.28	0.710
373.49	0.714
373.70	0.705
373.90	0.704
374.11	0.713
374.32	0.713
374.53	0.712
374.73	0.712
374.94	0.714
375.15	0.714
375.36	0.712
375.56	0.720
375.77	0.720
375.98	0.720
376.19	0.718
376.39	0.711
376.60	0.715
376.81	0.715
377.02	0.714
377.22	0.713
377.43	0.713
377.64	0.714
377.84	0.705
378.05	0.710
378.26	0.716
378.47	0.715
378.67	0.712
378.88	0.709
379.09	0.709
379.30	0.710
379.50	0.707
379.71	0.709
379.92	0.711
380.12	0.711
380.33	0.702
380.54	0.699
380.75	0.706
380.95	0.706
381.16	0.703
381.37	0.704
381.57	0.705
381.78	0.706
381.99	0.706
382.20	0.706
382.40	0.709
382.61	0.710
382.82	0.706
383.02	0.699
383.23	0.703
383.44	0.703
383.64	0.702
383.85	0.704
384.06	0.707
384.27	0.705
384.47	0.702
384.68	0.703
384.89	0.709
385.09	0.709
385.30	0.708
385.51	0.707
385.71	0.709
385.92	0.710
386.13	0.708
386.33	0.710
386.54	0.711
386.75	0.710
386.95	0.706
387.16	0.701
387.37	0.704
387.58	0.704
387.78	0.702
387.99	0.700
388.20	0.702
388.40	0.699
388.61	0.695
388.82	0.698
389.02	0.700
389.23	0.701
389.44	0.699
389.64	0.699
389.85	0.710
390.06	0.710
390.26	0.710
390.47	0.709
390.68	0.712
390.88	0.710
391.09	0.706
391.30	0.705
391.50	0.705
391.71	0.705
391.92	0.702
392.12	0.695
392.33	0.696
392.53	0.696
392.74	0.695
392.95	0.695
393.15	0.697
393.36	0.699
393.57	0.698
393.77	0.701
393.98	0.702
394.19	0.702
394.39	0.701
394.60	0.703
394.81	0.704
395.01	0.702
395.22	0.701
395.43	0.701
395.63	0.706
395.84	0.707
396.04	0.703
396.25	0.706
396.46	0.707
396.66	0.705
396.87	0.703
397.08	0.700
397.28	0.703
397.49	0.704
397.69	0.701
397.90	0.696
398.11	0.697
398.31	0.698
398.52	0.695
398.73	0.695
398.93	0.695
399.14	0.694
399.34	0.693
399.55	0.694
399.76	0.694
399.96	0.695
400.17	0.694
400.37	0.692
400.58	0.699
400.79	0.700
400.99	0.699
401.20	0.704
401.41	0.706
401.61	0.707
401.82	0.713
402.02	0.712
402.23	0.713
402.44	0.712
402.64	0.711
402.85	0.705
403.05	0.705
403.26	0.703
403.47	0.696
403.67	0.695
403.88	0.696
404.08	0.689
404.29	0.688
404.50	0.688
404.70	0.689
404.91	0.689
405.11	0.685
405.32	0.686
405.52	0.686
405.73	0.686
405.94	0.685
406.14	0.687
406.35	0.689
406.55	0.689
406.76	0.686
406.97	0.687
407.17	0.690
407.38	0.690
407.58	0.688
407.79	0.690
407.99	0.693
408.20	0.693
408.41	0.689
408.61	0.687
408.82	0.689
409.02	0.688
409.23	0.686
409.43	0.685
409.64	0.686
409.84	0.686
410.05	0.683
410.26	0.682
410.46	0.682
410.67	0.681
410.87	0.682
411.08	0.684
411.28	0.686
411.49	0.688
411.69	0.685
411.90	0.687
412.11	0.689
412.31	0.690
412.52	0.689
412.72	0.690
412.93	0.690
413.13	0.690
413.34	0.686
413.54	0.687
413.75	0.689
413.95	0.688
414.16	0.685
414.37	0.687
414.57	0.687
414.78	0.689
414.98	0.687
415.19	0.688
415.39	0.686
415.60	0.688
415.80	0.688
416.01	0.686
416.21	0.688
416.42	0.688
416.62	0.684
416.83	0.684
417.03	0.683
417.24	0.684
417.44	0.681
417.65	0.680
417.86	0.681
418.06	0.678
418.27	0.677
418.47	0.678
418.68	0.678
418.88	0.678
419.09	0.676
419.29	0.677
419.50	0.678
419.70	0.678
419.91	0.677
420.11	0.675
420.32	0.677
420.52	0.677
420.73	0.676
420.93	0.677
421.14	0.678
421.34	0.678
421.55	0.674
421.75	0.674
421.96	0.675
422.16	0.675
422.37	0.674
422.57	0.671
422.78	0.672
422.98	0.669
423.19	0.667
423.39	0.665
423.60	0.669
423.80	0.670
424.01	0.669
424.21	0.672
424.42	0.673
424.62	0.672
424.83	0.672
425.03	0.673
425.23	0.675
425.44	0.675
425.64	0.676
425.85	0.674
426.05	0.675
426.26	0.675
426.46	0.671
426.67	0.670
426.87	0.675
427.08	0.675
427.28	0.672
427.49	0.673
427.69	0.674
427.90	0.673
428.10	0.669
428.31	0.669
428.51	0.671
428.71	0.670
428.92	0.671
429.12	0.668
429.33	0.670
429.53	0.674
429.74	0.678
429.94	0.678
430.15	0.678
430.35	0.678
430.56	0.675
430.76	0.675
430.96	0.676
431.17	0.674
431.37	0.671
431.58	0.670
431.78	0.666
431.99	0.660
432.19	0.661
432.40	0.663
432.60	0.664
432.80	0.666
433.01	0.664
433.21	0.664
433.42	0.666
433.62	0.666
433.83	0.665
434.03	0.668
434.23	0.671
434.44	0.671
434.64	0.668
434.85	0.673
435.05	0.674
435.26	0.674
435.46	0.673
435.66	0.673
435.87	0.673
436.07	0.673
436.28	0.669
436.48	0.666
436.69	0.665
436.89	0.665
437.09	0.659
437.30	0.658
437.50	0.658
437.71	0.670
437.91	0.668
438.11	0.670
438.32	0.674
438.52	0.675
438.73	0.673
438.93	0.672
439.13	0.672
439.34	0.675
439.54	0.673
439.75	0.673
439.95	0.663
440.15	0.667
440.36	0.666
440.56	0.664
440.77	0.665
440.97	0.665
441.17	0.664
441.38	0.665
441.58	0.662
441.79	0.662
441.99	0.660
442.19	0.659
442.40	0.656
442.60	0.656
442.81	0.653
443.01	0.653
443.21	0.653
443.42	0.653
443.62	0.652
443.82	0.652
444.03	0.653
444.23	0.653
444.44	0.652
444.64	0.652
444.84	0.653
445.05	0.653
445.25	0.651
445.45	0.651
445.66	0.654
445.86	0.653
446.06	0.654
446.27	0.653
446.47	0.657
446.68	0.655
446.88	0.654
447.08	0.654
447.29	0.656
447.49	0.656
447.69	0.655
447.90	0.653
448.10	0.657
448.30	0.654
448.51	0.655
448.71	0.653
448.91	0.656
449.12	0.654
449.32	0.656
449.52	0.655
449.73	0.658
449.93	0.658
450.14	0.658
450.34	0.657
450.54	0.660
450.75	0.658
450.95	0.657
451.15	0.656
451.36	0.659
451.56	0.655
451.76	0.655
451.97	0.652
452.17	0.652
452.37	0.651
452.58	0.648
452.78	0.647
452.98	0.649
453.19	0.649
453.39	0.649
453.59	0.647
453.79	0.649
454.00	0.649
454.20	0.647
454.40	0.648
454.61	0.650
454.81	0.651
455.01	0.649
455.22	0.650
455.42	0.652
455.62	0.650
455.83	0.649
456.03	0.652
456.23	0.653
456.44	0.654
456.64	0.653
456.84	0.653
457.04	0.654
457.25	0.654
457.45	0.651
457.65	0.649
457.86	0.650
458.06	0.649
458.26	0.645
458.47	0.644
458.67	0.645
458.87	0.645
459.07	0.642
459.28	0.644
459.48	0.646
459.68	0.646
459.89	0.645
460.09	0.644
460.29	0.646
460.49	0.647
460.70	0.647
460.90	0.647
461.10	0.648
461.31	0.647
461.51	0.645
461.71	0.646
461.91	0.648
462.12	0.648
462.32	0.647
462.52	0.647
462.72	0.650
462.93	0.650
463.13	0.648
463.33	0.649
463.53	0.650
463.74	0.649
463.94	0.645
464.14	0.645
464.35	0.646
464.55	0.647
464.75	0.645
464.95	0.642
465.16	0.645
465.36	0.644
465.56	0.643
465.76	0.642
465.97	0.643
466.17	0.644
466.37	0.642
466.57	0.643
466.78	0.644
466.98	0.643
467.18	0.641
467.38	0.640
467.59	0.641
467.79	0.642
467.99	0.641
468.19	0.642
468.39	0.644
468.60	0.645
468.80	0.643
469.00	0.644
469.20	0.645
469.41	0.646
469.61	0.645
469.81	0.646
470.01	0.645
470.22	0.646
470.42	0.644
470.62	0.642
470.82	0.643
471.02	0.643
471.23	0.641
471.43	0.642
471.63	0.644
471.83	0.643
472.04	0.641
472.24	0.640
472.44	0.646
472.64	0.645
472.84	0.643
473.05	0.642
473.25	0.645
473.45	0.644
473.65	0.642
473.85	0.643
474.06	0.645
474.26	0.644
474.46	0.646
474.66	0.642
474.86	0.643
475.07	0.643
475.27	0.641
475.47	0.640
475.67	0.640
475.87	0.642
476.08	0.638
476.28	0.639
476.48	0.641
476.68	0.639
476.88	0.638
477.09	0.639
477.29	0.642
477.49	0.642
477.69	0.640
477.89	0.641
478.09	0.640
478.30	0.643
478.50	0.640
478.70	0.639
478.90	0.639
479.10	0.642
479.31	0.642
479.51	0.640
479.71	0.641
479.91	0.641
480.11	0.640
480.31	0.640
480.52	0.639
480.72	0.639
480.92	0.638
481.12	0.637
481.32	0.634
481.52	0.633
481.72	0.633
481.93	0.637
482.13	0.638
482.33	0.637
482.53	0.635
482.73	0.635
482.93	0.636
483.14	0.636
483.34	0.635
483.54	0.636
483.74	0.635
483.94	0.634
484.14	0.630
484.34	0.630
484.55	0.630
484.75	0.630
484.95	0.629
485.15	0.628
485.35	0.629
485.55	0.629
485.75	0.627
485.96	0.627
486.16	0.629
486.36	0.628
486.56	0.627
486.76	0.627
486.96	0.628
487.16	0.627
487.36	0.625
487.57	0.625
487.77	0.625
487.97	0.626
488.17	0.624
488.37	0.623
488.57	0.623
488.77	0.624
488.97	0.622
489.18	0.621
489.38	0.624
489.58	0.625
489.78	0.624
489.98	0.624
490.18	0.624
490.38	0.625
490.58	0.624
490.78	0.624
490.98	0.626
491.19	0.627
491.39	0.626
491.59	0.624
491.79	0.627
491.99	0.628
492.19	0.627
492.39	0.630
492.59	0.630
492.79	0.632
492.99	0.632
493.20	0.631
493.40	0.632
493.60	0.633
493.80	0.632
494.00	0.629
494.20	0.630
494.40	0.630
494.60	0.627
494.80	0.631
495.00	0.631
495.20	0.629
495.40	0.628
495.61	0.630
495.81	0.629
496.01	0.633
496.21	0.634
496.41	0.633
496.61	0.634
496.81	0.633
497.01	0.628
497.21	0.627
497.41	0.628
497.61	0.628
497.81	0.625
498.01	0.625
498.21	0.623
498.41	0.621
498.61	0.621
498.82	0.622
499.02	0.624
499.22	0.625
499.42	0.624
499.62	0.626
499.82	0.626
500.02	0.628
500.22	0.626
500.42	0.628
500.62	0.629
500.82	0.629
501.02	0.627
501.22	0.628
501.42	0.627
501.62	0.630
501.82	0.629
502.02	0.629
502.22	0.628
502.42	0.630
502.62	0.628
502.82	0.628
503.02	0.628
503.22	0.628
503.42	0.626
503.63	0.627
503.83	0.624
504.03	0.623
504.23	0.622
504.43	0.623
504.63	0.623
504.83	0.623
505.03	0.622
505.23	0.624
505.43	0.626
505.63	0.626
505.83	0.625
506.03	0.627
506.23	0.630
506.43	0.630
506.63	0.629
506.83	0.628
507.03	0.629
507.23	0.630
507.43	0.627
507.63	0.627
507.83	0.628
508.03	0.628
508.23	0.627
508.43	0.626
508.63	0.628
508.83	0.628
509.03	0.629
509.23	0.629
509.43	0.630
509.63	0.630
509.83	0.629
510.03	0.631
510.23	0.632
510.43	0.633
510.63	0.633
510.83	0.633
511.03	0.635
511.23	0.632
511.43	0.632
511.63	0.633
511.83	0.635
512.03	0.635
512.22	0.632
512.42	0.632
512.62	0.633
512.82	0.632
513.02	0.631
513.22	0.630
513.42	0.633
513.62	0.635
513.82	0.633
514.02	0.633
514.22	0.634
514.42	0.634
514.62	0.634
514.82	0.634
515.02	0.637
515.22	0.641
515.42	0.639
515.62	0.641
515.82	0.641
516.02	0.641
516.22	0.641
516.42	0.642
516.62	0.644
516.82	0.645
517.01	0.643
517.21	0.642
517.41	0.646
517.61	0.646
517.81	0.643
518.01	0.643
518.21	0.643
518.41	0.642
518.61	0.641
518.81	0.642
519.01	0.642
519.21	0.642
519.41	0.641
519.61	0.636
519.81	0.638
520.00	0.638
520.20	0.639
520.40	0.642
520.60	0.643
520.80	0.642
521.00	0.642
521.20	0.643
521.40	0.648
521.60	0.648
521.80	0.647
522.00	0.647
522.20	0.649
522.39	0.648
522.59	0.645
522.79	0.647
522.99	0.649
523.19	0.647
523.39	0.645
523.59	0.643
523.79	0.646
523.99	0.649
524.19	0.648
524.38	0.647
524.58	0.648
524.78	0.649
524.98	0.647
525.18	0.649
525.38	0.650
525.58	0.650
525.78	0.648
525.98	0.646
526.18	0.646
526.37	0.645
526.57	0.647
526.77	0.647
526.97	0.648
527.17	0.648
527.37	0.644
527.57	0.647
527.77	0.648
527.96	0.649
528.16	0.647
528.36	0.648
528.56	0.651
528.76	0.649
528.96	0.647
529.16	0.648
529.36	0.652
529.55	0.652
529.75	0.648
529.95	0.648
530.15	0.650
530.35	0.653
530.55	0.650
530.75	0.650
530.94	0.651
531.14	0.652
531.34	0.650
531.54	0.648
531.74	0.652
531.94	0.655
532.13	0.652
532.33	0.655
532.53	0.654
532.73	0.653
532.93	0.651
533.13	0.652
533.33	0.652
533.52	0.653
533.72	0.656
533.92	0.654
534.12	0.652
534.32	0.653
534.52	0.651
534.71	0.652
534.91	0.656
535.11	0.657
535.31	0.655
535.51	0.658
535.71	0.659
535.90	0.657
536.10	0.658
536.30	0.660
536.50	0.661
536.70	0.661
536.89	0.658
537.09	0.658
537.29	0.659
537.49	0.660
537.69	0.658
537.89	0.658
538.08	0.658
538.28	0.655
538.48	0.656
538.68	0.657
538.88	0.658
539.07	0.659
539.27	0.656
539.47	0.656
539.67	0.656
539.87	0.658
540.06	0.655
540.26	0.656
540.46	0.658
540.66	0.656
540.86	0.653
541.05	0.654
541.25	0.655
541.45	0.656
541.65	0.654
541.84	0.656
542.04	0.656
542.24	0.657
542.44	0.657
542.64	0.658
542.83	0.661
543.03	0.661
543.23	0.659
543.43	0.660
543.62	0.661
543.82	0.662
544.02	0.661
544.22	0.661
544.42	0.664
544.61	0.664
544.81	0.661
545.01	0.660
545.21	0.661
545.40	0.661
545.60	0.660
545.80	0.662
546.00	0.662
546.19	0.662
546.39	0.660
546.59	0.658
546.79	0.660
546.98	0.660
547.18	0.661
547.38	0.661
547.58	0.664
547.77	0.664
547.97	0.661
548.17	0.663
548.37	0.663
548.56	0.663
548.76	0.662
548.96	0.664
549.16	0.666
549.35	0.666
549.55	0.663
549.75	0.664
549.95	0.667
550.14	0.667
550.34	0.666
550.54	0.671
550.73	0.675
550.93	0.675
551.13	0.672
551.33	0.670
551.52	0.671
551.72	0.671
551.92	0.670
552.12	0.670
552.31	0.671
552.51	0.670
552.71	0.665
552.90	0.666
553.10	0.667
553.30	0.667
553.50	0.667
553.69	0.668
553.89	0.668
554.09	0.668
554.28	0.665
554.48	0.666
554.68	0.669
554.87	0.669
555.07	0.666
555.27	0.666
555.47	0.668
555.66	0.668
555.86	0.666
556.06	0.668
556.25	0.670
556.45	0.678
556.65	0.675
556.84	0.678
557.04	0.682
557.24	0.683
557.43	0.683
557.63	0.685
557.83	0.687
558.02	0.687
558.22	0.691
558.42	0.691
558.61	0.684
558.81	0.685
559.01	0.681
559.21	0.680
559.40	0.682
559.60	0.682
559.80	0.678
559.99	0.680
560.19	0.682
560.39	0.677
560.58	0.675
560.78	0.674
560.97	0.678
561.17	0.677
561.37	0.675
561.56	0.675
561.76	0.676
561.96	0.675
562.15	0.673
562.35	0.675
562.55	0.677
562.74	0.676
562.94	0.675
563.14	0.673
563.33	0.674
563.53	0.674
563.73	0.672
563.92	0.674
564.12	0.676
564.31	0.678
564.51	0.676
564.71	0.677
564.90	0.681
565.10	0.682
565.30	0.684
565.49	0.685
565.69	0.687
565.89	0.688
566.08	0.685
566.28	0.687
566.47	0.689
566.67	0.687
566.87	0.684
567.06	0.685
567.26	0.691
567.46	0.687
567.65	0.687
567.85	0.689
568.04	0.691
568.24	0.690
568.44	0.688
568.63	0.686
568.83	0.687
569.02	0.686
569.22	0.681
569.42	0.677
569.61	0.679
569.81	0.677
570.00	0.674
570.20	0.676
570.40	0.678
570.59	0.677
570.79	0.675
570.98	0.673
571.18	0.675
571.38	0.675
571.57	0.672
571.77	0.670
571.96	0.674
572.16	0.672
572.35	0.667
572.55	0.667
572.75	0.666
572.94	0.666
573.14	0.664
573.33	0.664
573.53	0.665
573.73	0.664
573.92	0.663
574.12	0.661
574.31	0.663
574.51	0.664
574.70	0.661
574.90	0.663
575.09	0.665
575.29	0.666
575.49	0.663
575.68	0.664
575.88	0.665
576.07	0.667
576.27	0.665
576.46	0.663
576.66	0.663
576.86	0.662
577.05	0.659
577.25	0.658
577.44	0.659
577.64	0.659
577.83	0.657
578.03	0.658
578.22	0.657
578.42	0.657
578.61	0.655
578.81	0.656
579.00	0.657
579.20	0.656
579.40	0.655
579.59	0.655
579.79	0.655
579.98	0.655
580.18	0.654
580.37	0.654
580.57	0.656
580.76	0.660
580.96	0.658
581.15	0.659
581.35	0.661
581.54	0.661
581.74	0.660
581.93	0.661
582.13	0.662
582.32	0.659
582.52	0.658
582.71	0.657
582.91	0.653
583.10	0.653
583.30	0.653
583.49	0.651
583.69	0.655
583.88	0.656
584.08	0.655
584.27	0.658
584.47	0.661
584.66	0.662
584.86	0.660
585.05	0.662
585.25	0.665
585.44	0.664
585.64	0.663
585.83	0.659
586.03	0.660
586.22	0.659
586.42	0.655
586.61	0.656
586.81	0.658
587.00	0.658
587.20	0.656
587.39	0.656
587.59	0.658
587.78	0.659
587.98	0.660
588.17	0.661
588.37	0.663
588.56	0.665
588.76	0.661
588.95	0.661
589.15	0.665
589.34	0.668
589.54	0.667
589.73	0.667
589.92	0.671
590.12	0.670
590.31	0.668
590.51	0.673
590.70	0.675
590.90	0.675
591.09	0.674
591.29	0.672
591.48	0.673
591.68	0.673
591.87	0.671
592.06	0.670
592.26	0.673
592.45	0.672
592.65	0.666
592.84	0.666
593.04	0.669
593.23	0.670
593.43	0.668
593.62	0.667
593.81	0.667
594.01	0.667
594.20	0.665
594.40	0.664
594.59	0.666
594.79	0.667
594.98	0.665
595.17	0.665
595.37	0.666
595.56	0.668
595.76	0.668
595.95	0.669
596.14	0.672
596.34	0.673
596.53	0.671
596.73	0.672
596.92	0.674
597.12	0.676
597.31	0.676
597.50	0.675
597.70	0.677
597.89	0.676
598.09	0.673
598.28	0.674
598.47	0.677
598.67	0.675
598.86	0.672
599.06	0.674
599.25	0.675
599.44	0.672
599.64	0.670
599.83	0.667
600.03	0.671
600.22	0.671
600.41	0.671
600.61	0.669
600.80	0.671
601.00	0.672
601.19	0.667
601.38	0.666
601.58	0.669
601.77	0.670
601.96	0.673
602.16	0.672
602.35	0.682
602.55	0.678
602.74	0.679
602.93	0.680
603.13	0.685
603.32	0.686
603.51	0.686
603.71	0.689
603.90	0.690
604.09	0.691
604.29	0.688
604.48	0.682
604.68	0.684
604.87	0.682
605.06	0.679
605.26	0.676
605.45	0.677
605.64	0.676
605.84	0.670
606.03	0.670
606.22	0.668
606.42	0.668
606.61	0.664
606.80	0.664
607.00	0.667
607.19	0.667
607.38	0.665
607.58	0.666
607.77	0.669
607.96	0.669
608.16	0.668
608.35	0.672
608.54	0.675
608.74	0.678
608.93	0.682
609.12	0.685
609.32	0.688
609.51	0.691
609.70	0.689
609.90	0.691
610.09	0.695
610.28	0.700
610.48	0.694
610.67	0.695
610.86	0.697
611.06	0.690
611.25	0.688
611.44	0.689
611.64	0.689
611.83	0.692
612.02	0.688
612.21	0.687
612.41	0.686
612.60	0.685
612.79	0.681
612.99	0.681
613.18	0.684
613.37	0.682
613.57	0.679
613.76	0.681
613.95	0.678
614.14	0.678
614.34	0.675
614.53	0.676
614.72	0.680
614.92	0.679
615.11	0.676
615.30	0.672
615.49	0.674
615.69	0.677
615.88	0.673
616.07	0.674
616.26	0.677
616.46	0.678
616.65	0.674
616.84	0.674
617.04	0.677
617.23	0.681
617.42	0.681
617.61	0.685
617.81	0.686
618.00	0.688
618.19	0.686
618.38	0.689
618.58	0.693
618.77	0.693
618.96	0.691
619.15	0.692
619.35	0.693
619.54	0.694
619.73	0.689
619.92	0.692
620.12	0.696
620.31	0.696
620.50	0.691
620.69	0.691
620.89	0.695
621.08	0.695
621.27	0.695
621.46	0.694
621.66	0.698
621.85	0.698
622.04	0.694
622.23	0.694
622.43	0.695
622.62	0.695
622.81	0.694
623.00	0.693
623.19	0.697
623.39	0.696
623.58	0.693
623.77	0.691
623.96	0.694
624.16	0.694
624.35	0.689
624.54	0.692
624.73	0.695
624.92	0.693
625.12	0.691
625.31	0.691
625.50	0.695
625.69	0.696
625.88	0.692
626.08	0.692
626.27	0.694
626.46	0.695
626.65	0.691
626.84	0.692
627.04	0.697
627.23	0.697
627.42	0.692
627.61	0.695
627.80	0.698
628.00	0.699
628.19	0.697
628.38	0.700
628.57	0.703
628.76	0.702
628.96	0.699
629.15	0.700
629.34	0.704
629.53	0.704
629.72	0.698
629.91	0.699
630.11	0.703
630.30	0.703
630.49	0.705
630.68	0.706
630.87	0.710
631.06	0.712
631.26	0.708
631.45	0.708
631.64	0.716
631.83	0.719
632.02	0.715
632.21	0.714
632.41	0.721
632.60	0.716
632.79	0.714
632.98	0.715
633.17	0.717
633.36	0.718
633.55	0.715
633.75	0.711
633.94	0.713
634.13	0.713
634.32	0.711
634.51	0.705
634.70	0.709
634.89	0.707
635.09	0.703
635.28	0.703
635.47	0.704
635.66	0.707
635.85	0.702
636.04	0.703
636.23	0.708
636.43	0.709
636.62	0.708
636.81	0.706
637.00	0.709
637.19	0.712
637.38	0.709
637.57	0.709
637.76	0.711
637.95	0.713
638.15	0.709
638.34	0.707
638.53	0.709
638.72	0.711
638.91	0.708
639.10	0.705
639.29	0.706
639.48	0.707
639.67	0.706
639.87	0.705
640.06	0.711
640.25	0.710
640.44	0.710
640.63	0.710
640.82	0.713
641.01	0.713
641.20	0.713
641.39	0.714
641.58	0.716
641.78	0.715
641.97	0.711
642.16	0.724
642.35	0.725
642.54	0.723
642.73	0.717
642.92	0.716
643.11	0.720
643.30	0.720
643.49	0.715
643.68	0.718
643.87	0.720
644.06	0.719
644.25	0.699
644.45	0.702
644.64	0.704
644.83	0.705
645.02	0.700
645.21	0.699
645.40	0.702
645.59	0.702
645.78	0.695
645.97	0.696
646.16	0.698
646.35	0.698
646.54	0.696
646.73	0.697
646.92	0.699
647.11	0.699
647.30	0.695
647.49	0.696
647.68	0.697
647.88	0.695
648.07	0.688
648.26	0.691
648.45	0.693
648.64	0.689
648.83	0.687
649.02	0.689
649.21	0.699
649.40	0.698
649.59	0.693
649.78	0.694
649.97	0.709
650.16	0.709
650.35	0.703
650.54	0.705
650.73	0.714
650.92	0.711
651.11	0.705
651.30	0.703
651.49	0.707
651.68	0.707
651.87	0.704
652.06	0.694
652.25	0.697
652.44	0.699
652.63	0.696
652.82	0.696
653.01	0.695
653.20	0.692
653.39	0.680
653.58	0.678
653.77	0.678
653.96	0.673
654.15	0.665
654.34	0.662
654.53	0.658
654.72	0.652
654.91	0.643
655.10	0.639
655.29	0.638
655.48	0.636
655.67	0.631
655.86	0.629
656.05	0.628
656.24	0.627
656.43	0.623
656.62	0.622
656.81	0.622
657.00	0.621
657.19	0.618
657.38	0.618
657.57	0.617
657.76	0.619
657.95	0.617
658.14	0.620
658.33	0.624
658.51	0.628
658.70	0.629
658.89	0.630
659.08	0.639
659.27	0.647
659.46	0.646
659.65	0.653
659.84	0.656
660.03	0.660
660.22	0.660
660.41	0.663
660.60	0.663
660.79	0.665
660.98	0.670
661.17	0.668
661.36	0.667
661.55	0.669
661.74	0.666
661.92	0.670
662.11	0.672
662.30	0.671
662.49	0.664
662.68	0.663
662.87	0.666
663.06	0.660
663.25	0.662
663.44	0.661
663.63	0.663
663.82	0.661
664.01	0.656
664.20	0.654
664.38	0.656
664.57	0.657
664.76	0.657
664.95	0.658
665.14	0.662
665.33	0.657
665.52	0.665
665.71	0.669
665.90	0.669
666.09	0.670
666.28	0.668
666.46	0.667
666.65	0.668
666.84	0.665
667.03	0.659
667.22	0.657
667.41	0.660
667.60	0.650
667.79	0.643
667.98	0.644
668.16	0.645
668.35	0.644
668.54	0.640
668.73	0.640
668.92	0.642
669.11	0.641
669.30	0.635
669.49	0.631
669.67	0.633
669.86	0.635
670.05	0.632
670.24	0.630
670.43	0.628
670.62	0.627
670.81	0.622
671.00	0.623
671.18	0.623
671.37	0.622
671.56	0.620
671.75	0.619
671.94	0.617
672.13	0.615
672.32	0.610
672.50	0.610
672.69	0.610
672.88	0.611
673.07	0.606
673.26	0.608
673.45	0.609
673.63	0.610
673.82	0.605
674.01	0.607
674.20	0.607
674.39	0.607
674.58	0.606
674.76	0.606
674.95	0.606
675.14	0.605
675.33	0.601
675.52	0.600
675.71	0.600
675.89	0.599
676.08	0.595
676.27	0.594
676.46	0.595
676.65	0.594
676.84	0.593
677.02	0.595
677.21	0.597
677.40	0.596
677.59	0.593
677.78	0.594
677.96	0.597
678.15	0.596
678.34	0.593
678.53	0.594
678.72	0.594
678.90	0.591
679.09	0.586
679.28	0.583
679.47	0.583
679.66	0.583
679.84	0.580
680.03	0.577
680.22	0.576
680.41	0.578
680.60	0.574
680.78	0.573
680.97	0.576
681.16	0.576
681.35	0.574
681.53	0.574
681.72	0.575
681.91	0.576
682.10	0.575
682.29	0.578
682.47	0.575
682.66	0.575
682.85	0.574
683.04	0.572
683.22	0.573
683.41	0.574
683.60	0.573
683.79	0.574
683.97	0.574
684.16	0.572
684.35	0.568
684.54	0.570
684.72	0.570
684.91	0.571
685.10	0.569
685.29	0.570
685.47	0.567
685.66	0.566
685.85	0.562
686.04	0.561
686.22	0.565
686.41	0.567
686.60	0.564
686.79	0.566
686.97	0.567
687.16	0.568
687.35	0.566
687.54	0.570
687.72	0.574
687.91	0.574
688.10	0.575
688.29	0.574
688.47	0.572
688.66	0.572
688.85	0.568
689.03	0.565
689.22	0.570
689.41	0.571
689.60	0.566
689.78	0.563
689.97	0.564
690.16	0.561
690.34	0.557
690.53	0.558
690.72	0.558
690.91	0.556
691.09	0.554
691.28	0.549
691.47	0.547
691.65	0.546
691.84	0.543
692.03	0.542
692.21	0.540
692.40	0.539
692.59	0.537
692.77	0.535
692.96	0.537
693.15	0.538
693.34	0.535
693.52	0.535
693.71	0.537
693.90	0.537
694.08	0.538
694.27	0.540
694.46	0.549
694.64	0.550
694.83	0.549
695.02	0.548
695.20	0.548
695.39	0.548
695.58	0.548
695.76	0.548
695.95	0.548
696.14	0.547
696.32	0.545
696.51	0.535
696.70	0.535
696.88	0.536
697.07	0.535
697.26	0.537
697.44	0.538
697.63	0.536
697.81	0.534
698.00	0.533
698.19	0.533
698.37	0.533
698.56	0.532
698.75	0.532
698.93	0.532
699.12	0.531
699.31	0.530
699.49	0.529
699.68	0.531
699.87	0.533
700.05	0.533
700.24	0.532
700.42	0.534
700.61	0.533
700.80	0.531
700.98	0.531
701.17	0.532
701.36	0.531
701.54	0.531
701.73	0.532
701.91	0.529
702.10	0.529
702.29	0.526
702.47	0.526
702.66	0.528
702.84	0.529
703.03	0.527
703.22	0.529
703.40	0.529
703.59	0.530
703.77	0.529
703.96	0.529
704.15	0.530
704.33	0.531
704.52	0.529
704.70	0.528
704.89	0.528
705.08	0.526
705.26	0.521
705.45	0.522
705.63	0.521
705.82	0.518
706.00	0.516
706.19	0.516
706.38	0.516
706.56	0.516
706.75	0.513
706.93	0.512
707.12	0.514
707.30	0.515
707.49	0.512
707.68	0.510
707.86	0.510
708.05	0.510
708.23	0.507
708.42	0.508
708.60	0.511
708.79	0.511
708.98	0.510
709.16	0.509
709.35	0.511
709.53	0.515
709.72	0.514
709.90	0.516
710.09	0.518
710.27	0.519
710.46	0.523
710.64	0.522
710.83	0.523
711.02	0.525
711.20	0.523
711.39	0.522
711.57	0.520
711.76	0.521
711.94	0.518
712.13	0.519
712.31	0.519
712.50	0.514
712.68	0.511
712.87	0.512
713.05	0.513
713.24	0.513
713.42	0.512
713.61	0.513
713.79	0.514
713.98	0.514
714.16	0.514
714.35	0.513
714.54	0.515
714.72	0.515
714.91	0.512
715.09	0.518
715.28	0.522
715.46	0.522
715.65	0.519
715.83	0.519
716.02	0.522
716.20	0.518
716.39	0.518
716.57	0.519
716.76	0.521
716.94	0.521
717.12	0.513
717.31	0.514
717.49	0.517
717.68	0.519
717.86	0.519
718.05	0.521
718.23	0.523
718.42	0.526
718.60	0.526
718.79	0.534
718.97	0.537
719.16	0.537
719.34	0.534
719.53	0.534
719.71	0.534
719.90	0.535
720.08	0.532
720.27	0.533
720.45	0.533
720.63	0.532
720.82	0.525
721.00	0.528
721.19	0.531
721.37	0.531
721.56	0.531
721.74	0.533
721.93	0.541
722.11	0.548
722.30	0.547
722.48	0.551
722.66	0.553
722.85	0.553
723.03	0.552
723.22	0.551
723.40	0.554
723.59	0.553
723.77	0.557
723.95	0.550
724.14	0.551
724.32	0.553
724.51	0.552
724.69	0.553
724.88	0.554
725.06	0.552
725.24	0.553
725.43	0.556
725.61	0.558
725.80	0.553
725.98	0.550
726.16	0.547
726.35	0.553
726.53	0.552
726.72	0.550
726.90	0.559
727.09	0.560
727.27	0.566
727.45	0.562
727.64	0.570
727.82	0.579
728.01	0.584
728.19	0.581
728.37	0.586
728.56	0.590
728.74	0.596
728.92	0.585
729.11	0.587
729.29	0.586
729.48	0.588
729.66	0.579
729.84	0.579
730.03	0.583
730.21	0.585
730.40	0.575
730.58	0.576
730.76	0.576
730.95	0.579
731.13	0.578
731.31	0.591
731.50	0.601
731.68	0.603
731.86	0.599
732.05	0.613
732.23	0.616
732.42	0.620
732.60	0.622
732.78	0.627
732.97	0.645
733.15	0.653
733.33	0.640
733.52	0.645
733.70	0.656
733.88	0.664
734.07	0.649
734.25	0.676
734.43	0.686
734.62	0.688
734.80	0.683
734.98	0.673
735.17	0.680
735.35	0.687
735.53	0.676
735.72	0.681
735.90	0.703
736.08	0.721
736.27	0.696
736.45	0.705
736.63	0.716
736.82	0.725
737.00	0.723
737.18	0.733
737.37	0.762
737.55	0.784
737.73	0.776
737.92	0.779
738.10	0.777
738.28	0.796
738.46	0.782
738.65	0.796
738.83	0.817
739.01	0.866
739.20	0.854
739.38	0.840
739.56	0.830
739.75	0.832
739.93	0.797
740.11	0.820
740.29	0.824
740.48	0.832
740.66	0.810
740.84	0.806
741.03	0.778
741.21	0.788
741.39	0.768
741.57	0.782
741.76	0.801
741.94	0.807
742.12	0.770
742.31	0.776
742.49	0.793
742.67	0.810
742.85	0.821
743.04	0.819
743.22	0.829
743.40	0.881
743.58	0.861
743.77	0.877
743.95	0.908
744.13	0.960
744.31	0.937
744.50	0.933
744.68	0.937
744.86	0.913
745.04	0.926
745.23	0.984
745.41	0.964
745.59	0.971
745.77	0.934
745.96	0.926
746.14	0.933
746.32	0.930
746.50	0.919
746.69	0.905
746.87	0.917
747.05	0.903
747.23	0.833
747.42	0.823
747.60	0.848
747.78	0.849
747.96	0.874
748.14	0.834
748.33	0.863
748.51	0.857
748.69	0.845
748.87	0.870
749.06	0.864
749.24	0.867
749.42	0.853
749.60	0.835
749.78	0.844
749.97	0.804
750.15	0.793
750.33	0.793
750.51	0.818
750.69	0.827
750.88	0.829
751.06	0.844
751.24	0.870
751.42	0.862
751.60	0.853
751.79	0.922
751.97	0.965
752.15	0.967
752.33	0.935
752.51	0.993
752.69	1.008
752.88	0.975
753.06	1.009
753.24	0.984
753.42	1.016
753.60	1.171
753.78	1.043
753.97	1.063
754.15	1.086
754.33	1.110
754.51	0.993
754.69	0.977
754.87	1.013
755.06	0.951
755.24	0.954
755.42	0.965
755.60	0.871
755.78	0.878
755.96	0.825
756.15	0.824
756.33	0.832
756.51	0.850
756.69	0.834
756.87	0.801
757.05	0.817
757.23	0.800
757.42	0.763
757.60	0.762
757.78	0.749
757.96	0.747
758.14	0.729
758.32	0.717
758.50	0.730
758.69	0.730
758.87	0.722
759.05	0.725
759.23	0.737
759.41	0.741
759.59	0.734
759.77	0.755
759.95	0.784
760.13	0.828
760.32	0.823
760.50	0.816
760.68	0.839
760.86	0.842
761.04	0.814
761.22	0.816
761.40	0.863
761.58	0.864
761.76	0.840
761.95	0.820
762.13	0.784
762.31	0.786
762.49	0.758
762.67	0.776
762.85	0.788
763.03	0.785
763.21	0.766
763.39	0.746
763.57	0.747
763.75	0.744
763.94	0.728
764.12	0.730
764.30	0.754
764.48	0.757
764.66	0.721
764.84	0.717
765.02	0.756
765.20	0.763
765.38	0.745
765.56	0.752
765.74	0.790
765.92	0.791
766.10	0.796
766.28	0.787
766.46	0.813
766.65	0.813
766.83	0.803
767.01	0.786
767.19	0.794
767.37	0.793
767.55	0.776
767.73	0.757
767.91	0.764
768.09	0.754
768.27	0.744
768.45	0.735
768.63	0.742
768.81	0.743
768.99	0.716
769.17	0.739
769.35	0.753
769.53	0.753
769.71	0.737
769.89	0.743
770.07	0.749
770.25	0.734
770.43	0.713
770.61	0.737
770.79	0.743
770.97	0.759
771.15	0.729
771.33	0.731
771.51	0.732
771.69	0.739
771.87	0.747
772.05	0.751
772.24	0.762
772.42	0.769
772.60	0.745
772.78	0.801
772.96	0.821
773.14	0.817
773.32	0.798
773.49	0.808
773.67	0.806
773.85	0.784
774.03	0.773
774.21	0.802
774.39	0.815
774.57	0.839
774.75	0.769
774.93	0.765
775.11	0.789
775.29	0.796
775.47	0.796
775.65	0.807
775.83	0.826
776.01	0.844
776.19	0.798
776.37	0.797
776.55	0.797
776.73	0.792
776.91	0.787
777.09	0.768
777.27	0.766
777.45	0.754
777.63	0.733
777.81	0.727
777.99	0.716
778.17	0.716
778.35	0.697
778.53	0.684
778.71	0.693
778.89	0.683
779.07	0.673
779.24	0.678
779.42	0.679
779.60	0.698
779.78	0.696
779.96	0.702
780.14	0.709
780.32	0.728
780.50	0.713
780.68	0.711
780.86	0.702
781.04	0.719
781.22	0.724
781.40	0.736
781.58	0.727
781.75	0.719
781.93	0.704
782.11	0.707
782.29	0.694
782.47	0.693
782.65	0.679
782.83	0.708
783.01	0.702
783.19	0.694
783.37	0.676
783.55	0.680
783.72	0.695
783.90	0.704
784.08	0.695
784.26	0.704
784.44	0.725
784.62	0.728
784.80	0.694
784.98	0.698
785.16	0.706
785.33	0.721
785.51	0.705
785.69	0.693
785.87	0.692
786.05	0.703
786.23	0.699
786.41	0.697
786.59	0.706
786.77	0.708
786.94	0.696
787.12	0.700
787.30	0.701
787.48	0.699
787.66	0.689
787.84	0.691
788.02	0.682
788.19	0.680
788.37	0.665
788.55	0.666
788.73	0.665
788.91	0.659
789.09	0.642
789.27	0.631
789.44	0.642
789.62	0.647
789.80	0.654
789.98	0.675
790.16	0.661
790.34	0.659
790.51	0.647
790.69	0.665
790.87	0.671
791.05	0.669
791.23	0.664
791.41	0.666
791.58	0.675
791.76	0.655
791.94	0.626
792.12	0.637
792.30	0.640
792.48	0.638
792.65	0.632
792.83	0.639
793.01	0.647
793.19	0.644
793.37	0.628
793.54	0.624
793.72	0.634
793.90	0.635
794.08	0.624
794.26	0.625
794.43	0.635
794.61	0.619
794.79	0.607
794.97	0.606
795.15	0.612
795.32	0.616
795.50	0.604
795.68	0.599
795.86	0.602
796.04	0.603
796.21	0.597
796.39	0.595
796.57	0.610
796.75	0.619
796.92	0.619
797.10	0.624
797.28	0.627
797.46	0.631
797.64	0.633
797.81	0.642
797.99	0.647
798.17	0.652
798.35	0.644
798.52	0.645
798.70	0.642
798.88	0.651
799.06	0.650
799.23	0.653
799.41	0.660
799.59	0.654
799.77	0.642
799.94	0.649
800.12	0.658
800.30	0.676
800.48	0.674
800.65	0.675
800.83	0.666
801.01	0.656
801.19	0.656
801.36	0.652
801.54	0.656
801.72	0.666
801.90	0.653
802.07	0.649
802.25	0.636
802.43	0.620
802.60	0.614
802.78	0.621
802.96	0.626
803.14	0.621
803.31	0.620
803.49	0.619
803.67	0.616
803.84	0.619
804.02	0.610
804.20	0.614
804.38	0.620
804.55	0.621
804.73	0.607
804.91	0.608
805.08	0.618
805.26	0.615
805.44	0.678
805.61	0.682
805.79	0.682
805.97	0.682
806.15	0.674
806.32	0.669
806.50	0.674
806.68	0.674
806.85	0.664
807.03	0.654
807.21	0.669
807.38	0.604
807.56	0.593
807.74	0.602
807.91	0.607
808.09	0.609
808.27	0.625
808.44	0.650
808.62	0.661
808.80	0.664
808.97	0.659
809.15	0.654
809.33	0.671
809.50	0.678
809.68	0.664
809.86	0.674
810.03	0.704
810.21	0.686
810.39	0.666
810.56	0.671
810.74	0.694
810.91	0.764
811.09	0.752
811.27	0.771
811.44	0.776
811.62	0.778
811.80	0.760
811.97	0.733
812.15	0.731
812.33	0.729
812.50	0.714
812.68	0.701
812.85	0.650
813.03	0.653
813.21	0.622
813.38	0.617
813.56	0.619
813.74	0.628
813.91	0.633
814.09	0.664
814.26	0.657
814.44	0.659
814.62	0.651
814.79	0.653
814.97	0.657
815.14	0.661
815.32	0.662
815.50	0.679
815.67	0.685
815.85	0.675
816.02	0.663
816.20	0.669
816.38	0.683
816.55	0.688
816.73	0.688
816.90	0.695
817.08	0.725
817.26	0.735
817.43	0.713
817.61	0.734
817.78	0.754
817.96	0.736
818.13	0.727
818.31	0.728
818.49	0.740
818.66	0.731
818.84	0.718
819.01	0.698
819.19	0.703
819.36	0.705
819.54	0.675
819.71	0.715
819.89	0.729
820.07	0.741
820.24	0.736
820.42	0.735
820.59	0.752
820.77	0.776
820.94	0.766
821.12	0.785
821.29	0.802
821.47	0.805
821.64	0.741
821.82	0.752
822.00	0.748
822.17	0.744
822.35	0.736
822.52	0.741
822.70	0.729
822.87	0.738
823.05	0.718
823.22	0.728
823.40	0.754
823.57	0.777
823.75	0.756
823.92	0.779
824.10	0.798
824.27	0.839
824.45	0.824
824.62	0.883
824.80	0.898
824.97	0.912
825.15	0.897
825.32	0.911
825.50	0.913
825.67	0.927
825.85	0.911
826.02	0.930
826.20	0.953
826.37	1.074
826.55	0.990
826.72	1.169
826.90	1.236
827.07	1.279
827.25	1.221
827.42	1.364
827.60	1.495
827.77	1.609
827.95	1.567
828.12	1.622
828.30	1.330
828.47	1.456
828.65	1.151
828.82	1.192
829.00	1.250
829.17	1.326
829.34	1.319
829.52	1.342
829.69	-0.000
829.87	-0.000
830.04	-0.000
830.22	-0.000
830.39	-0.000
830.57	-0.000
830.74	-0.000
830.92	-0.000
831.09	-0.000
831.26	-0.000
831.44	-0.000
831.61	-0.000
831.79	-0.000
831.96	-0.000
832.14	-0.000
832.31	-0.000
832.49	-0.000
832.66	-0.000
832.83	-0.000
833.01	-0.000
833.18	-0.000
833.36	-0.000
833.53	-0.000
833.70	-0.000
833.88	-0.000
834.05	-0.000
834.23	-0.000
834.40	-0.000
834.58	-0.000
834.75	-0.000
834.92	-0.000
835.10	-0.000
835.27	-0.000
835.45	-0.000
835.62	-0.000
835.79	-0.000
835.97	-0.000
836.14	-0.000
836.32	-0.000
836.49	-0.000
836.66	-0.000
836.84	-0.000
837.01	-0.000
837.18	-0.000
837.36	-0.000
837.53	-0.000
837.71	-0.000
837.88	-0.000
838.05	-0.000
838.23	-0.000
838.40	-0.000
838.58	-0.000
838.75	-0.000
838.92	-0.000
839.10	-0.000
839.27	-0.000
839.44	-0.000
839.62	-0.000
839.79	-0.000
839.96	-0.000
840.14	-0.000
840.31	-0.000
840.48	-0.000
840.66	-0.000
840.83	-0.000
841.01	-0.000
841.18	-0.000
841.35	-0.000
841.53	-0.000
841.70	-0.000
841.87	-0.000
842.05	-0.000
842.22	-0.000
842.39	-0.000
842.57	-0.000
842.74	-0.000
842.91	-0.000
843.09	-0.000
843.26	-0.000
843.43	-0.000
843.60	-0.000
843.78	-0.000
843.95	-0.000
844.12	-0.000
844.30	-0.000
844.47	-0.000
844.64	-0.000
844.82	-0.000
844.99	-0.000
845.16	-0.000
845.34	-0.000
845.51	-0.000
845.68	-0.000
845.85	-0.000
846.03	-0.000
846.20	-0.000
846.37	-0.000
846.55	-0.000
846.72	-0.000
846.89	-0.000
847.06	-0.000
847.24	-0.000
847.41	-0.000
847.58	-0.000
847.76	-0.000
847.93	-0.000
848.10	-0.000
848.27	-0.000
848.45	-0.000
848.62	-0.000
848.79	-0.000
848.97	-0.000
849.14	-0.000
849.31	-0.000
849.48	-0.000
849.66	-0.000
849.83	-0.000
850.00	-0.000
850.17	-0.000
850.35	-0.000
850.52	-0.000
850.69	-0.000
850.86	-0.000
851.04	-0.000
851.21	-0.000
851.38	-0.000
851.55	-0.000
851.72	-0.000
851.90	-0.000
852.07	-0.000
852.24	-0.000
852.41	-0.000
852.59	-0.000
852.76	-0.000
852.93	-0.000
853.10	-0.000
853.28	-0.000
853.45	-0.000
853.62	-0.000
853.79	-0.000
853.96	-0.000
854.14	-0.000
854.31	-0.000
854.48	-0.000
854.65	-0.000
854.82	-0.000
855.00	-0.000
855.17	-0.000
855.34	-0.000
855.51	-0.000
855.68	-0.000
855.86	-0.000
856.03	-0.000
856.20	-0.000
856.37	-0.000
856.54	-0.000
856.72	-0.000
856.89	-0.000
857.06	-0.000
857.23	-0.000
857.40	-0.000
857.57	-0.000
857.75	-0.000
857.92	-0.000
858.09	-0.000
858.26	-0.000
858.43	-0.000
858.60	-0.000
858.78	-0.000
858.95	-0.000
859.12	-0.000
859.29	-0.000
859.46	-0.000
859.63	-0.000
859.81	-0.000
859.98	-0.000
860.15	-0.000
860.32	-0.000
860.49	-0.000
860.66	-0.000
860.83	-0.000
861.01	-0.000
861.18	-0.000
861.35	-0.000
861.52	-0.000
861.69	-0.000
861.86	-0.000
862.03	-0.000
862.21	-0.000
862.38	-0.000
862.55	-0.000
862.72	-0.000
862.89	-0.000
863.06	-0.000
863.23	-0.000
863.40	-0.000
863.58	-0.000
863.75	-0.000
863.92	-0.000
864.09	-0.000
864.26	-0.000
864.43	-0.000
864.60	-0.000
864.77	-0.000
864.94	-0.000
865.11	-0.000
865.29	-0.000
865.46	-0.000
865.63	-0.000
865.80	-0.000
865.97	-0.000
866.14	-0.000
866.31	-0.000
866.48	-0.000
866.65	-0.000
866.82	-0.000
866.99	-0.000
867.16	-0.000
867.34	-0.000
867.51	-0.000
867.68	-0.000
867.85	-0.000
868.02	-0.000
868.19	-0.000
868.36	-0.000
868.53	-0.000
868.70	-0.000
868.87	-0.000
869.04	-0.000
869.21	-0.000
869.38	-0.000
869.55	-0.000
869.72	-0.000
869.89	-0.000
870.06	-0.000
870.24	-0.000
870.41	-0.000
870.58	-0.000
870.75	-0.000
870.92	-0.000
871.09	-0.000
871.26	-0.000
871.43	-0.000
871.60	-0.000
871.77	-0.000
871.94	-0.000
872.11	-0.000
872.28	-0.000
872.45	-0.000
872.62	-0.000
872.79	-0.000
872.96	-0.000
873.13	-0.000
873.30	-0.000
873.47	-0.000
873.64	-0.000
873.81	-0.000
873.98	-0.000
874.15	-0.000
874.32	-0.000
874.49	-0.000
874.66	-0.000
874.83	-0.000
875.00	-0.000
875.17	-0.000
875.34	-0.000
875.51	-0.000
875.68	-0.000
875.85	-0.000
876.02	-0.000
876.19	-0.000
876.36	-0.000
876.53	-0.000
876.70	-0.000
876.87	-0.000
877.04	-0.000
877.21	-0.000
877.38	-0.000
877.55	-0.000
877.72	-0.000
877.89	-0.000
878.06	-0.000
878.23	-0.000
878.39	-0.000
878.56	-0.000
878.73	-0.000
878.90	-0.000
879.07	-0.000
879.24	-0.000
879.41	-0.000
879.58	-0.000
879.75	-0.000
879.92	-0.000
880.09	-0.000
880.26	-0.000
880.43	-0.000
880.60	-0.000
880.77	-0.000
880.94	-0.000
881.11	-0.000
881.27	-0.000
881.44	-0.000
881.61	-0.000
881.78	-0.000
881.95	-0.000
882.12	-0.000
882.29	-0.000
882.46	-0.000
882.63	-0.000
882.80	-0.000
882.97	-0.000
883.14	-0.000
883.30	-0.000
883.47	-0.000
883.64	-0.000
883.81	-0.000
883.98	-0.000
884.15	-0.000
884.32	-0.000
884.49	-0.000
884.66	-0.000
884.82	-0.000
884.99	-0.000
885.16	-0.000
885.33	-0.000
885.50	-0.000
885.67	-0.000
885.84	-0.000
886.01	-0.000
886.17	-0.000
886.34	-0.000
886.51	-0.000
886.68	-0.000
886.85	-0.000
887.02	-0.000
887.19	-0.000
887.36	-0.000
887.52	-0.000
887.69	-0.000
887.86	-0.000
888.03	-0.000
888.20	-0.000
888.37	-0.000
888.54	-0.000
888.70	-0.000
888.87	-0.000
889.04	-0.000
889.21	-0.000
889.38	-0.000
889.55	-0.000
889.71	-0.000
889.88	-0.000
890.05	-0.000
890.22	-0.000
890.39	-0.000
>>>>>End Processed Spectral Data<<<<<
