SpectraSuite Data File
++++++++++++++++++++++++++++++++++++
Date: Fri Jun 19 15:08:34 CEST 2015
User: introlabs
Dark Spectrum Present: Yes
Reference Spectrum Present: Yes
Number of Sampled Component Spectra: 1
Spectrometers: USB4H08886
Integration Time (usec): 745692 (USB4H08886)
Spectra Averaged: 5 (USB4H08886)
Boxcar Smoothing: 5 (USB4H08886)
Correct for Electrical Dark: Yes (USB4H08886)
Strobe/Lamp Enabled: No (USB4H08886)
Correct for Detector Non-linearity: Yes (USB4H08886)
Correct for Stray Light: Yes (USB4H08886)
Number of Pixels in Processed Spectrum: 3648
>>>>>Begin Processed Spectral Data<<<<<
178.14	-0.000
178.36	-0.000
178.57	-0.000
178.79	-0.000
179.01	-0.000
179.22	-0.000
179.44	-0.000
179.65	-0.000
179.87	-0.000
180.08	-0.000
180.30	-0.000
180.52	-0.000
180.73	-0.000
180.95	-0.000
181.16	-0.000
181.38	-0.000
181.59	-0.000
181.81	-0.000
182.03	-0.000
182.24	-0.000
182.46	-0.000
182.67	-0.000
182.89	-0.000
183.10	-0.000
183.32	-0.000
183.54	-0.000
183.75	-0.000
183.97	-0.000
184.18	-0.000
184.40	-0.000
184.61	-0.000
184.83	-0.000
185.04	-0.000
185.26	-0.000
185.48	-0.000
185.69	-0.000
185.91	-0.000
186.12	-0.000
186.34	-0.000
186.55	-0.000
186.77	-0.000
186.98	-0.000
187.20	-0.000
187.42	-0.000
187.63	-0.000
187.85	-0.000
188.06	-0.000
188.28	-0.000
188.49	-0.000
188.71	-0.000
188.92	-0.000
189.14	-0.000
189.36	-0.000
189.57	-0.000
189.79	-0.000
190.00	-0.000
190.22	-0.000
190.43	-0.000
190.65	-0.000
190.86	-0.000
191.08	-0.000
191.29	-0.000
191.51	-0.000
191.72	-0.000
191.94	-0.000
192.16	-0.000
192.37	-0.000
192.59	-0.000
192.80	-0.000
193.02	-0.000
193.23	-0.000
193.45	-0.000
193.66	-0.000
193.88	-0.000
194.09	-0.000
194.31	-0.000
194.52	-0.000
194.74	-0.000
194.95	-0.000
195.17	-0.000
195.38	-0.000
195.60	-0.000
195.81	-0.000
196.03	-0.000
196.25	-0.000
196.46	-0.000
196.68	-0.000
196.89	-0.000
197.11	-0.000
197.32	-0.000
197.54	-0.000
197.75	-0.000
197.97	-0.000
198.18	-0.000
198.40	-0.000
198.61	-0.000
198.83	-0.000
199.04	-0.000
199.26	-0.000
199.47	-0.000
199.69	-0.000
199.90	-0.000
200.12	-0.000
200.33	-0.000
200.55	-0.000
200.76	-0.000
200.98	-0.000
201.19	-0.000
201.41	-0.000
201.62	-0.000
201.84	-0.000
202.05	-0.000
202.27	-0.000
202.48	-0.000
202.70	-0.000
202.91	-0.000
203.13	-0.000
203.34	-0.000
203.56	-0.000
203.77	-0.000
203.99	-0.000
204.20	-0.000
204.42	-0.000
204.63	-0.000
204.85	-0.000
205.06	-0.000
205.28	-0.000
205.49	-0.000
205.71	-0.000
205.92	-0.000
206.14	-0.000
206.35	-0.000
206.56	-0.000
206.78	-0.000
206.99	-0.000
207.21	-0.000
207.42	-0.000
207.64	-0.000
207.85	-0.000
208.07	-0.000
208.28	-0.000
208.50	-0.000
208.71	-0.000
208.93	-0.000
209.14	-0.000
209.36	-0.000
209.57	-0.000
209.79	-0.000
210.00	-0.000
210.22	-0.000
210.43	-0.000
210.64	-0.000
210.86	-0.000
211.07	-0.000
211.29	-0.000
211.50	-0.000
211.72	-0.000
211.93	-0.000
212.15	-0.000
212.36	-0.000
212.58	-0.000
212.79	-0.000
213.01	-0.000
213.22	-0.000
213.43	-0.000
213.65	-0.000
213.86	-0.000
214.08	-0.000
214.29	-0.000
214.51	-0.000
214.72	-0.000
214.94	-0.000
215.15	-0.000
215.36	-0.000
215.58	-0.000
215.79	-0.000
216.01	-0.000
216.22	-0.000
216.44	-0.000
216.65	-0.000
216.87	-0.000
217.08	-0.000
217.29	-0.000
217.51	-0.000
217.72	-0.000
217.94	-0.000
218.15	-0.000
218.37	-0.000
218.58	-0.000
218.80	-0.000
219.01	-0.000
219.22	-0.000
219.44	-0.000
219.65	-0.000
219.87	-0.000
220.08	-0.000
220.30	-0.000
220.51	-0.000
220.72	-0.000
220.94	-0.000
221.15	-0.000
221.37	-0.000
221.58	-0.000
221.79	-0.000
222.01	-0.000
222.22	-0.000
222.44	-0.000
222.65	-0.000
222.87	-0.000
223.08	-0.000
223.29	-0.000
223.51	-0.000
223.72	-0.000
223.94	-0.000
224.15	-0.000
224.36	-0.000
224.58	-0.000
224.79	-0.000
225.01	-0.000
225.22	-0.000
225.44	-0.000
225.65	-0.000
225.86	-0.000
226.08	-0.000
226.29	-0.000
226.51	-0.000
226.72	-0.000
226.93	-0.000
227.15	-0.000
227.36	-0.000
227.58	-0.000
227.79	-0.000
228.00	-0.000
228.22	-0.000
228.43	-0.000
228.65	-0.000
228.86	-0.000
229.07	-0.000
229.29	-0.000
229.50	-0.000
229.72	-0.000
229.93	-0.000
230.14	-0.000
230.36	-0.000
230.57	-0.000
230.78	-0.000
231.00	-0.000
231.21	-0.000
231.43	-0.000
231.64	-0.000
231.85	-0.000
232.07	-0.000
232.28	-0.000
232.50	-0.000
232.71	-0.000
232.92	-0.000
233.14	-0.000
233.35	-0.000
233.56	-0.000
233.78	-0.000
233.99	-0.000
234.21	-0.000
234.42	-0.000
234.63	-0.000
234.85	-0.000
235.06	-0.000
235.27	-0.000
235.49	-0.000
235.70	-0.000
235.91	-0.000
236.13	-0.000
236.34	-0.000
236.56	-0.000
236.77	-0.000
236.98	-0.000
237.20	-0.000
237.41	-0.000
237.62	-0.000
237.84	-0.000
238.05	-0.000
238.26	-0.000
238.48	-0.000
238.69	-0.000
238.91	-0.000
239.12	-0.000
239.33	-0.000
239.55	-0.000
239.76	-0.000
239.97	-0.000
240.19	-0.000
240.40	-0.000
240.61	-0.000
240.83	-0.000
241.04	-0.000
241.25	-0.000
241.47	-0.000
241.68	-0.000
241.89	-0.000
242.11	-0.000
242.32	-0.000
242.53	-0.000
242.75	-0.000
242.96	-0.000
243.17	-0.000
243.39	-0.000
243.60	-0.000
243.81	-0.000
244.03	-0.000
244.24	-0.000
244.45	-0.000
244.67	-0.000
244.88	-0.000
245.09	-0.000
245.31	-0.000
245.52	-0.000
245.73	-0.000
245.95	-0.000
246.16	-0.000
246.37	-0.000
246.59	-0.000
246.80	-0.000
247.01	-0.000
247.23	-0.000
247.44	-0.000
247.65	-0.000
247.87	-0.000
248.08	-0.000
248.29	-0.000
248.51	-0.000
248.72	-0.000
248.93	-0.000
249.15	-0.000
249.36	-0.000
249.57	-0.000
249.78	-0.000
250.00	-0.000
250.21	-0.000
250.42	-0.000
250.64	-0.000
250.85	-0.000
251.06	-0.000
251.28	-0.000
251.49	-0.000
251.70	-0.000
251.92	-0.000
252.13	-0.000
252.34	-0.000
252.55	-0.000
252.77	-0.000
252.98	-0.000
253.19	-0.000
253.41	-0.000
253.62	-0.000
253.83	-0.000
254.05	-0.000
254.26	-0.000
254.47	-0.000
254.68	-0.000
254.90	-0.000
255.11	-0.000
255.32	-0.000
255.54	-0.000
255.75	-0.000
255.96	-0.000
256.17	-0.000
256.39	-0.000
256.60	-0.000
256.81	-0.000
257.03	-0.000
257.24	-0.000
257.45	-0.000
257.66	-0.000
257.88	-0.000
258.09	-0.000
258.30	-0.000
258.51	-0.000
258.73	-0.000
258.94	-0.000
259.15	-0.000
259.37	-0.000
259.58	-0.000
259.79	-0.000
260.00	-0.000
260.22	-0.000
260.43	-0.000
260.64	-0.000
260.85	-0.000
261.07	-0.000
261.28	-0.000
261.49	-0.000
261.71	-0.000
261.92	-0.000
262.13	-0.000
262.34	-0.000
262.56	-0.000
262.77	-0.000
262.98	-0.000
263.19	-0.000
263.41	-0.000
263.62	-0.000
263.83	-0.000
264.04	-0.000
264.26	-0.000
264.47	-0.000
264.68	-0.000
264.89	-0.000
265.11	-0.000
265.32	-0.000
265.53	-0.000
265.74	-0.000
265.96	-0.000
266.17	-0.000
266.38	-0.000
266.59	-0.000
266.81	-0.000
267.02	-0.000
267.23	-0.000
267.44	-0.000
267.65	-0.000
267.87	-0.000
268.08	-0.000
268.29	-0.000
268.50	-0.000
268.72	-0.000
268.93	-0.000
269.14	-0.000
269.35	-0.000
269.57	-0.000
269.78	-0.000
269.99	-0.000
270.20	-0.000
270.41	-0.000
270.63	-0.000
270.84	-0.000
271.05	-0.000
271.26	-0.000
271.48	-0.000
271.69	-0.000
271.90	-0.000
272.11	-0.000
272.32	-0.000
272.54	-0.000
272.75	-0.000
272.96	-0.000
273.17	-0.000
273.39	-0.000
273.60	-0.000
273.81	-0.000
274.02	-0.000
274.23	-0.000
274.45	-0.000
274.66	-0.000
274.87	-0.000
275.08	-0.000
275.29	-0.000
275.51	-0.000
275.72	-0.000
275.93	-0.000
276.14	-0.000
276.35	-0.000
276.57	-0.000
276.78	-0.000
276.99	-0.000
277.20	-0.000
277.41	-0.000
277.63	-0.000
277.84	-0.000
278.05	-0.000
278.26	-0.000
278.47	-0.000
278.69	-0.000
278.90	-0.000
279.11	-0.000
279.32	-0.000
279.53	-0.000
279.74	-0.000
279.96	-0.000
280.17	-0.000
280.38	-0.000
280.59	-0.000
280.80	-0.000
281.02	-0.000
281.23	-0.000
281.44	-0.000
281.65	-0.000
281.86	-0.000
282.07	-0.000
282.29	-0.000
282.50	-0.000
282.71	-0.000
282.92	-0.000
283.13	-0.000
283.35	-0.000
283.56	-0.000
283.77	-0.000
283.98	-0.000
284.19	-0.000
284.40	-0.000
284.62	-0.000
284.83	-0.000
285.04	-0.000
285.25	-0.000
285.46	-0.000
285.67	-0.000
285.88	-0.000
286.10	-0.000
286.31	-0.000
286.52	-0.000
286.73	-0.000
286.94	-0.000
287.15	-0.000
287.37	-0.000
287.58	-0.000
287.79	-0.000
288.00	-0.000
288.21	-0.000
288.42	-0.000
288.63	-0.000
288.85	-0.000
289.06	-0.000
289.27	-0.000
289.48	-0.000
289.69	-0.000
289.90	-0.000
290.11	-0.000
290.33	-0.000
290.54	-0.000
290.75	-0.000
290.96	-0.000
291.17	-0.000
291.38	-0.000
291.59	-0.000
291.81	-0.000
292.02	-0.000
292.23	-0.000
292.44	-0.000
292.65	-0.000
292.86	-0.000
293.07	-0.000
293.28	-0.000
293.50	-0.000
293.71	-0.000
293.92	-0.000
294.13	-0.000
294.34	-0.000
294.55	-0.000
294.76	-0.000
294.97	-0.000
295.19	-0.000
295.40	-0.000
295.61	-0.000
295.82	-0.000
296.03	-0.000
296.24	-0.000
296.45	2.081
296.66	1.775
296.87	1.792
297.09	1.865
297.30	2.085
297.51	1.735
297.72	1.695
297.93	1.783
298.14	1.737
298.35	1.707
298.56	1.692
298.77	1.805
298.99	1.763
299.20	1.745
299.41	1.709
299.62	1.654
299.83	1.649
300.04	1.588
300.25	1.578
300.46	1.616
300.67	1.577
300.88	1.526
301.10	1.534
301.31	1.601
301.52	1.541
301.73	1.491
301.94	1.495
302.15	1.507
302.36	1.467
302.57	1.405
302.78	1.411
302.99	1.457
303.20	1.481
303.41	1.396
303.63	1.376
303.84	1.380
304.05	1.378
304.26	1.321
304.47	1.318
304.68	1.316
304.89	1.310
305.10	1.273
305.31	1.258
305.52	1.298
305.73	1.290
305.94	1.256
306.15	1.250
306.37	1.271
306.58	1.277
306.79	1.256
307.00	1.280
307.21	1.318
307.42	1.309
307.63	1.279
307.84	1.243
308.05	1.276
308.26	1.278
308.47	1.260
308.68	1.255
308.89	1.253
309.10	1.250
309.31	1.213
309.52	1.201
309.73	1.215
309.95	1.206
310.16	1.181
310.37	1.172
310.58	1.186
310.79	1.183
311.00	1.181
311.21	1.183
311.42	1.186
311.63	1.181
311.84	1.167
312.05	1.167
312.26	1.189
312.47	1.202
312.68	1.178
312.89	1.164
313.10	1.170
313.31	1.141
313.52	1.146
313.73	1.144
313.94	1.145
314.15	1.128
314.36	1.109
314.57	1.101
314.78	1.087
314.99	1.081
315.21	1.069
315.42	1.075
315.63	1.087
315.84	1.064
316.05	1.051
316.26	1.060
316.47	1.076
316.68	1.072
316.89	1.053
317.10	1.074
317.31	1.080
317.52	1.082
317.73	1.059
317.94	1.059
318.15	1.099
318.36	1.100
318.57	1.085
318.78	1.075
318.99	1.107
319.20	1.106
319.41	1.070
319.62	1.072
319.83	1.084
320.04	1.081
320.25	1.068
320.46	1.037
320.67	1.040
320.88	1.035
321.09	1.021
321.30	1.008
321.51	1.023
321.72	1.022
321.93	1.008
322.14	1.000
322.35	1.027
322.56	1.029
322.77	1.018
322.98	1.027
323.19	1.034
323.40	1.041
323.61	1.021
323.82	1.015
324.03	1.019
324.24	1.017
324.45	1.004
324.66	0.986
324.87	0.982
325.08	0.982
325.29	0.964
325.50	0.958
325.71	0.961
325.92	0.968
326.13	0.956
326.34	0.957
326.55	0.962
326.76	0.960
326.97	0.950
327.18	0.945
327.39	0.969
327.60	0.969
327.80	0.970
328.01	0.969
328.22	0.968
328.43	0.970
328.64	0.959
328.85	0.965
329.06	0.967
329.27	0.967
329.48	0.961
329.69	0.941
329.90	0.952
330.11	0.944
330.32	0.938
330.53	0.931
330.74	0.930
330.95	0.928
331.16	0.913
331.37	0.920
331.58	0.919
331.79	0.921
332.00	0.914
332.21	0.907
332.42	0.911
332.63	0.902
332.83	0.899
333.04	0.903
333.25	0.915
333.46	0.914
333.67	0.900
333.88	0.904
334.09	0.913
334.30	0.909
334.51	0.900
334.72	0.895
334.93	0.899
335.14	0.899
335.35	0.891
335.56	0.887
335.77	0.894
335.98	0.894
336.18	0.887
336.39	0.880
336.60	0.884
336.81	0.884
337.02	0.884
337.23	0.888
337.44	0.889
337.65	0.891
337.86	0.881
338.07	0.877
338.28	0.880
338.49	0.878
338.70	0.872
338.91	0.878
339.11	0.885
339.32	0.881
339.53	0.870
339.74	0.867
339.95	0.863
340.16	0.862
340.37	0.855
340.58	0.854
340.79	0.856
341.00	0.857
341.21	0.847
341.41	0.846
341.62	0.847
341.83	0.847
342.04	0.844
342.25	0.856
342.46	0.860
342.67	0.859
342.88	0.852
343.09	0.851
343.30	0.857
343.50	0.860
343.71	0.851
343.92	0.850
344.13	0.854
344.34	0.853
344.55	0.835
344.76	0.834
344.97	0.837
345.18	0.836
345.38	0.833
345.59	0.827
345.80	0.827
346.01	0.825
346.22	0.821
346.43	0.816
346.64	0.824
346.85	0.825
347.06	0.818
347.26	0.817
347.47	0.821
347.68	0.818
347.89	0.814
348.10	0.808
348.31	0.815
348.52	0.814
348.73	0.812
348.93	0.809
349.14	0.810
349.35	0.810
349.56	0.805
349.77	0.800
349.98	0.805
350.19	0.803
350.39	0.799
350.60	0.794
350.81	0.809
351.02	0.808
351.23	0.804
351.44	0.807
351.65	0.810
351.86	0.807
352.06	0.806
352.27	0.806
352.48	0.807
352.69	0.806
352.90	0.802
353.11	0.787
353.31	0.794
353.52	0.790
353.73	0.782
353.94	0.783
354.15	0.788
354.36	0.788
354.57	0.780
354.77	0.783
354.98	0.783
355.19	0.783
355.40	0.783
355.61	0.788
355.82	0.793
356.02	0.792
356.23	0.786
356.44	0.788
356.65	0.791
356.86	0.792
357.07	0.785
357.27	0.788
357.48	0.789
357.69	0.783
357.90	0.768
358.11	0.764
358.32	0.767
358.52	0.770
358.73	0.760
358.94	0.763
359.15	0.767
359.36	0.768
359.56	0.763
359.77	0.760
359.98	0.768
360.19	0.768
360.40	0.766
360.61	0.767
360.81	0.765
361.02	0.765
361.23	0.756
361.44	0.754
361.65	0.755
361.85	0.756
362.06	0.754
362.27	0.755
362.48	0.755
362.69	0.756
362.89	0.750
363.10	0.751
363.31	0.756
363.52	0.759
363.73	0.755
363.93	0.754
364.14	0.756
364.35	0.757
364.56	0.748
364.77	0.750
364.97	0.753
365.18	0.753
365.39	0.749
365.60	0.746
365.81	0.746
366.01	0.745
366.22	0.742
366.43	0.741
366.64	0.742
366.84	0.748
367.05	0.745
367.26	0.744
367.47	0.745
367.68	0.745
367.88	0.741
368.09	0.739
368.30	0.742
368.51	0.742
368.71	0.741
368.92	0.746
369.13	0.744
369.34	0.744
369.55	0.743
369.75	0.744
369.96	0.750
370.17	0.750
370.38	0.748
370.58	0.746
370.79	0.752
371.00	0.750
371.21	0.742
371.41	0.748
371.62	0.751
371.83	0.747
372.04	0.745
372.24	0.737
372.45	0.739
372.66	0.739
372.87	0.736
373.07	0.733
373.28	0.734
373.49	0.737
373.70	0.728
373.90	0.727
374.11	0.735
374.32	0.735
374.53	0.735
374.73	0.735
374.94	0.738
375.15	0.738
375.36	0.735
375.56	0.744
375.77	0.745
375.98	0.745
376.19	0.743
376.39	0.737
376.60	0.740
376.81	0.739
377.02	0.737
377.22	0.736
377.43	0.736
377.64	0.736
377.84	0.726
378.05	0.731
378.26	0.737
378.47	0.736
378.67	0.733
378.88	0.731
379.09	0.731
379.30	0.731
379.50	0.729
379.71	0.731
379.92	0.733
380.12	0.734
380.33	0.726
380.54	0.722
380.75	0.728
380.95	0.728
381.16	0.726
381.37	0.727
381.57	0.728
381.78	0.729
381.99	0.730
382.20	0.729
382.40	0.732
382.61	0.732
382.82	0.729
383.02	0.722
383.23	0.726
383.44	0.727
383.64	0.726
383.85	0.728
384.06	0.731
384.27	0.729
384.47	0.728
384.68	0.729
384.89	0.734
385.09	0.734
385.30	0.733
385.51	0.731
385.71	0.734
385.92	0.735
386.13	0.733
386.33	0.735
386.54	0.736
386.75	0.735
386.95	0.731
387.16	0.726
387.37	0.728
387.58	0.728
387.78	0.727
387.99	0.725
388.20	0.727
388.40	0.724
388.61	0.720
388.82	0.723
389.02	0.725
389.23	0.725
389.44	0.724
389.64	0.724
389.85	0.736
390.06	0.735
390.26	0.736
390.47	0.735
390.68	0.737
390.88	0.735
391.09	0.730
391.30	0.729
391.50	0.729
391.71	0.729
391.92	0.727
392.12	0.719
392.33	0.720
392.53	0.720
392.74	0.721
392.95	0.721
393.15	0.723
393.36	0.726
393.57	0.724
393.77	0.728
393.98	0.729
394.19	0.729
394.39	0.728
394.60	0.729
394.81	0.731
395.01	0.729
395.22	0.727
395.43	0.729
395.63	0.733
395.84	0.734
396.04	0.730
396.25	0.732
396.46	0.733
396.66	0.732
396.87	0.730
397.08	0.727
397.28	0.729
397.49	0.730
397.69	0.726
397.90	0.721
398.11	0.722
398.31	0.723
398.52	0.720
398.73	0.721
398.93	0.720
399.14	0.719
399.34	0.718
399.55	0.719
399.76	0.720
399.96	0.720
400.17	0.719
400.37	0.718
400.58	0.724
400.79	0.725
400.99	0.723
401.20	0.728
401.41	0.731
401.61	0.731
401.82	0.737
402.02	0.736
402.23	0.737
402.44	0.736
402.64	0.737
402.85	0.731
403.05	0.730
403.26	0.729
403.47	0.723
403.67	0.722
403.88	0.723
404.08	0.717
404.29	0.716
404.50	0.715
404.70	0.715
404.91	0.714
405.11	0.712
405.32	0.712
405.52	0.713
405.73	0.713
405.94	0.712
406.14	0.714
406.35	0.716
406.55	0.716
406.76	0.714
406.97	0.716
407.17	0.719
407.38	0.718
407.58	0.716
407.79	0.719
407.99	0.721
408.20	0.722
408.41	0.718
408.61	0.716
408.82	0.717
409.02	0.717
409.23	0.714
409.43	0.712
409.64	0.713
409.84	0.713
410.05	0.709
410.26	0.708
410.46	0.707
410.67	0.706
410.87	0.708
411.08	0.710
411.28	0.711
411.49	0.713
411.69	0.711
411.90	0.713
412.11	0.714
412.31	0.716
412.52	0.714
412.72	0.715
412.93	0.716
413.13	0.715
413.34	0.712
413.54	0.713
413.75	0.715
413.95	0.715
414.16	0.712
414.37	0.714
414.57	0.714
414.78	0.716
414.98	0.714
415.19	0.716
415.39	0.713
415.60	0.715
415.80	0.714
416.01	0.712
416.21	0.715
416.42	0.716
416.62	0.711
416.83	0.711
417.03	0.710
417.24	0.711
417.44	0.708
417.65	0.707
417.86	0.707
418.06	0.705
418.27	0.704
418.47	0.705
418.68	0.705
418.88	0.706
419.09	0.704
419.29	0.705
419.50	0.705
419.70	0.705
419.91	0.705
420.11	0.702
420.32	0.705
420.52	0.704
420.73	0.703
420.93	0.704
421.14	0.705
421.34	0.705
421.55	0.700
421.75	0.700
421.96	0.701
422.16	0.701
422.37	0.700
422.57	0.697
422.78	0.699
422.98	0.696
423.19	0.694
423.39	0.692
423.60	0.695
423.80	0.697
424.01	0.695
424.21	0.698
424.42	0.698
424.62	0.698
424.83	0.696
425.03	0.696
425.23	0.697
425.44	0.697
425.64	0.698
425.85	0.697
426.05	0.697
426.26	0.698
426.46	0.694
426.67	0.694
426.87	0.698
427.08	0.699
427.28	0.697
427.49	0.698
427.69	0.699
427.90	0.697
428.10	0.694
428.31	0.694
428.51	0.696
428.71	0.695
428.92	0.696
429.12	0.694
429.33	0.694
429.53	0.699
429.74	0.703
429.94	0.703
430.15	0.702
430.35	0.702
430.56	0.699
430.76	0.698
430.96	0.699
431.17	0.696
431.37	0.693
431.58	0.691
431.78	0.687
431.99	0.681
432.19	0.683
432.40	0.684
432.60	0.685
432.80	0.688
433.01	0.686
433.21	0.686
433.42	0.688
433.62	0.688
433.83	0.688
434.03	0.691
434.23	0.694
434.44	0.693
434.64	0.691
434.85	0.696
435.05	0.697
435.26	0.698
435.46	0.696
435.66	0.696
435.87	0.696
436.07	0.696
436.28	0.691
436.48	0.688
436.69	0.688
436.89	0.687
437.09	0.681
437.30	0.680
437.50	0.679
437.71	0.691
437.91	0.691
438.11	0.692
438.32	0.696
438.52	0.696
438.73	0.695
438.93	0.693
439.13	0.693
439.34	0.697
439.54	0.695
439.75	0.694
439.95	0.684
440.15	0.688
440.36	0.686
440.56	0.683
440.77	0.684
440.97	0.684
441.17	0.683
441.38	0.685
441.58	0.682
441.79	0.682
441.99	0.681
442.19	0.680
442.40	0.677
442.60	0.678
442.81	0.675
443.01	0.676
443.21	0.676
443.42	0.675
443.62	0.673
443.82	0.673
444.03	0.675
444.23	0.675
444.44	0.674
444.64	0.674
444.84	0.675
445.05	0.675
445.25	0.672
445.45	0.673
445.66	0.675
445.86	0.675
446.06	0.676
446.27	0.675
446.47	0.678
446.68	0.675
446.88	0.674
447.08	0.673
447.29	0.675
447.49	0.675
447.69	0.674
447.90	0.672
448.10	0.676
448.30	0.673
448.51	0.674
448.71	0.672
448.91	0.674
449.12	0.673
449.32	0.674
449.52	0.673
449.73	0.676
449.93	0.676
450.14	0.677
450.34	0.676
450.54	0.678
450.75	0.675
450.95	0.675
451.15	0.674
451.36	0.677
451.56	0.673
451.76	0.672
451.97	0.670
452.17	0.671
452.37	0.669
452.58	0.666
452.78	0.665
452.98	0.667
453.19	0.666
453.39	0.667
453.59	0.665
453.79	0.666
454.00	0.666
454.20	0.665
454.40	0.665
454.61	0.667
454.81	0.669
455.01	0.667
455.22	0.668
455.42	0.669
455.62	0.668
455.83	0.667
456.03	0.670
456.23	0.671
456.44	0.672
456.64	0.671
456.84	0.670
457.04	0.670
457.25	0.670
457.45	0.667
457.65	0.665
457.86	0.666
458.06	0.666
458.26	0.662
458.47	0.661
458.67	0.662
458.87	0.662
459.07	0.660
459.28	0.662
459.48	0.664
459.68	0.664
459.89	0.663
460.09	0.662
460.29	0.662
460.49	0.664
460.70	0.663
460.90	0.662
461.10	0.662
461.31	0.662
461.51	0.659
461.71	0.661
461.91	0.662
462.12	0.663
462.32	0.661
462.52	0.662
462.72	0.665
462.93	0.666
463.13	0.664
463.33	0.665
463.53	0.667
463.74	0.666
463.94	0.662
464.14	0.663
464.35	0.664
464.55	0.665
464.75	0.663
464.95	0.660
465.16	0.662
465.36	0.661
465.56	0.661
465.76	0.660
465.97	0.660
466.17	0.661
466.37	0.658
466.57	0.659
466.78	0.659
466.98	0.659
467.18	0.657
467.38	0.656
467.59	0.658
467.79	0.659
467.99	0.658
468.19	0.659
468.39	0.662
468.60	0.662
468.80	0.660
469.00	0.662
469.20	0.663
469.41	0.663
469.61	0.662
469.81	0.663
470.01	0.662
470.22	0.662
470.42	0.661
470.62	0.658
470.82	0.660
471.02	0.659
471.23	0.658
471.43	0.658
471.63	0.660
471.83	0.659
472.04	0.657
472.24	0.656
472.44	0.662
472.64	0.662
472.84	0.661
473.05	0.660
473.25	0.662
473.45	0.661
473.65	0.659
473.85	0.660
474.06	0.661
474.26	0.661
474.46	0.662
474.66	0.658
474.86	0.659
475.07	0.658
475.27	0.657
475.47	0.655
475.67	0.655
475.87	0.658
476.08	0.654
476.28	0.655
476.48	0.656
476.68	0.655
476.88	0.653
477.09	0.654
477.29	0.656
477.49	0.656
477.69	0.656
477.89	0.656
478.09	0.655
478.30	0.658
478.50	0.655
478.70	0.654
478.90	0.655
479.10	0.657
479.31	0.658
479.51	0.656
479.71	0.657
479.91	0.657
480.11	0.656
480.31	0.656
480.52	0.654
480.72	0.654
480.92	0.653
481.12	0.652
481.32	0.650
481.52	0.648
481.72	0.647
481.93	0.651
482.13	0.651
482.33	0.650
482.53	0.648
482.73	0.649
482.93	0.651
483.14	0.650
483.34	0.650
483.54	0.651
483.74	0.650
483.94	0.649
484.14	0.646
484.34	0.645
484.55	0.646
484.75	0.647
484.95	0.644
485.15	0.644
485.35	0.644
485.55	0.643
485.75	0.641
485.96	0.642
486.16	0.643
486.36	0.642
486.56	0.640
486.76	0.640
486.96	0.640
487.16	0.640
487.36	0.638
487.57	0.637
487.77	0.638
487.97	0.638
488.17	0.636
488.37	0.635
488.57	0.636
488.77	0.636
488.97	0.635
489.18	0.634
489.38	0.636
489.58	0.637
489.78	0.636
489.98	0.637
490.18	0.637
490.38	0.637
490.58	0.637
490.78	0.637
490.98	0.639
491.19	0.640
491.39	0.639
491.59	0.638
491.79	0.641
491.99	0.641
492.19	0.640
492.39	0.643
492.59	0.643
492.79	0.645
492.99	0.645
493.20	0.645
493.40	0.645
493.60	0.647
493.80	0.646
494.00	0.643
494.20	0.644
494.40	0.644
494.60	0.641
494.80	0.645
495.00	0.644
495.20	0.643
495.40	0.641
495.61	0.643
495.81	0.642
496.01	0.645
496.21	0.646
496.41	0.646
496.61	0.646
496.81	0.645
497.01	0.640
497.21	0.639
497.41	0.640
497.61	0.640
497.81	0.637
498.01	0.638
498.21	0.636
498.41	0.634
498.61	0.634
498.82	0.635
499.02	0.638
499.22	0.638
499.42	0.637
499.62	0.638
499.82	0.640
500.02	0.641
500.22	0.640
500.42	0.642
500.62	0.643
500.82	0.643
501.02	0.641
501.22	0.641
501.42	0.641
501.62	0.644
501.82	0.643
502.02	0.643
502.22	0.643
502.42	0.644
502.62	0.641
502.82	0.642
503.02	0.642
503.22	0.642
503.42	0.640
503.63	0.639
503.83	0.637
504.03	0.636
504.23	0.635
504.43	0.635
504.63	0.636
504.83	0.636
505.03	0.635
505.23	0.637
505.43	0.638
505.63	0.639
505.83	0.638
506.03	0.640
506.23	0.642
506.43	0.642
506.63	0.641
506.83	0.640
507.03	0.642
507.23	0.642
507.43	0.640
507.63	0.640
507.83	0.640
508.03	0.641
508.23	0.640
508.43	0.638
508.63	0.640
508.83	0.639
509.03	0.640
509.23	0.640
509.43	0.641
509.63	0.640
509.83	0.639
510.03	0.641
510.23	0.643
510.43	0.643
510.63	0.645
510.83	0.645
511.03	0.647
511.23	0.645
511.43	0.644
511.63	0.646
511.83	0.648
512.03	0.648
512.22	0.645
512.42	0.644
512.62	0.645
512.82	0.644
513.02	0.643
513.22	0.643
513.42	0.644
513.62	0.647
513.82	0.645
514.02	0.644
514.22	0.645
514.42	0.646
514.62	0.646
514.82	0.647
515.02	0.649
515.22	0.651
515.42	0.650
515.62	0.653
515.82	0.652
516.02	0.653
516.22	0.653
516.42	0.655
516.62	0.656
516.82	0.657
517.01	0.655
517.21	0.655
517.41	0.658
517.61	0.658
517.81	0.654
518.01	0.653
518.21	0.653
518.41	0.652
518.61	0.651
518.81	0.652
519.01	0.652
519.21	0.652
519.41	0.651
519.61	0.646
519.81	0.648
520.00	0.649
520.20	0.650
520.40	0.652
520.60	0.653
520.80	0.653
521.00	0.653
521.20	0.654
521.40	0.659
521.60	0.659
521.80	0.659
522.00	0.659
522.20	0.661
522.39	0.660
522.59	0.658
522.79	0.659
522.99	0.661
523.19	0.659
523.39	0.657
523.59	0.655
523.79	0.658
523.99	0.659
524.19	0.659
524.38	0.658
524.58	0.659
524.78	0.659
524.98	0.657
525.18	0.659
525.38	0.660
525.58	0.661
525.78	0.659
525.98	0.657
526.18	0.657
526.37	0.657
526.57	0.659
526.77	0.659
526.97	0.660
527.17	0.661
527.37	0.657
527.57	0.660
527.77	0.661
527.96	0.661
528.16	0.660
528.36	0.661
528.56	0.663
528.76	0.660
528.96	0.659
529.16	0.660
529.36	0.663
529.55	0.663
529.75	0.659
529.95	0.659
530.15	0.660
530.35	0.663
530.55	0.660
530.75	0.660
530.94	0.662
531.14	0.662
531.34	0.661
531.54	0.659
531.74	0.662
531.94	0.666
532.13	0.665
532.33	0.667
532.53	0.666
532.73	0.666
532.93	0.664
533.13	0.665
533.33	0.665
533.52	0.665
533.72	0.669
533.92	0.666
534.12	0.664
534.32	0.664
534.52	0.662
534.71	0.663
534.91	0.665
535.11	0.667
535.31	0.665
535.51	0.668
535.71	0.669
535.90	0.666
536.10	0.667
536.30	0.669
536.50	0.669
536.70	0.670
536.89	0.667
537.09	0.667
537.29	0.668
537.49	0.669
537.69	0.667
537.89	0.668
538.08	0.667
538.28	0.665
538.48	0.666
538.68	0.667
538.88	0.669
539.07	0.669
539.27	0.668
539.47	0.667
539.67	0.667
539.87	0.669
540.06	0.666
540.26	0.668
540.46	0.670
540.66	0.667
540.86	0.665
541.05	0.666
541.25	0.667
541.45	0.667
541.65	0.666
541.84	0.668
542.04	0.668
542.24	0.669
542.44	0.669
542.64	0.670
542.83	0.672
543.03	0.673
543.23	0.670
543.43	0.671
543.62	0.672
543.82	0.672
544.02	0.670
544.22	0.671
544.42	0.673
544.61	0.673
544.81	0.670
545.01	0.669
545.21	0.671
545.40	0.672
545.60	0.670
545.80	0.673
546.00	0.673
546.19	0.672
546.39	0.670
546.59	0.668
546.79	0.669
546.98	0.670
547.18	0.670
547.38	0.671
547.58	0.673
547.77	0.674
547.97	0.669
548.17	0.672
548.37	0.673
548.56	0.673
548.76	0.673
548.96	0.675
549.16	0.677
549.35	0.677
549.55	0.674
549.75	0.674
549.95	0.678
550.14	0.678
550.34	0.676
550.54	0.681
550.73	0.684
550.93	0.685
551.13	0.682
551.33	0.681
551.52	0.681
551.72	0.682
551.92	0.680
552.12	0.680
552.31	0.681
552.51	0.682
552.71	0.677
552.90	0.677
553.10	0.677
553.30	0.678
553.50	0.677
553.69	0.679
553.89	0.679
554.09	0.679
554.28	0.676
554.48	0.678
554.68	0.680
554.87	0.680
555.07	0.676
555.27	0.677
555.47	0.678
555.66	0.678
555.86	0.677
556.06	0.678
556.25	0.679
556.45	0.686
556.65	0.684
556.84	0.687
557.04	0.691
557.24	0.692
557.43	0.692
557.63	0.694
557.83	0.697
558.02	0.698
558.22	0.702
558.42	0.703
558.61	0.696
558.81	0.697
559.01	0.693
559.21	0.692
559.40	0.693
559.60	0.693
559.80	0.690
559.99	0.691
560.19	0.692
560.39	0.686
560.58	0.684
560.78	0.684
560.97	0.687
561.17	0.686
561.37	0.683
561.56	0.685
561.76	0.686
561.96	0.685
562.15	0.683
562.35	0.686
562.55	0.687
562.74	0.686
562.94	0.686
563.14	0.684
563.33	0.685
563.53	0.685
563.73	0.682
563.92	0.684
564.12	0.686
564.31	0.688
564.51	0.686
564.71	0.688
564.90	0.690
565.10	0.691
565.30	0.693
565.49	0.694
565.69	0.696
565.89	0.697
566.08	0.694
566.28	0.696
566.47	0.698
566.67	0.696
566.87	0.694
567.06	0.696
567.26	0.702
567.46	0.698
567.65	0.698
567.85	0.699
568.04	0.702
568.24	0.701
568.44	0.698
568.63	0.696
568.83	0.698
569.02	0.697
569.22	0.692
569.42	0.689
569.61	0.691
569.81	0.690
570.00	0.688
570.20	0.689
570.40	0.690
570.59	0.690
570.79	0.688
570.98	0.686
571.18	0.688
571.38	0.687
571.57	0.685
571.77	0.682
571.96	0.685
572.16	0.683
572.35	0.677
572.55	0.678
572.75	0.676
572.94	0.676
573.14	0.674
573.33	0.674
573.53	0.675
573.73	0.674
573.92	0.672
574.12	0.670
574.31	0.673
574.51	0.674
574.70	0.671
574.90	0.673
575.09	0.675
575.29	0.675
575.49	0.672
575.68	0.673
575.88	0.674
576.07	0.675
576.27	0.674
576.46	0.672
576.66	0.671
576.86	0.670
577.05	0.668
577.25	0.666
577.44	0.668
577.64	0.668
577.83	0.666
578.03	0.668
578.22	0.667
578.42	0.667
578.61	0.665
578.81	0.666
579.00	0.666
579.20	0.666
579.40	0.665
579.59	0.664
579.79	0.664
579.98	0.663
580.18	0.663
580.37	0.662
580.57	0.665
580.76	0.669
580.96	0.667
581.15	0.668
581.35	0.670
581.54	0.669
581.74	0.669
581.93	0.671
582.13	0.671
582.32	0.668
582.52	0.666
582.71	0.665
582.91	0.661
583.10	0.660
583.30	0.659
583.49	0.658
583.69	0.662
583.88	0.663
584.08	0.662
584.27	0.665
584.47	0.668
584.66	0.670
584.86	0.669
585.05	0.671
585.25	0.674
585.44	0.674
585.64	0.673
585.83	0.669
586.03	0.669
586.22	0.667
586.42	0.663
586.61	0.665
586.81	0.666
587.00	0.665
587.20	0.663
587.39	0.663
587.59	0.665
587.78	0.666
587.98	0.667
588.17	0.668
588.37	0.671
588.56	0.672
588.76	0.668
588.95	0.669
589.15	0.673
589.34	0.675
589.54	0.674
589.73	0.675
589.92	0.678
590.12	0.678
590.31	0.676
590.51	0.682
590.70	0.684
590.90	0.685
591.09	0.682
591.29	0.681
591.48	0.681
591.68	0.682
591.87	0.680
592.06	0.680
592.26	0.682
592.45	0.681
592.65	0.674
592.84	0.673
593.04	0.676
593.23	0.678
593.43	0.675
593.62	0.674
593.81	0.675
594.01	0.674
594.20	0.671
594.40	0.670
594.59	0.672
594.79	0.673
594.98	0.672
595.17	0.671
595.37	0.672
595.56	0.674
595.76	0.674
595.95	0.676
596.14	0.679
596.34	0.680
596.53	0.679
596.73	0.680
596.92	0.682
597.12	0.685
597.31	0.685
597.50	0.684
597.70	0.686
597.89	0.686
598.09	0.682
598.28	0.684
598.47	0.686
598.67	0.684
598.86	0.681
599.06	0.683
599.25	0.683
599.44	0.680
599.64	0.678
599.83	0.676
600.03	0.678
600.22	0.678
600.41	0.678
600.61	0.676
600.80	0.678
601.00	0.679
601.19	0.675
601.38	0.673
601.58	0.676
601.77	0.677
601.96	0.679
602.16	0.679
602.35	0.687
602.55	0.685
602.74	0.685
602.93	0.687
603.13	0.692
603.32	0.693
603.51	0.693
603.71	0.696
603.90	0.697
604.09	0.698
604.29	0.695
604.48	0.690
604.68	0.692
604.87	0.691
605.06	0.687
605.26	0.684
605.45	0.684
605.64	0.684
605.84	0.679
606.03	0.678
606.22	0.677
606.42	0.676
606.61	0.672
606.80	0.672
607.00	0.673
607.19	0.674
607.38	0.672
607.58	0.674
607.77	0.676
607.96	0.676
608.16	0.674
608.35	0.679
608.54	0.682
608.74	0.684
608.93	0.689
609.12	0.692
609.32	0.694
609.51	0.697
609.70	0.696
609.90	0.698
610.09	0.702
610.28	0.707
610.48	0.701
610.67	0.702
610.86	0.703
611.06	0.698
611.25	0.697
611.44	0.697
611.64	0.697
611.83	0.699
612.02	0.697
612.21	0.695
612.41	0.694
612.60	0.694
612.79	0.690
612.99	0.690
613.18	0.692
613.37	0.689
613.57	0.687
613.76	0.688
613.95	0.685
614.14	0.684
614.34	0.682
614.53	0.682
614.72	0.684
614.92	0.685
615.11	0.682
615.30	0.679
615.49	0.680
615.69	0.683
615.88	0.679
616.07	0.680
616.26	0.683
616.46	0.684
616.65	0.681
616.84	0.680
617.04	0.681
617.23	0.685
617.42	0.686
617.61	0.690
617.81	0.690
618.00	0.692
618.19	0.691
618.38	0.695
618.58	0.698
618.77	0.699
618.96	0.699
619.15	0.701
619.35	0.701
619.54	0.702
619.73	0.698
619.92	0.700
620.12	0.705
620.31	0.705
620.50	0.700
620.69	0.701
620.89	0.704
621.08	0.703
621.27	0.703
621.46	0.703
621.66	0.706
621.85	0.707
622.04	0.703
622.23	0.704
622.43	0.704
622.62	0.704
622.81	0.702
623.00	0.702
623.19	0.706
623.39	0.704
623.58	0.701
623.77	0.700
623.96	0.702
624.16	0.702
624.35	0.696
624.54	0.699
624.73	0.703
624.92	0.700
625.12	0.698
625.31	0.698
625.50	0.701
625.69	0.702
625.88	0.698
626.08	0.697
626.27	0.698
626.46	0.700
626.65	0.696
626.84	0.696
627.04	0.701
627.23	0.702
627.42	0.697
627.61	0.700
627.80	0.703
628.00	0.703
628.19	0.702
628.38	0.705
628.57	0.708
628.76	0.705
628.96	0.702
629.15	0.703
629.34	0.705
629.53	0.705
629.72	0.699
629.91	0.700
630.11	0.704
630.30	0.704
630.49	0.707
630.68	0.707
630.87	0.712
631.06	0.714
631.26	0.710
631.45	0.712
631.64	0.720
631.83	0.722
632.02	0.720
632.21	0.719
632.41	0.726
632.60	0.720
632.79	0.719
632.98	0.719
633.17	0.720
633.36	0.722
633.55	0.719
633.75	0.715
633.94	0.716
634.13	0.716
634.32	0.713
634.51	0.707
634.70	0.709
634.89	0.709
635.09	0.707
635.28	0.707
635.47	0.708
635.66	0.711
635.85	0.706
636.04	0.708
636.23	0.713
636.43	0.714
636.62	0.713
636.81	0.712
637.00	0.714
637.19	0.716
637.38	0.714
637.57	0.713
637.76	0.715
637.95	0.716
638.15	0.711
638.34	0.707
638.53	0.710
638.72	0.712
638.91	0.710
639.10	0.709
639.29	0.708
639.48	0.709
639.67	0.709
639.87	0.708
640.06	0.712
640.25	0.712
640.44	0.714
640.63	0.714
640.82	0.716
641.01	0.717
641.20	0.716
641.39	0.717
641.58	0.720
641.78	0.719
641.97	0.715
642.16	0.729
642.35	0.729
642.54	0.728
642.73	0.722
642.92	0.720
643.11	0.723
643.30	0.723
643.49	0.719
643.68	0.721
643.87	0.722
644.06	0.721
644.25	0.702
644.45	0.705
644.64	0.706
644.83	0.706
645.02	0.704
645.21	0.704
645.40	0.706
645.59	0.706
645.78	0.700
645.97	0.702
646.16	0.703
646.35	0.702
646.54	0.700
646.73	0.701
646.92	0.703
647.11	0.701
647.30	0.696
647.49	0.698
647.68	0.697
647.88	0.696
648.07	0.690
648.26	0.694
648.45	0.697
648.64	0.694
648.83	0.692
649.02	0.694
649.21	0.705
649.40	0.705
649.59	0.700
649.78	0.701
649.97	0.715
650.16	0.714
650.35	0.708
650.54	0.710
650.73	0.718
650.92	0.714
651.11	0.708
651.30	0.705
651.49	0.709
651.68	0.708
651.87	0.705
652.06	0.694
652.25	0.697
652.44	0.701
652.63	0.700
652.82	0.702
653.01	0.702
653.20	0.701
653.39	0.691
653.58	0.689
653.77	0.689
653.96	0.684
654.15	0.677
654.34	0.676
654.53	0.671
654.72	0.664
654.91	0.654
655.10	0.650
655.29	0.648
655.48	0.645
655.67	0.639
655.86	0.637
656.05	0.635
656.24	0.634
656.43	0.629
656.62	0.627
656.81	0.627
657.00	0.623
657.19	0.620
657.38	0.619
657.57	0.618
657.76	0.619
657.95	0.617
658.14	0.619
658.33	0.622
658.51	0.627
658.70	0.627
658.89	0.627
659.08	0.638
659.27	0.646
659.46	0.647
659.65	0.653
659.84	0.657
660.03	0.661
660.22	0.661
660.41	0.665
660.60	0.664
660.79	0.665
660.98	0.672
661.17	0.671
661.36	0.671
661.55	0.672
661.74	0.670
661.92	0.673
662.11	0.676
662.30	0.675
662.49	0.669
662.68	0.668
662.87	0.672
663.06	0.666
663.25	0.667
663.44	0.667
663.63	0.667
663.82	0.666
664.01	0.661
664.20	0.658
664.38	0.660
664.57	0.661
664.76	0.661
664.95	0.662
665.14	0.666
665.33	0.661
665.52	0.668
665.71	0.671
665.90	0.671
666.09	0.672
666.28	0.670
666.46	0.668
666.65	0.668
666.84	0.666
667.03	0.661
667.22	0.658
667.41	0.661
667.60	0.652
667.79	0.646
667.98	0.647
668.16	0.648
668.35	0.648
668.54	0.645
668.73	0.646
668.92	0.646
669.11	0.645
669.30	0.640
669.49	0.636
669.67	0.637
669.86	0.639
670.05	0.636
670.24	0.634
670.43	0.632
670.62	0.630
670.81	0.626
671.00	0.627
671.18	0.626
671.37	0.626
671.56	0.624
671.75	0.623
671.94	0.620
672.13	0.618
672.32	0.614
672.50	0.614
672.69	0.614
672.88	0.614
673.07	0.610
673.26	0.613
673.45	0.614
673.63	0.614
673.82	0.611
674.01	0.612
674.20	0.612
674.39	0.612
674.58	0.611
674.76	0.612
674.95	0.611
675.14	0.611
675.33	0.605
675.52	0.604
675.71	0.604
675.89	0.603
676.08	0.599
676.27	0.599
676.46	0.599
676.65	0.599
676.84	0.598
677.02	0.600
677.21	0.602
677.40	0.602
677.59	0.600
677.78	0.601
677.96	0.603
678.15	0.602
678.34	0.600
678.53	0.601
678.72	0.600
678.90	0.597
679.09	0.593
679.28	0.589
679.47	0.589
679.66	0.588
679.84	0.585
680.03	0.582
680.22	0.581
680.41	0.583
680.60	0.579
680.78	0.578
680.97	0.580
681.16	0.580
681.35	0.579
681.53	0.578
681.72	0.580
681.91	0.582
682.10	0.581
682.29	0.583
682.47	0.580
682.66	0.579
682.85	0.578
683.04	0.576
683.22	0.576
683.41	0.578
683.60	0.577
683.79	0.577
683.97	0.576
684.16	0.575
684.35	0.571
684.54	0.573
684.72	0.574
684.91	0.575
685.10	0.574
685.29	0.575
685.47	0.571
685.66	0.570
685.85	0.567
686.04	0.567
686.22	0.569
686.41	0.571
686.60	0.568
686.79	0.571
686.97	0.572
687.16	0.573
687.35	0.570
687.54	0.574
687.72	0.578
687.91	0.578
688.10	0.580
688.29	0.579
688.47	0.577
688.66	0.577
688.85	0.573
689.03	0.571
689.22	0.576
689.41	0.576
689.60	0.571
689.78	0.569
689.97	0.569
690.16	0.566
690.34	0.563
690.53	0.562
690.72	0.562
690.91	0.561
691.09	0.559
691.28	0.553
691.47	0.551
691.65	0.550
691.84	0.547
692.03	0.546
692.21	0.544
692.40	0.543
692.59	0.540
692.77	0.539
692.96	0.540
693.15	0.541
693.34	0.539
693.52	0.539
693.71	0.539
693.90	0.541
694.08	0.542
694.27	0.542
694.46	0.551
694.64	0.552
694.83	0.551
695.02	0.551
695.20	0.550
695.39	0.550
695.58	0.550
695.76	0.550
695.95	0.549
696.14	0.548
696.32	0.546
696.51	0.537
696.70	0.537
696.88	0.538
697.07	0.536
697.26	0.538
697.44	0.539
697.63	0.538
697.81	0.536
698.00	0.536
698.19	0.536
698.37	0.536
698.56	0.536
698.75	0.536
698.93	0.535
699.12	0.535
699.31	0.534
699.49	0.533
699.68	0.534
699.87	0.536
700.05	0.536
700.24	0.535
700.42	0.537
700.61	0.537
700.80	0.535
700.98	0.536
701.17	0.537
701.36	0.536
701.54	0.536
701.73	0.537
701.91	0.534
702.10	0.534
702.29	0.533
702.47	0.531
702.66	0.532
702.84	0.533
703.03	0.531
703.22	0.532
703.40	0.532
703.59	0.533
703.77	0.533
703.96	0.533
704.15	0.533
704.33	0.533
704.52	0.532
704.70	0.532
704.89	0.531
705.08	0.530
705.26	0.527
705.45	0.526
705.63	0.525
705.82	0.522
706.00	0.520
706.19	0.520
706.38	0.521
706.56	0.520
706.75	0.518
706.93	0.517
707.12	0.518
707.30	0.519
707.49	0.517
707.68	0.515
707.86	0.514
708.05	0.514
708.23	0.511
708.42	0.512
708.60	0.515
708.79	0.514
708.98	0.513
709.16	0.512
709.35	0.513
709.53	0.517
709.72	0.515
709.90	0.517
710.09	0.519
710.27	0.521
710.46	0.525
710.64	0.523
710.83	0.525
711.02	0.527
711.20	0.527
711.39	0.525
711.57	0.523
711.76	0.524
711.94	0.522
712.13	0.523
712.31	0.523
712.50	0.517
712.68	0.515
712.87	0.516
713.05	0.516
713.24	0.516
713.42	0.515
713.61	0.515
713.79	0.517
713.98	0.517
714.16	0.518
714.35	0.518
714.54	0.519
714.72	0.520
714.91	0.518
715.09	0.524
715.28	0.527
715.46	0.527
715.65	0.525
715.83	0.524
716.02	0.526
716.20	0.522
716.39	0.522
716.57	0.522
716.76	0.524
716.94	0.524
717.12	0.517
717.31	0.518
717.49	0.520
717.68	0.522
717.86	0.522
718.05	0.524
718.23	0.526
718.42	0.527
718.60	0.529
718.79	0.536
718.97	0.538
719.16	0.538
719.34	0.535
719.53	0.535
719.71	0.535
719.90	0.535
720.08	0.533
720.27	0.533
720.45	0.533
720.63	0.532
720.82	0.526
721.00	0.529
721.19	0.532
721.37	0.532
721.56	0.532
721.74	0.535
721.93	0.543
722.11	0.550
722.30	0.550
722.48	0.554
722.66	0.556
722.85	0.556
723.03	0.556
723.22	0.555
723.40	0.559
723.59	0.558
723.77	0.563
723.95	0.557
724.14	0.558
724.32	0.559
724.51	0.558
724.69	0.559
724.88	0.559
725.06	0.557
725.24	0.558
725.43	0.559
725.61	0.562
725.80	0.556
725.98	0.554
726.16	0.550
726.35	0.557
726.53	0.556
726.72	0.555
726.90	0.566
727.09	0.567
727.27	0.572
727.45	0.570
727.64	0.578
727.82	0.586
728.01	0.591
728.19	0.589
728.37	0.593
728.56	0.597
728.74	0.605
728.92	0.593
729.11	0.594
729.29	0.593
729.48	0.595
729.66	0.585
729.84	0.585
730.03	0.588
730.21	0.590
730.40	0.581
730.58	0.582
730.76	0.581
730.95	0.583
731.13	0.582
731.31	0.594
731.50	0.601
731.68	0.605
731.86	0.601
732.05	0.615
732.23	0.616
732.42	0.619
732.60	0.623
732.78	0.627
732.97	0.645
733.15	0.653
733.33	0.643
733.52	0.650
733.70	0.659
733.88	0.668
734.07	0.653
734.25	0.678
734.43	0.685
734.62	0.688
734.80	0.684
734.98	0.674
735.17	0.678
735.35	0.682
735.53	0.671
735.72	0.673
735.90	0.694
736.08	0.713
736.27	0.691
736.45	0.700
736.63	0.710
736.82	0.718
737.00	0.719
737.18	0.730
737.37	0.759
737.55	0.782
737.73	0.777
737.92	0.777
738.10	0.772
738.28	0.791
738.46	0.780
738.65	0.793
738.83	0.812
739.01	0.863
739.20	0.854
739.38	0.839
739.56	0.829
739.75	0.834
739.93	0.807
740.11	0.832
740.29	0.829
740.48	0.833
740.66	0.812
740.84	0.809
741.03	0.774
741.21	0.783
741.39	0.765
741.57	0.780
741.76	0.793
741.94	0.797
742.12	0.763
742.31	0.767
742.49	0.788
742.67	0.812
742.85	0.827
743.04	0.830
743.22	0.840
743.40	0.890
743.58	0.870
743.77	0.887
743.95	0.919
744.13	0.966
744.31	0.952
744.50	0.941
744.68	0.935
744.86	0.909
745.04	0.914
745.23	0.973
745.41	0.956
745.59	0.959
745.77	0.929
745.96	0.916
746.14	0.920
746.32	0.920
746.50	0.915
746.69	0.899
746.87	0.910
747.05	0.900
747.23	0.835
747.42	0.817
747.60	0.842
747.78	0.846
747.96	0.875
748.14	0.841
748.33	0.862
748.51	0.856
748.69	0.854
748.87	0.876
749.06	0.871
749.24	0.868
749.42	0.860
749.60	0.841
749.78	0.846
749.97	0.805
750.15	0.796
750.33	0.799
750.51	0.822
750.69	0.825
750.88	0.830
751.06	0.838
751.24	0.860
751.42	0.853
751.60	0.847
751.79	0.911
751.97	0.950
752.15	0.949
752.33	0.922
752.51	0.974
752.69	0.992
752.88	0.962
753.06	1.007
753.24	0.981
753.42	1.009
753.60	1.156
753.78	1.033
753.97	1.050
754.15	1.063
754.33	1.085
754.51	0.984
754.69	0.964
754.87	0.986
755.06	0.923
755.24	0.933
755.42	0.940
755.60	0.847
755.78	0.858
755.96	0.812
756.15	0.815
756.33	0.822
756.51	0.837
756.69	0.830
756.87	0.800
757.05	0.821
757.23	0.805
757.42	0.776
757.60	0.776
757.78	0.766
757.96	0.761
758.14	0.746
758.32	0.730
758.50	0.742
758.69	0.739
758.87	0.731
759.05	0.733
759.23	0.741
759.41	0.743
759.59	0.739
759.77	0.755
759.95	0.781
760.13	0.826
760.32	0.827
760.50	0.821
760.68	0.843
760.86	0.845
761.04	0.821
761.22	0.823
761.40	0.864
761.58	0.864
761.76	0.841
761.95	0.822
762.13	0.781
762.31	0.781
762.49	0.755
762.67	0.772
762.85	0.781
763.03	0.775
763.21	0.759
763.39	0.739
763.57	0.740
763.75	0.737
763.94	0.725
764.12	0.727
764.30	0.748
764.48	0.751
764.66	0.717
764.84	0.718
765.02	0.755
765.20	0.763
765.38	0.747
765.56	0.752
765.74	0.787
765.92	0.790
766.10	0.795
766.28	0.787
766.46	0.812
766.65	0.813
766.83	0.802
767.01	0.785
767.19	0.790
767.37	0.793
767.55	0.782
767.73	0.763
767.91	0.762
768.09	0.753
768.27	0.744
768.45	0.733
768.63	0.736
768.81	0.737
768.99	0.714
769.17	0.736
769.35	0.746
769.53	0.744
769.71	0.726
769.89	0.735
770.07	0.738
770.25	0.720
770.43	0.703
770.61	0.724
770.79	0.727
770.97	0.735
771.15	0.707
771.33	0.707
771.51	0.709
771.69	0.719
771.87	0.728
772.05	0.736
772.24	0.743
772.42	0.755
772.60	0.736
772.78	0.790
772.96	0.814
773.14	0.810
773.32	0.792
773.49	0.800
773.67	0.797
773.85	0.777
774.03	0.766
774.21	0.797
774.39	0.804
774.57	0.825
774.75	0.760
774.93	0.755
775.11	0.774
775.29	0.780
775.47	0.781
775.65	0.790
775.83	0.802
776.01	0.820
776.19	0.777
776.37	0.779
776.55	0.781
776.73	0.776
776.91	0.773
777.09	0.757
777.27	0.754
777.45	0.746
777.63	0.725
777.81	0.724
777.99	0.710
778.17	0.709
778.35	0.689
778.53	0.678
778.71	0.684
778.89	0.671
779.07	0.663
779.24	0.669
779.42	0.671
779.60	0.689
779.78	0.687
779.96	0.692
780.14	0.698
780.32	0.717
780.50	0.701
780.68	0.700
780.86	0.694
781.04	0.710
781.22	0.714
781.40	0.723
781.58	0.713
781.75	0.705
781.93	0.691
782.11	0.692
782.29	0.679
782.47	0.678
782.65	0.669
782.83	0.694
783.01	0.687
783.19	0.679
783.37	0.668
783.55	0.670
783.72	0.686
783.90	0.694
784.08	0.689
784.26	0.699
784.44	0.716
784.62	0.718
784.80	0.690
784.98	0.697
785.16	0.703
785.33	0.714
785.51	0.703
785.69	0.690
785.87	0.689
786.05	0.701
786.23	0.700
786.41	0.697
786.59	0.702
786.77	0.699
786.94	0.687
787.12	0.691
787.30	0.691
787.48	0.691
787.66	0.681
787.84	0.683
788.02	0.673
788.19	0.670
788.37	0.660
788.55	0.662
788.73	0.662
788.91	0.658
789.09	0.643
789.27	0.635
789.44	0.643
789.62	0.648
789.80	0.656
789.98	0.677
790.16	0.667
790.34	0.661
790.51	0.650
790.69	0.668
790.87	0.673
791.05	0.672
791.23	0.664
791.41	0.666
791.58	0.673
791.76	0.653
791.94	0.627
792.12	0.634
792.30	0.636
792.48	0.635
792.65	0.631
792.83	0.637
793.01	0.642
793.19	0.641
793.37	0.628
793.54	0.624
793.72	0.635
793.90	0.633
794.08	0.625
794.26	0.626
794.43	0.633
794.61	0.618
794.79	0.608
794.97	0.606
795.15	0.610
795.32	0.614
795.50	0.606
795.68	0.600
795.86	0.603
796.04	0.604
796.21	0.598
796.39	0.596
796.57	0.608
796.75	0.614
796.92	0.617
797.10	0.621
797.28	0.621
797.46	0.623
797.64	0.625
797.81	0.633
797.99	0.637
798.17	0.641
798.35	0.636
798.52	0.640
798.70	0.635
798.88	0.642
799.06	0.642
799.23	0.645
799.41	0.651
799.59	0.644
799.77	0.636
799.94	0.643
800.12	0.651
800.30	0.666
800.48	0.667
800.65	0.667
800.83	0.657
801.01	0.648
801.19	0.649
801.36	0.646
801.54	0.649
801.72	0.657
801.90	0.646
802.07	0.642
802.25	0.628
802.43	0.611
802.60	0.609
802.78	0.615
802.96	0.619
803.14	0.614
803.31	0.614
803.49	0.613
803.67	0.608
803.84	0.612
804.02	0.604
804.20	0.607
804.38	0.612
804.55	0.611
804.73	0.599
804.91	0.599
805.08	0.610
805.26	0.606
805.44	0.667
805.61	0.670
805.79	0.669
805.97	0.669
806.15	0.663
806.32	0.659
806.50	0.664
806.68	0.665
806.85	0.657
807.03	0.650
807.21	0.666
807.38	0.603
807.56	0.593
807.74	0.601
807.91	0.606
808.09	0.607
808.27	0.625
808.44	0.650
808.62	0.657
808.80	0.660
808.97	0.655
809.15	0.649
809.33	0.665
809.50	0.673
809.68	0.662
809.86	0.671
810.03	0.700
810.21	0.681
810.39	0.663
810.56	0.669
810.74	0.691
810.91	0.759
811.09	0.748
811.27	0.766
811.44	0.769
811.62	0.770
811.80	0.752
811.97	0.725
812.15	0.725
812.33	0.724
812.50	0.709
812.68	0.697
812.85	0.644
813.03	0.647
813.21	0.618
813.38	0.614
813.56	0.616
813.74	0.627
813.91	0.634
814.09	0.661
814.26	0.652
814.44	0.656
814.62	0.647
814.79	0.651
814.97	0.654
815.14	0.657
815.32	0.660
815.50	0.675
815.67	0.679
815.85	0.671
816.02	0.661
816.20	0.669
816.38	0.681
816.55	0.687
816.73	0.687
816.90	0.696
817.08	0.723
817.26	0.730
817.43	0.713
817.61	0.736
817.78	0.753
817.96	0.734
818.13	0.722
818.31	0.724
818.49	0.736
818.66	0.725
818.84	0.713
819.01	0.691
819.19	0.694
819.36	0.694
819.54	0.665
819.71	0.702
819.89	0.711
820.07	0.724
820.24	0.716
820.42	0.714
820.59	0.733
820.77	0.755
820.94	0.752
821.12	0.769
821.29	0.784
821.47	0.786
821.64	0.731
821.82	0.746
822.00	0.742
822.17	0.741
822.35	0.735
822.52	0.735
822.70	0.723
822.87	0.728
823.05	0.710
823.22	0.719
823.40	0.744
823.57	0.766
823.75	0.748
823.92	0.768
824.10	0.784
824.27	0.822
824.45	0.816
824.62	0.870
824.80	0.884
824.97	0.901
825.15	0.894
825.32	0.899
825.50	0.896
825.67	0.908
825.85	0.887
826.02	0.904
826.20	0.921
826.37	1.026
826.55	0.960
826.72	1.125
826.90	1.174
827.07	1.218
827.25	1.178
827.42	1.320
827.60	1.439
827.77	1.593
827.95	1.586
828.12	1.646
828.30	1.363
828.47	1.469
828.65	1.158
828.82	1.197
829.00	1.255
829.17	1.349
829.34	1.349
829.52	1.385
829.69	-0.000
829.87	-0.000
830.04	-0.000
830.22	-0.000
830.39	-0.000
830.57	-0.000
830.74	-0.000
830.92	-0.000
831.09	-0.000
831.26	-0.000
831.44	-0.000
831.61	-0.000
831.79	-0.000
831.96	-0.000
832.14	-0.000
832.31	-0.000
832.49	-0.000
832.66	-0.000
832.83	-0.000
833.01	-0.000
833.18	-0.000
833.36	-0.000
833.53	-0.000
833.70	-0.000
833.88	-0.000
834.05	-0.000
834.23	-0.000
834.40	-0.000
834.58	-0.000
834.75	-0.000
834.92	-0.000
835.10	-0.000
835.27	-0.000
835.45	-0.000
835.62	-0.000
835.79	-0.000
835.97	-0.000
836.14	-0.000
836.32	-0.000
836.49	-0.000
836.66	-0.000
836.84	-0.000
837.01	-0.000
837.18	-0.000
837.36	-0.000
837.53	-0.000
837.71	-0.000
837.88	-0.000
838.05	-0.000
838.23	-0.000
838.40	-0.000
838.58	-0.000
838.75	-0.000
838.92	-0.000
839.10	-0.000
839.27	-0.000
839.44	-0.000
839.62	-0.000
839.79	-0.000
839.96	-0.000
840.14	-0.000
840.31	-0.000
840.48	-0.000
840.66	-0.000
840.83	-0.000
841.01	-0.000
841.18	-0.000
841.35	-0.000
841.53	-0.000
841.70	-0.000
841.87	-0.000
842.05	-0.000
842.22	-0.000
842.39	-0.000
842.57	-0.000
842.74	-0.000
842.91	-0.000
843.09	-0.000
843.26	-0.000
843.43	-0.000
843.60	-0.000
843.78	-0.000
843.95	-0.000
844.12	-0.000
844.30	-0.000
844.47	-0.000
844.64	-0.000
844.82	-0.000
844.99	-0.000
845.16	-0.000
845.34	-0.000
845.51	-0.000
845.68	-0.000
845.85	-0.000
846.03	-0.000
846.20	-0.000
846.37	-0.000
846.55	-0.000
846.72	-0.000
846.89	-0.000
847.06	-0.000
847.24	-0.000
847.41	-0.000
847.58	-0.000
847.76	-0.000
847.93	-0.000
848.10	-0.000
848.27	-0.000
848.45	-0.000
848.62	-0.000
848.79	-0.000
848.97	-0.000
849.14	-0.000
849.31	-0.000
849.48	-0.000
849.66	-0.000
849.83	-0.000
850.00	-0.000
850.17	-0.000
850.35	-0.000
850.52	-0.000
850.69	-0.000
850.86	-0.000
851.04	-0.000
851.21	-0.000
851.38	-0.000
851.55	-0.000
851.72	-0.000
851.90	-0.000
852.07	-0.000
852.24	-0.000
852.41	-0.000
852.59	-0.000
852.76	-0.000
852.93	-0.000
853.10	-0.000
853.28	-0.000
853.45	-0.000
853.62	-0.000
853.79	-0.000
853.96	-0.000
854.14	-0.000
854.31	-0.000
854.48	-0.000
854.65	-0.000
854.82	-0.000
855.00	-0.000
855.17	-0.000
855.34	-0.000
855.51	-0.000
855.68	-0.000
855.86	-0.000
856.03	-0.000
856.20	-0.000
856.37	-0.000
856.54	-0.000
856.72	-0.000
856.89	-0.000
857.06	-0.000
857.23	-0.000
857.40	-0.000
857.57	-0.000
857.75	-0.000
857.92	-0.000
858.09	-0.000
858.26	-0.000
858.43	-0.000
858.60	-0.000
858.78	-0.000
858.95	-0.000
859.12	-0.000
859.29	-0.000
859.46	-0.000
859.63	-0.000
859.81	-0.000
859.98	-0.000
860.15	-0.000
860.32	-0.000
860.49	-0.000
860.66	-0.000
860.83	-0.000
861.01	-0.000
861.18	-0.000
861.35	-0.000
861.52	-0.000
861.69	-0.000
861.86	-0.000
862.03	-0.000
862.21	-0.000
862.38	-0.000
862.55	-0.000
862.72	-0.000
862.89	-0.000
863.06	-0.000
863.23	-0.000
863.40	-0.000
863.58	-0.000
863.75	-0.000
863.92	-0.000
864.09	-0.000
864.26	-0.000
864.43	-0.000
864.60	-0.000
864.77	-0.000
864.94	-0.000
865.11	-0.000
865.29	-0.000
865.46	-0.000
865.63	-0.000
865.80	-0.000
865.97	-0.000
866.14	-0.000
866.31	-0.000
866.48	-0.000
866.65	-0.000
866.82	-0.000
866.99	-0.000
867.16	-0.000
867.34	-0.000
867.51	-0.000
867.68	-0.000
867.85	-0.000
868.02	-0.000
868.19	-0.000
868.36	-0.000
868.53	-0.000
868.70	-0.000
868.87	-0.000
869.04	-0.000
869.21	-0.000
869.38	-0.000
869.55	-0.000
869.72	-0.000
869.89	-0.000
870.06	-0.000
870.24	-0.000
870.41	-0.000
870.58	-0.000
870.75	-0.000
870.92	-0.000
871.09	-0.000
871.26	-0.000
871.43	-0.000
871.60	-0.000
871.77	-0.000
871.94	-0.000
872.11	-0.000
872.28	-0.000
872.45	-0.000
872.62	-0.000
872.79	-0.000
872.96	-0.000
873.13	-0.000
873.30	-0.000
873.47	-0.000
873.64	-0.000
873.81	-0.000
873.98	-0.000
874.15	-0.000
874.32	-0.000
874.49	-0.000
874.66	-0.000
874.83	-0.000
875.00	-0.000
875.17	-0.000
875.34	-0.000
875.51	-0.000
875.68	-0.000
875.85	-0.000
876.02	-0.000
876.19	-0.000
876.36	-0.000
876.53	-0.000
876.70	-0.000
876.87	-0.000
877.04	-0.000
877.21	-0.000
877.38	-0.000
877.55	-0.000
877.72	-0.000
877.89	-0.000
878.06	-0.000
878.23	-0.000
878.39	-0.000
878.56	-0.000
878.73	-0.000
878.90	-0.000
879.07	-0.000
879.24	-0.000
879.41	-0.000
879.58	-0.000
879.75	-0.000
879.92	-0.000
880.09	-0.000
880.26	-0.000
880.43	-0.000
880.60	-0.000
880.77	-0.000
880.94	-0.000
881.11	-0.000
881.27	-0.000
881.44	-0.000
881.61	-0.000
881.78	-0.000
881.95	-0.000
882.12	-0.000
882.29	-0.000
882.46	-0.000
882.63	-0.000
882.80	-0.000
882.97	-0.000
883.14	-0.000
883.30	-0.000
883.47	-0.000
883.64	-0.000
883.81	-0.000
883.98	-0.000
884.15	-0.000
884.32	-0.000
884.49	-0.000
884.66	-0.000
884.82	-0.000
884.99	-0.000
885.16	-0.000
885.33	-0.000
885.50	-0.000
885.67	-0.000
885.84	-0.000
886.01	-0.000
886.17	-0.000
886.34	-0.000
886.51	-0.000
886.68	-0.000
886.85	-0.000
887.02	-0.000
887.19	-0.000
887.36	-0.000
887.52	-0.000
887.69	-0.000
887.86	-0.000
888.03	-0.000
888.20	-0.000
888.37	-0.000
888.54	-0.000
888.70	-0.000
888.87	-0.000
889.04	-0.000
889.21	-0.000
889.38	-0.000
889.55	-0.000
889.71	-0.000
889.88	-0.000
890.05	-0.000
890.22	-0.000
890.39	-0.000
>>>>>End Processed Spectral Data<<<<<
