SpectraSuite Data File
++++++++++++++++++++++++++++++++++++
Date: Fri Jun 19 13:15:15 CEST 2015
User: introlabs
Dark Spectrum Present: Yes
Reference Spectrum Present: Yes
Number of Sampled Component Spectra: 1
Spectrometers: USB4H08886
Integration Time (usec): 745692 (USB4H08886)
Spectra Averaged: 5 (USB4H08886)
Boxcar Smoothing: 5 (USB4H08886)
Correct for Electrical Dark: Yes (USB4H08886)
Strobe/Lamp Enabled: No (USB4H08886)
Correct for Detector Non-linearity: Yes (USB4H08886)
Correct for Stray Light: Yes (USB4H08886)
Number of Pixels in Processed Spectrum: 3648
>>>>>Begin Processed Spectral Data<<<<<
178.14	-0.000
178.36	-0.000
178.57	-0.000
178.79	-0.000
179.01	-0.000
179.22	-0.000
179.44	-0.000
179.65	-0.000
179.87	-0.000
180.08	-0.000
180.30	-0.000
180.52	-0.000
180.73	-0.000
180.95	-0.000
181.16	-0.000
181.38	-0.000
181.59	-0.000
181.81	-0.000
182.03	-0.000
182.24	-0.000
182.46	-0.000
182.67	-0.000
182.89	-0.000
183.10	-0.000
183.32	-0.000
183.54	-0.000
183.75	-0.000
183.97	-0.000
184.18	-0.000
184.40	-0.000
184.61	-0.000
184.83	-0.000
185.04	-0.000
185.26	-0.000
185.48	-0.000
185.69	-0.000
185.91	-0.000
186.12	-0.000
186.34	-0.000
186.55	-0.000
186.77	-0.000
186.98	-0.000
187.20	-0.000
187.42	-0.000
187.63	-0.000
187.85	-0.000
188.06	-0.000
188.28	-0.000
188.49	-0.000
188.71	-0.000
188.92	-0.000
189.14	-0.000
189.36	-0.000
189.57	-0.000
189.79	-0.000
190.00	-0.000
190.22	-0.000
190.43	-0.000
190.65	-0.000
190.86	-0.000
191.08	-0.000
191.29	-0.000
191.51	-0.000
191.72	-0.000
191.94	-0.000
192.16	-0.000
192.37	-0.000
192.59	-0.000
192.80	-0.000
193.02	-0.000
193.23	-0.000
193.45	-0.000
193.66	-0.000
193.88	-0.000
194.09	-0.000
194.31	-0.000
194.52	-0.000
194.74	-0.000
194.95	-0.000
195.17	-0.000
195.38	-0.000
195.60	-0.000
195.81	-0.000
196.03	-0.000
196.25	-0.000
196.46	-0.000
196.68	-0.000
196.89	-0.000
197.11	-0.000
197.32	-0.000
197.54	-0.000
197.75	-0.000
197.97	-0.000
198.18	-0.000
198.40	-0.000
198.61	-0.000
198.83	-0.000
199.04	-0.000
199.26	-0.000
199.47	-0.000
199.69	-0.000
199.90	-0.000
200.12	-0.000
200.33	-0.000
200.55	-0.000
200.76	-0.000
200.98	-0.000
201.19	-0.000
201.41	-0.000
201.62	-0.000
201.84	-0.000
202.05	-0.000
202.27	-0.000
202.48	-0.000
202.70	-0.000
202.91	-0.000
203.13	-0.000
203.34	-0.000
203.56	-0.000
203.77	-0.000
203.99	-0.000
204.20	-0.000
204.42	-0.000
204.63	-0.000
204.85	-0.000
205.06	-0.000
205.28	-0.000
205.49	-0.000
205.71	-0.000
205.92	-0.000
206.14	-0.000
206.35	-0.000
206.56	-0.000
206.78	-0.000
206.99	-0.000
207.21	-0.000
207.42	-0.000
207.64	-0.000
207.85	-0.000
208.07	-0.000
208.28	-0.000
208.50	-0.000
208.71	-0.000
208.93	-0.000
209.14	-0.000
209.36	-0.000
209.57	-0.000
209.79	-0.000
210.00	-0.000
210.22	-0.000
210.43	-0.000
210.64	-0.000
210.86	-0.000
211.07	-0.000
211.29	-0.000
211.50	-0.000
211.72	-0.000
211.93	-0.000
212.15	-0.000
212.36	-0.000
212.58	-0.000
212.79	-0.000
213.01	-0.000
213.22	-0.000
213.43	-0.000
213.65	-0.000
213.86	-0.000
214.08	-0.000
214.29	-0.000
214.51	-0.000
214.72	-0.000
214.94	-0.000
215.15	-0.000
215.36	-0.000
215.58	-0.000
215.79	-0.000
216.01	-0.000
216.22	-0.000
216.44	-0.000
216.65	-0.000
216.87	-0.000
217.08	-0.000
217.29	-0.000
217.51	-0.000
217.72	-0.000
217.94	-0.000
218.15	-0.000
218.37	-0.000
218.58	-0.000
218.80	-0.000
219.01	-0.000
219.22	-0.000
219.44	-0.000
219.65	-0.000
219.87	-0.000
220.08	-0.000
220.30	-0.000
220.51	-0.000
220.72	-0.000
220.94	-0.000
221.15	-0.000
221.37	-0.000
221.58	-0.000
221.79	-0.000
222.01	-0.000
222.22	-0.000
222.44	-0.000
222.65	-0.000
222.87	-0.000
223.08	-0.000
223.29	-0.000
223.51	-0.000
223.72	-0.000
223.94	-0.000
224.15	-0.000
224.36	-0.000
224.58	-0.000
224.79	-0.000
225.01	-0.000
225.22	-0.000
225.44	-0.000
225.65	-0.000
225.86	-0.000
226.08	-0.000
226.29	-0.000
226.51	-0.000
226.72	-0.000
226.93	-0.000
227.15	-0.000
227.36	-0.000
227.58	-0.000
227.79	-0.000
228.00	-0.000
228.22	-0.000
228.43	-0.000
228.65	-0.000
228.86	-0.000
229.07	-0.000
229.29	-0.000
229.50	-0.000
229.72	-0.000
229.93	-0.000
230.14	-0.000
230.36	-0.000
230.57	-0.000
230.78	-0.000
231.00	-0.000
231.21	-0.000
231.43	-0.000
231.64	-0.000
231.85	-0.000
232.07	-0.000
232.28	-0.000
232.50	-0.000
232.71	-0.000
232.92	-0.000
233.14	-0.000
233.35	-0.000
233.56	-0.000
233.78	-0.000
233.99	-0.000
234.21	-0.000
234.42	-0.000
234.63	-0.000
234.85	-0.000
235.06	-0.000
235.27	-0.000
235.49	-0.000
235.70	-0.000
235.91	-0.000
236.13	-0.000
236.34	-0.000
236.56	-0.000
236.77	-0.000
236.98	-0.000
237.20	-0.000
237.41	-0.000
237.62	-0.000
237.84	-0.000
238.05	-0.000
238.26	-0.000
238.48	-0.000
238.69	-0.000
238.91	-0.000
239.12	-0.000
239.33	-0.000
239.55	-0.000
239.76	-0.000
239.97	-0.000
240.19	-0.000
240.40	-0.000
240.61	-0.000
240.83	-0.000
241.04	-0.000
241.25	-0.000
241.47	-0.000
241.68	-0.000
241.89	-0.000
242.11	-0.000
242.32	-0.000
242.53	-0.000
242.75	-0.000
242.96	-0.000
243.17	-0.000
243.39	-0.000
243.60	-0.000
243.81	-0.000
244.03	-0.000
244.24	-0.000
244.45	-0.000
244.67	-0.000
244.88	-0.000
245.09	-0.000
245.31	-0.000
245.52	-0.000
245.73	-0.000
245.95	-0.000
246.16	-0.000
246.37	-0.000
246.59	-0.000
246.80	-0.000
247.01	-0.000
247.23	-0.000
247.44	-0.000
247.65	-0.000
247.87	-0.000
248.08	-0.000
248.29	-0.000
248.51	-0.000
248.72	-0.000
248.93	-0.000
249.15	-0.000
249.36	-0.000
249.57	-0.000
249.78	-0.000
250.00	-0.000
250.21	-0.000
250.42	-0.000
250.64	-0.000
250.85	-0.000
251.06	-0.000
251.28	-0.000
251.49	-0.000
251.70	-0.000
251.92	-0.000
252.13	-0.000
252.34	-0.000
252.55	-0.000
252.77	-0.000
252.98	-0.000
253.19	-0.000
253.41	-0.000
253.62	-0.000
253.83	-0.000
254.05	-0.000
254.26	-0.000
254.47	-0.000
254.68	-0.000
254.90	-0.000
255.11	-0.000
255.32	-0.000
255.54	-0.000
255.75	-0.000
255.96	-0.000
256.17	-0.000
256.39	-0.000
256.60	-0.000
256.81	-0.000
257.03	-0.000
257.24	-0.000
257.45	-0.000
257.66	-0.000
257.88	-0.000
258.09	-0.000
258.30	-0.000
258.51	-0.000
258.73	-0.000
258.94	-0.000
259.15	-0.000
259.37	-0.000
259.58	-0.000
259.79	-0.000
260.00	-0.000
260.22	-0.000
260.43	-0.000
260.64	-0.000
260.85	-0.000
261.07	-0.000
261.28	-0.000
261.49	-0.000
261.71	-0.000
261.92	-0.000
262.13	-0.000
262.34	-0.000
262.56	-0.000
262.77	-0.000
262.98	-0.000
263.19	-0.000
263.41	-0.000
263.62	-0.000
263.83	-0.000
264.04	-0.000
264.26	-0.000
264.47	-0.000
264.68	-0.000
264.89	-0.000
265.11	-0.000
265.32	-0.000
265.53	-0.000
265.74	-0.000
265.96	-0.000
266.17	-0.000
266.38	-0.000
266.59	-0.000
266.81	-0.000
267.02	-0.000
267.23	-0.000
267.44	-0.000
267.65	-0.000
267.87	-0.000
268.08	-0.000
268.29	-0.000
268.50	-0.000
268.72	-0.000
268.93	-0.000
269.14	-0.000
269.35	-0.000
269.57	-0.000
269.78	-0.000
269.99	-0.000
270.20	-0.000
270.41	-0.000
270.63	-0.000
270.84	-0.000
271.05	-0.000
271.26	-0.000
271.48	-0.000
271.69	-0.000
271.90	-0.000
272.11	-0.000
272.32	-0.000
272.54	-0.000
272.75	-0.000
272.96	-0.000
273.17	-0.000
273.39	-0.000
273.60	-0.000
273.81	-0.000
274.02	-0.000
274.23	-0.000
274.45	-0.000
274.66	-0.000
274.87	-0.000
275.08	-0.000
275.29	-0.000
275.51	-0.000
275.72	-0.000
275.93	-0.000
276.14	-0.000
276.35	-0.000
276.57	-0.000
276.78	-0.000
276.99	-0.000
277.20	-0.000
277.41	-0.000
277.63	-0.000
277.84	-0.000
278.05	-0.000
278.26	-0.000
278.47	-0.000
278.69	-0.000
278.90	-0.000
279.11	-0.000
279.32	-0.000
279.53	-0.000
279.74	-0.000
279.96	-0.000
280.17	-0.000
280.38	-0.000
280.59	-0.000
280.80	-0.000
281.02	-0.000
281.23	-0.000
281.44	-0.000
281.65	-0.000
281.86	-0.000
282.07	-0.000
282.29	-0.000
282.50	-0.000
282.71	-0.000
282.92	-0.000
283.13	-0.000
283.35	-0.000
283.56	-0.000
283.77	-0.000
283.98	-0.000
284.19	-0.000
284.40	-0.000
284.62	-0.000
284.83	-0.000
285.04	-0.000
285.25	-0.000
285.46	-0.000
285.67	-0.000
285.88	-0.000
286.10	-0.000
286.31	-0.000
286.52	-0.000
286.73	-0.000
286.94	-0.000
287.15	-0.000
287.37	-0.000
287.58	-0.000
287.79	-0.000
288.00	-0.000
288.21	-0.000
288.42	-0.000
288.63	-0.000
288.85	-0.000
289.06	-0.000
289.27	-0.000
289.48	-0.000
289.69	-0.000
289.90	-0.000
290.11	-0.000
290.33	-0.000
290.54	-0.000
290.75	-0.000
290.96	-0.000
291.17	-0.000
291.38	-0.000
291.59	-0.000
291.81	-0.000
292.02	-0.000
292.23	-0.000
292.44	-0.000
292.65	-0.000
292.86	-0.000
293.07	-0.000
293.28	-0.000
293.50	-0.000
293.71	-0.000
293.92	-0.000
294.13	-0.000
294.34	-0.000
294.55	-0.000
294.76	-0.000
294.97	-0.000
295.19	-0.000
295.40	-0.000
295.61	-0.000
295.82	-0.000
296.03	-0.000
296.24	-0.000
296.45	-0.000
296.66	-0.000
296.87	-0.000
297.09	-0.000
297.30	-0.000
297.51	-0.000
297.72	2.833
297.93	-0.000
298.14	-0.000
298.35	2.771
298.56	2.447
298.77	-0.000
298.99	-0.000
299.20	3.031
299.41	2.582
299.62	2.360
299.83	2.289
300.04	2.038
300.25	1.997
300.46	2.168
300.67	2.073
300.88	1.922
301.10	1.906
301.31	2.087
301.52	1.917
301.73	1.792
301.94	1.785
302.15	1.815
302.36	1.731
302.57	1.622
302.78	1.631
302.99	1.703
303.20	1.747
303.41	1.591
303.63	1.570
303.84	1.589
304.05	1.580
304.26	1.482
304.47	1.492
304.68	1.496
304.89	1.480
305.10	1.417
305.31	1.396
305.52	1.448
305.73	1.438
305.94	1.377
306.15	1.363
306.37	1.388
306.58	1.398
306.79	1.351
307.00	1.375
307.21	1.429
307.42	1.418
307.63	1.368
307.84	1.327
308.05	1.374
308.26	1.379
308.47	1.349
308.68	1.343
308.89	1.345
309.10	1.341
309.31	1.291
309.52	1.277
309.73	1.297
309.95	1.292
310.16	1.256
310.37	1.243
310.58	1.264
310.79	1.261
311.00	1.254
311.21	1.256
311.42	1.260
311.63	1.256
311.84	1.229
312.05	1.226
312.26	1.254
312.47	1.267
312.68	1.236
312.89	1.214
313.10	1.223
313.31	1.192
313.52	1.193
313.73	1.192
313.94	1.196
314.15	1.176
314.36	1.151
314.57	1.141
314.78	1.127
314.99	1.121
315.21	1.107
315.42	1.111
315.63	1.128
315.84	1.102
316.05	1.085
316.26	1.093
316.47	1.115
316.68	1.111
316.89	1.089
317.10	1.112
317.31	1.120
317.52	1.122
317.73	1.097
317.94	1.095
318.15	1.144
318.36	1.144
318.57	1.124
318.78	1.109
318.99	1.150
319.20	1.149
319.41	1.110
319.62	1.110
319.83	1.122
320.04	1.113
320.25	1.099
320.46	1.062
320.67	1.063
320.88	1.059
321.09	1.043
321.30	1.026
321.51	1.042
321.72	1.040
321.93	1.021
322.14	1.014
322.35	1.046
322.56	1.045
322.77	1.031
322.98	1.044
323.19	1.052
323.40	1.058
323.61	1.034
323.82	1.027
324.03	1.033
324.24	1.031
324.45	1.016
324.66	0.996
324.87	0.994
325.08	0.993
325.29	0.974
325.50	0.971
325.71	0.977
325.92	0.986
326.13	0.971
326.34	0.972
326.55	0.982
326.76	0.980
326.97	0.967
327.18	0.962
327.39	0.989
327.60	0.989
327.80	0.985
328.01	0.983
328.22	0.984
328.43	0.988
328.64	0.974
328.85	0.977
329.06	0.981
329.27	0.981
329.48	0.974
329.69	0.954
329.90	0.966
330.11	0.958
330.32	0.950
330.53	0.941
330.74	0.942
330.95	0.941
331.16	0.925
331.37	0.932
331.58	0.931
331.79	0.931
332.00	0.921
332.21	0.914
332.42	0.918
332.63	0.908
332.83	0.903
333.04	0.906
333.25	0.918
333.46	0.916
333.67	0.902
333.88	0.905
334.09	0.916
334.30	0.912
334.51	0.902
334.72	0.899
334.93	0.904
335.14	0.904
335.35	0.894
335.56	0.889
335.77	0.899
335.98	0.896
336.18	0.889
336.39	0.882
336.60	0.888
336.81	0.886
337.02	0.884
337.23	0.889
337.44	0.893
337.65	0.894
337.86	0.883
338.07	0.878
338.28	0.883
338.49	0.881
338.70	0.873
338.91	0.880
339.11	0.887
339.32	0.883
339.53	0.870
339.74	0.867
339.95	0.864
340.16	0.863
340.37	0.854
340.58	0.852
340.79	0.856
341.00	0.856
341.21	0.843
341.41	0.846
341.62	0.848
341.83	0.848
342.04	0.843
342.25	0.854
342.46	0.859
342.67	0.859
342.88	0.852
343.09	0.851
343.30	0.858
343.50	0.861
343.71	0.849
343.92	0.847
344.13	0.852
344.34	0.851
344.55	0.835
344.76	0.834
344.97	0.838
345.18	0.837
345.38	0.834
345.59	0.829
345.80	0.830
346.01	0.828
346.22	0.823
346.43	0.816
346.64	0.825
346.85	0.825
347.06	0.817
347.26	0.817
347.47	0.821
347.68	0.816
347.89	0.812
348.10	0.807
348.31	0.814
348.52	0.813
348.73	0.812
348.93	0.808
349.14	0.811
349.35	0.810
349.56	0.804
349.77	0.800
349.98	0.806
350.19	0.803
350.39	0.798
350.60	0.794
350.81	0.810
351.02	0.809
351.23	0.804
351.44	0.807
351.65	0.810
351.86	0.808
352.06	0.806
352.27	0.805
352.48	0.808
352.69	0.808
352.90	0.802
353.11	0.787
353.31	0.794
353.52	0.790
353.73	0.782
353.94	0.783
354.15	0.789
354.36	0.790
354.57	0.781
354.77	0.782
354.98	0.782
355.19	0.781
355.40	0.780
355.61	0.787
355.82	0.792
356.02	0.791
356.23	0.784
356.44	0.785
356.65	0.789
356.86	0.789
357.07	0.782
357.27	0.784
357.48	0.788
357.69	0.783
357.90	0.767
358.11	0.764
358.32	0.768
358.52	0.771
358.73	0.762
358.94	0.763
359.15	0.769
359.36	0.769
359.56	0.764
359.77	0.762
359.98	0.769
360.19	0.768
360.40	0.765
360.61	0.765
360.81	0.764
361.02	0.764
361.23	0.756
361.44	0.754
361.65	0.755
361.85	0.755
362.06	0.751
362.27	0.754
362.48	0.754
362.69	0.756
362.89	0.749
363.10	0.751
363.31	0.756
363.52	0.759
363.73	0.754
363.93	0.755
364.14	0.757
364.35	0.759
364.56	0.749
364.77	0.751
364.97	0.755
365.18	0.756
365.39	0.750
365.60	0.746
365.81	0.747
366.01	0.747
366.22	0.743
366.43	0.743
366.64	0.745
366.84	0.751
367.05	0.747
367.26	0.746
367.47	0.748
367.68	0.748
367.88	0.745
368.09	0.742
368.30	0.745
368.51	0.745
368.71	0.743
368.92	0.747
369.13	0.746
369.34	0.745
369.55	0.743
369.75	0.744
369.96	0.750
370.17	0.750
370.38	0.746
370.58	0.745
370.79	0.751
371.00	0.750
371.21	0.741
371.41	0.745
371.62	0.749
371.83	0.744
372.04	0.742
372.24	0.735
372.45	0.736
372.66	0.736
372.87	0.734
373.07	0.730
373.28	0.731
373.49	0.734
373.70	0.726
373.90	0.725
374.11	0.735
374.32	0.735
374.53	0.735
374.73	0.735
374.94	0.738
375.15	0.738
375.36	0.735
375.56	0.744
375.77	0.744
375.98	0.743
376.19	0.739
376.39	0.731
376.60	0.735
376.81	0.735
377.02	0.732
377.22	0.731
377.43	0.731
377.64	0.731
377.84	0.722
378.05	0.727
378.26	0.733
378.47	0.734
378.67	0.731
378.88	0.728
379.09	0.729
379.30	0.730
379.50	0.727
379.71	0.730
379.92	0.733
380.12	0.731
380.33	0.722
380.54	0.719
380.75	0.725
380.95	0.725
381.16	0.723
381.37	0.724
381.57	0.726
381.78	0.725
381.99	0.724
382.20	0.723
382.40	0.727
382.61	0.727
382.82	0.723
383.02	0.717
383.23	0.720
383.44	0.720
383.64	0.717
383.85	0.719
384.06	0.723
384.27	0.721
384.47	0.719
384.68	0.720
384.89	0.726
385.09	0.725
385.30	0.724
385.51	0.723
385.71	0.727
385.92	0.727
386.13	0.725
386.33	0.727
386.54	0.727
386.75	0.726
386.95	0.722
387.16	0.717
387.37	0.719
387.58	0.719
387.78	0.717
387.99	0.714
388.20	0.716
388.40	0.713
388.61	0.708
388.82	0.711
389.02	0.714
389.23	0.714
389.44	0.712
389.64	0.712
389.85	0.724
390.06	0.723
390.26	0.724
390.47	0.723
390.68	0.726
390.88	0.724
391.09	0.720
391.30	0.718
391.50	0.718
391.71	0.719
391.92	0.716
392.12	0.708
392.33	0.708
392.53	0.708
392.74	0.707
392.95	0.707
393.15	0.710
393.36	0.711
393.57	0.709
393.77	0.711
393.98	0.713
394.19	0.713
394.39	0.711
394.60	0.713
394.81	0.715
395.01	0.713
395.22	0.710
395.43	0.711
395.63	0.716
395.84	0.717
396.04	0.713
396.25	0.714
396.46	0.716
396.66	0.714
396.87	0.711
397.08	0.708
397.28	0.709
397.49	0.711
397.69	0.707
397.90	0.702
398.11	0.703
398.31	0.704
398.52	0.699
398.73	0.701
398.93	0.700
399.14	0.699
399.34	0.698
399.55	0.699
399.76	0.700
399.96	0.700
400.17	0.699
400.37	0.697
400.58	0.705
400.79	0.706
400.99	0.703
401.20	0.709
401.41	0.711
401.61	0.712
401.82	0.717
402.02	0.716
402.23	0.717
402.44	0.716
402.64	0.715
402.85	0.710
403.05	0.709
403.26	0.707
403.47	0.701
403.67	0.699
403.88	0.700
404.08	0.694
404.29	0.693
404.50	0.693
404.70	0.694
404.91	0.693
405.11	0.690
405.32	0.691
405.52	0.692
405.73	0.691
405.94	0.689
406.14	0.692
406.35	0.694
406.55	0.693
406.76	0.690
406.97	0.691
407.17	0.693
407.38	0.693
407.58	0.691
407.79	0.693
407.99	0.696
408.20	0.696
408.41	0.692
408.61	0.690
408.82	0.691
409.02	0.691
409.23	0.688
409.43	0.687
409.64	0.689
409.84	0.689
410.05	0.685
410.26	0.684
410.46	0.683
410.67	0.683
410.87	0.684
411.08	0.685
411.28	0.687
411.49	0.688
411.69	0.686
411.90	0.687
412.11	0.689
412.31	0.690
412.52	0.687
412.72	0.688
412.93	0.690
413.13	0.689
413.34	0.686
413.54	0.687
413.75	0.689
413.95	0.689
414.16	0.686
414.37	0.689
414.57	0.689
414.78	0.692
414.98	0.690
415.19	0.691
415.39	0.688
415.60	0.691
415.80	0.689
416.01	0.688
416.21	0.689
416.42	0.689
416.62	0.684
416.83	0.684
417.03	0.684
417.24	0.684
417.44	0.681
417.65	0.680
417.86	0.681
418.06	0.679
418.27	0.677
418.47	0.679
418.68	0.680
418.88	0.680
419.09	0.678
419.29	0.679
419.50	0.680
419.70	0.680
419.91	0.678
420.11	0.675
420.32	0.677
420.52	0.677
420.73	0.675
420.93	0.676
421.14	0.678
421.34	0.677
421.55	0.673
421.75	0.673
421.96	0.674
422.16	0.674
422.37	0.674
422.57	0.671
422.78	0.673
422.98	0.669
423.19	0.668
423.39	0.666
423.60	0.670
423.80	0.672
424.01	0.671
424.21	0.673
424.42	0.675
424.62	0.675
424.83	0.674
425.03	0.675
425.23	0.677
425.44	0.678
425.64	0.678
425.85	0.676
426.05	0.677
426.26	0.677
426.46	0.673
426.67	0.672
426.87	0.677
427.08	0.678
427.28	0.675
427.49	0.676
427.69	0.677
427.90	0.675
428.10	0.672
428.31	0.672
428.51	0.675
428.71	0.675
428.92	0.675
429.12	0.672
429.33	0.673
429.53	0.677
429.74	0.680
429.94	0.680
430.15	0.680
430.35	0.680
430.56	0.677
430.76	0.675
430.96	0.677
431.17	0.674
431.37	0.672
431.58	0.670
431.78	0.667
431.99	0.660
432.19	0.663
432.40	0.665
432.60	0.666
432.80	0.668
433.01	0.666
433.21	0.666
433.42	0.669
433.62	0.669
433.83	0.669
434.03	0.672
434.23	0.675
434.44	0.673
434.64	0.671
434.85	0.676
435.05	0.677
435.26	0.678
435.46	0.677
435.66	0.676
435.87	0.676
436.07	0.677
436.28	0.672
436.48	0.669
436.69	0.668
436.89	0.669
437.09	0.662
437.30	0.661
437.50	0.662
437.71	0.674
437.91	0.673
438.11	0.675
438.32	0.679
438.52	0.680
438.73	0.679
438.93	0.678
439.13	0.678
439.34	0.681
439.54	0.679
439.75	0.679
439.95	0.669
440.15	0.673
440.36	0.671
440.56	0.669
440.77	0.669
440.97	0.669
441.17	0.668
441.38	0.669
441.58	0.666
441.79	0.666
441.99	0.664
442.19	0.663
442.40	0.661
442.60	0.661
442.81	0.658
443.01	0.659
443.21	0.660
443.42	0.659
443.62	0.658
443.82	0.658
444.03	0.660
444.23	0.660
444.44	0.660
444.64	0.659
444.84	0.660
445.05	0.660
445.25	0.658
445.45	0.658
445.66	0.661
445.86	0.660
446.06	0.661
446.27	0.660
446.47	0.664
446.68	0.662
446.88	0.661
447.08	0.660
447.29	0.662
447.49	0.663
447.69	0.662
447.90	0.661
448.10	0.665
448.30	0.662
448.51	0.663
448.71	0.661
448.91	0.664
449.12	0.663
449.32	0.664
449.52	0.663
449.73	0.667
449.93	0.666
450.14	0.667
450.34	0.666
450.54	0.669
450.75	0.667
450.95	0.666
451.15	0.665
451.36	0.668
451.56	0.665
451.76	0.664
451.97	0.661
452.17	0.661
452.37	0.660
452.58	0.656
452.78	0.655
452.98	0.657
453.19	0.657
453.39	0.657
453.59	0.656
453.79	0.657
454.00	0.657
454.20	0.657
454.40	0.657
454.61	0.659
454.81	0.660
455.01	0.659
455.22	0.659
455.42	0.662
455.62	0.659
455.83	0.659
456.03	0.662
456.23	0.664
456.44	0.665
456.64	0.664
456.84	0.664
457.04	0.664
457.25	0.664
457.45	0.660
457.65	0.659
457.86	0.661
458.06	0.660
458.26	0.655
458.47	0.654
458.67	0.655
458.87	0.655
459.07	0.652
459.28	0.655
459.48	0.657
459.68	0.658
459.89	0.656
460.09	0.655
460.29	0.656
460.49	0.657
460.70	0.656
460.90	0.656
461.10	0.657
461.31	0.657
461.51	0.654
461.71	0.655
461.91	0.657
462.12	0.657
462.32	0.656
462.52	0.657
462.72	0.660
462.93	0.660
463.13	0.658
463.33	0.659
463.53	0.661
463.74	0.660
463.94	0.656
464.14	0.655
464.35	0.657
464.55	0.658
464.75	0.655
464.95	0.653
465.16	0.655
465.36	0.654
465.56	0.653
465.76	0.652
465.97	0.653
466.17	0.654
466.37	0.652
466.57	0.653
466.78	0.654
466.98	0.654
467.18	0.651
467.38	0.651
467.59	0.653
467.79	0.654
467.99	0.653
468.19	0.654
468.39	0.657
468.60	0.658
468.80	0.656
469.00	0.657
469.20	0.659
469.41	0.659
469.61	0.658
469.81	0.658
470.01	0.658
470.22	0.659
470.42	0.656
470.62	0.654
470.82	0.655
471.02	0.655
471.23	0.652
471.43	0.653
471.63	0.655
471.83	0.655
472.04	0.653
472.24	0.651
472.44	0.657
472.64	0.657
472.84	0.656
473.05	0.656
473.25	0.658
473.45	0.658
473.65	0.655
473.85	0.656
474.06	0.657
474.26	0.656
474.46	0.657
474.66	0.654
474.86	0.655
475.07	0.655
475.27	0.653
475.47	0.650
475.67	0.651
475.87	0.653
476.08	0.650
476.28	0.651
476.48	0.653
476.68	0.652
476.88	0.649
477.09	0.651
477.29	0.652
477.49	0.652
477.69	0.651
477.89	0.651
478.09	0.651
478.30	0.653
478.50	0.650
478.70	0.649
478.90	0.650
479.10	0.653
479.31	0.654
479.51	0.652
479.71	0.653
479.91	0.653
480.11	0.651
480.31	0.651
480.52	0.650
480.72	0.650
480.92	0.649
481.12	0.647
481.32	0.644
481.52	0.642
481.72	0.643
481.93	0.646
482.13	0.647
482.33	0.647
482.53	0.644
482.73	0.645
482.93	0.646
483.14	0.646
483.34	0.645
483.54	0.646
483.74	0.645
483.94	0.644
484.14	0.640
484.34	0.640
484.55	0.641
484.75	0.641
484.95	0.639
485.15	0.639
485.35	0.639
485.55	0.638
485.75	0.636
485.96	0.637
486.16	0.638
486.36	0.638
486.56	0.637
486.76	0.636
486.96	0.637
487.16	0.636
487.36	0.634
487.57	0.634
487.77	0.635
487.97	0.636
488.17	0.634
488.37	0.633
488.57	0.633
488.77	0.634
488.97	0.633
489.18	0.632
489.38	0.635
489.58	0.636
489.78	0.635
489.98	0.635
490.18	0.634
490.38	0.635
490.58	0.634
490.78	0.635
490.98	0.637
491.19	0.637
491.39	0.636
491.59	0.635
491.79	0.638
491.99	0.638
492.19	0.638
492.39	0.641
492.59	0.641
492.79	0.643
492.99	0.642
493.20	0.642
493.40	0.642
493.60	0.643
493.80	0.642
494.00	0.639
494.20	0.640
494.40	0.639
494.60	0.636
494.80	0.641
495.00	0.640
495.20	0.638
495.40	0.637
495.61	0.639
495.81	0.639
496.01	0.642
496.21	0.643
496.41	0.642
496.61	0.644
496.81	0.643
497.01	0.638
497.21	0.637
497.41	0.638
497.61	0.638
497.81	0.635
498.01	0.636
498.21	0.634
498.41	0.631
498.61	0.632
498.82	0.633
499.02	0.635
499.22	0.635
499.42	0.634
499.62	0.636
499.82	0.637
500.02	0.638
500.22	0.636
500.42	0.638
500.62	0.639
500.82	0.640
501.02	0.638
501.22	0.638
501.42	0.638
501.62	0.640
501.82	0.640
502.02	0.640
502.22	0.639
502.42	0.641
502.62	0.638
502.82	0.638
503.02	0.638
503.22	0.638
503.42	0.636
503.63	0.637
503.83	0.634
504.03	0.633
504.23	0.631
504.43	0.633
504.63	0.634
504.83	0.634
505.03	0.633
505.23	0.635
505.43	0.636
505.63	0.637
505.83	0.637
506.03	0.639
506.23	0.641
506.43	0.642
506.63	0.640
506.83	0.639
507.03	0.641
507.23	0.642
507.43	0.639
507.63	0.639
507.83	0.640
508.03	0.640
508.23	0.639
508.43	0.637
508.63	0.639
508.83	0.640
509.03	0.640
509.23	0.639
509.43	0.640
509.63	0.641
509.83	0.640
510.03	0.642
510.23	0.644
510.43	0.645
510.63	0.645
510.83	0.646
511.03	0.647
511.23	0.645
511.43	0.644
511.63	0.646
511.83	0.649
512.03	0.648
512.22	0.645
512.42	0.644
512.62	0.645
512.82	0.645
513.02	0.643
513.22	0.643
513.42	0.645
513.62	0.647
513.82	0.645
514.02	0.644
514.22	0.645
514.42	0.646
514.62	0.645
514.82	0.646
515.02	0.649
515.22	0.652
515.42	0.651
515.62	0.654
515.82	0.653
516.02	0.655
516.22	0.654
516.42	0.655
516.62	0.658
516.82	0.659
517.01	0.657
517.21	0.656
517.41	0.660
517.61	0.659
517.81	0.655
518.01	0.655
518.21	0.654
518.41	0.653
518.61	0.652
518.81	0.652
519.01	0.653
519.21	0.653
519.41	0.651
519.61	0.646
519.81	0.649
520.00	0.649
520.20	0.650
520.40	0.653
520.60	0.654
520.80	0.653
521.00	0.654
521.20	0.655
521.40	0.660
521.60	0.661
521.80	0.659
522.00	0.660
522.20	0.663
522.39	0.662
522.59	0.658
522.79	0.661
522.99	0.663
523.19	0.661
523.39	0.659
523.59	0.657
523.79	0.659
523.99	0.662
524.19	0.661
524.38	0.659
524.58	0.661
524.78	0.661
524.98	0.658
525.18	0.660
525.38	0.662
525.58	0.662
525.78	0.660
525.98	0.658
526.18	0.659
526.37	0.657
526.57	0.660
526.77	0.659
526.97	0.661
527.17	0.661
527.37	0.657
527.57	0.659
527.77	0.661
527.96	0.661
528.16	0.659
528.36	0.660
528.56	0.663
528.76	0.661
528.96	0.659
529.16	0.661
529.36	0.664
529.55	0.665
529.75	0.661
529.95	0.661
530.15	0.663
530.35	0.665
530.55	0.663
530.75	0.663
530.94	0.665
531.14	0.665
531.34	0.663
531.54	0.661
531.74	0.664
531.94	0.667
532.13	0.665
532.33	0.667
532.53	0.666
532.73	0.666
532.93	0.664
533.13	0.665
533.33	0.664
533.52	0.665
533.72	0.668
533.92	0.666
534.12	0.665
534.32	0.665
534.52	0.663
534.71	0.664
534.91	0.667
535.11	0.668
535.31	0.667
535.51	0.669
535.71	0.671
535.90	0.667
536.10	0.668
536.30	0.671
536.50	0.672
536.70	0.672
536.89	0.669
537.09	0.669
537.29	0.671
537.49	0.671
537.69	0.669
537.89	0.670
538.08	0.671
538.28	0.669
538.48	0.669
538.68	0.670
538.88	0.673
539.07	0.672
539.27	0.670
539.47	0.669
539.67	0.670
539.87	0.671
540.06	0.668
540.26	0.669
540.46	0.671
540.66	0.669
540.86	0.666
541.05	0.666
541.25	0.669
541.45	0.669
541.65	0.667
541.84	0.669
542.04	0.670
542.24	0.670
542.44	0.669
542.64	0.670
542.83	0.672
543.03	0.673
543.23	0.670
543.43	0.671
543.62	0.672
543.82	0.672
544.02	0.670
544.22	0.670
544.42	0.674
544.61	0.674
544.81	0.671
545.01	0.670
545.21	0.672
545.40	0.672
545.60	0.671
545.80	0.674
546.00	0.674
546.19	0.674
546.39	0.673
546.59	0.670
546.79	0.671
546.98	0.672
547.18	0.672
547.38	0.672
547.58	0.675
547.77	0.675
547.97	0.671
548.17	0.673
548.37	0.673
548.56	0.673
548.76	0.672
548.96	0.675
549.16	0.678
549.35	0.677
549.55	0.675
549.75	0.676
549.95	0.679
550.14	0.679
550.34	0.677
550.54	0.682
550.73	0.687
550.93	0.688
551.13	0.684
551.33	0.682
551.52	0.683
551.72	0.683
551.92	0.681
552.12	0.681
552.31	0.683
552.51	0.683
552.71	0.678
552.90	0.678
553.10	0.679
553.30	0.680
553.50	0.679
553.69	0.680
553.89	0.681
554.09	0.681
554.28	0.677
554.48	0.678
554.68	0.681
554.87	0.681
555.07	0.677
555.27	0.677
555.47	0.678
555.66	0.680
555.86	0.678
556.06	0.680
556.25	0.682
556.45	0.690
556.65	0.687
556.84	0.691
557.04	0.694
557.24	0.696
557.43	0.696
557.63	0.698
557.83	0.700
558.02	0.700
558.22	0.704
558.42	0.705
558.61	0.698
558.81	0.698
559.01	0.694
559.21	0.693
559.40	0.695
559.60	0.695
559.80	0.690
559.99	0.692
560.19	0.695
560.39	0.688
560.58	0.685
560.78	0.686
560.97	0.689
561.17	0.688
561.37	0.686
561.56	0.687
561.76	0.688
561.96	0.688
562.15	0.685
562.35	0.688
562.55	0.689
562.74	0.689
562.94	0.688
563.14	0.687
563.33	0.687
563.53	0.687
563.73	0.685
563.92	0.687
564.12	0.689
564.31	0.692
564.51	0.689
564.71	0.691
564.90	0.695
565.10	0.695
565.30	0.697
565.49	0.698
565.69	0.701
565.89	0.702
566.08	0.698
566.28	0.700
566.47	0.702
566.67	0.700
566.87	0.696
567.06	0.698
567.26	0.705
567.46	0.700
567.65	0.698
567.85	0.700
568.04	0.703
568.24	0.702
568.44	0.698
568.63	0.697
568.83	0.698
569.02	0.697
569.22	0.692
569.42	0.688
569.61	0.691
569.81	0.690
570.00	0.688
570.20	0.689
570.40	0.689
570.59	0.689
570.79	0.687
570.98	0.685
571.18	0.686
571.38	0.686
571.57	0.683
571.77	0.680
571.96	0.684
572.16	0.681
572.35	0.676
572.55	0.677
572.75	0.676
572.94	0.676
573.14	0.674
573.33	0.674
573.53	0.675
573.73	0.674
573.92	0.672
574.12	0.669
574.31	0.672
574.51	0.673
574.70	0.670
574.90	0.672
575.09	0.674
575.29	0.675
575.49	0.672
575.68	0.672
575.88	0.674
576.07	0.676
576.27	0.674
576.46	0.673
576.66	0.672
576.86	0.671
577.05	0.669
577.25	0.667
577.44	0.669
577.64	0.668
577.83	0.666
578.03	0.667
578.22	0.667
578.42	0.666
578.61	0.664
578.81	0.665
579.00	0.665
579.20	0.665
579.40	0.664
579.59	0.663
579.79	0.663
579.98	0.663
580.18	0.662
580.37	0.662
580.57	0.665
580.76	0.669
580.96	0.667
581.15	0.668
581.35	0.670
581.54	0.670
581.74	0.669
581.93	0.670
582.13	0.671
582.32	0.669
582.52	0.667
582.71	0.666
582.91	0.662
583.10	0.662
583.30	0.661
583.49	0.660
583.69	0.664
583.88	0.665
584.08	0.664
584.27	0.667
584.47	0.670
584.66	0.671
584.86	0.669
585.05	0.671
585.25	0.674
585.44	0.674
585.64	0.672
585.83	0.668
586.03	0.669
586.22	0.667
586.42	0.663
586.61	0.665
586.81	0.668
587.00	0.668
587.20	0.666
587.39	0.666
587.59	0.668
587.78	0.670
587.98	0.671
588.17	0.672
588.37	0.675
588.56	0.676
588.76	0.672
588.95	0.672
589.15	0.676
589.34	0.678
589.54	0.676
589.73	0.677
589.92	0.679
590.12	0.679
590.31	0.676
590.51	0.681
590.70	0.683
590.90	0.684
591.09	0.682
591.29	0.680
591.48	0.680
591.68	0.681
591.87	0.679
592.06	0.679
592.26	0.682
592.45	0.681
592.65	0.675
592.84	0.674
593.04	0.677
593.23	0.679
593.43	0.677
593.62	0.677
593.81	0.678
594.01	0.678
594.20	0.675
594.40	0.673
594.59	0.675
594.79	0.677
594.98	0.676
595.17	0.674
595.37	0.675
595.56	0.677
595.76	0.675
595.95	0.677
596.14	0.679
596.34	0.681
596.53	0.680
596.73	0.681
596.92	0.682
597.12	0.685
597.31	0.685
597.50	0.684
597.70	0.687
597.89	0.686
598.09	0.683
598.28	0.684
598.47	0.686
598.67	0.685
598.86	0.681
599.06	0.683
599.25	0.683
599.44	0.682
599.64	0.679
599.83	0.677
600.03	0.680
600.22	0.681
600.41	0.680
600.61	0.678
600.80	0.681
601.00	0.681
601.19	0.677
601.38	0.676
601.58	0.679
601.77	0.680
601.96	0.682
602.16	0.682
602.35	0.692
602.55	0.690
602.74	0.690
602.93	0.691
603.13	0.697
603.32	0.698
603.51	0.697
603.71	0.700
603.90	0.702
604.09	0.702
604.29	0.699
604.48	0.693
604.68	0.694
604.87	0.693
605.06	0.689
605.26	0.686
605.45	0.687
605.64	0.686
605.84	0.681
606.03	0.680
606.22	0.680
606.42	0.679
606.61	0.675
606.80	0.676
607.00	0.678
607.19	0.678
607.38	0.676
607.58	0.678
607.77	0.680
607.96	0.680
608.16	0.679
608.35	0.684
608.54	0.687
608.74	0.690
608.93	0.695
609.12	0.697
609.32	0.700
609.51	0.703
609.70	0.702
609.90	0.704
610.09	0.708
610.28	0.714
610.48	0.707
610.67	0.709
610.86	0.709
611.06	0.703
611.25	0.701
611.44	0.703
611.64	0.703
611.83	0.705
612.02	0.701
612.21	0.700
612.41	0.699
612.60	0.698
612.79	0.694
612.99	0.695
613.18	0.698
613.37	0.695
613.57	0.692
613.76	0.694
613.95	0.692
614.14	0.692
614.34	0.689
614.53	0.690
614.72	0.693
614.92	0.693
615.11	0.690
615.30	0.687
615.49	0.689
615.69	0.691
615.88	0.686
616.07	0.688
616.26	0.691
616.46	0.691
616.65	0.688
616.84	0.687
617.04	0.689
617.23	0.692
617.42	0.693
617.61	0.697
617.81	0.699
618.00	0.701
618.19	0.699
618.38	0.702
618.58	0.706
618.77	0.707
618.96	0.705
619.15	0.707
619.35	0.708
619.54	0.709
619.73	0.703
619.92	0.705
620.12	0.709
620.31	0.709
620.50	0.704
620.69	0.705
620.89	0.709
621.08	0.709
621.27	0.709
621.46	0.709
621.66	0.713
621.85	0.714
622.04	0.709
622.23	0.710
622.43	0.712
622.62	0.712
622.81	0.710
623.00	0.710
623.19	0.714
623.39	0.713
623.58	0.709
623.77	0.707
623.96	0.711
624.16	0.712
624.35	0.706
624.54	0.709
624.73	0.713
624.92	0.711
625.12	0.708
625.31	0.708
625.50	0.713
625.69	0.713
625.88	0.709
626.08	0.707
626.27	0.709
626.46	0.709
626.65	0.706
626.84	0.706
627.04	0.711
627.23	0.711
627.42	0.706
627.61	0.707
627.80	0.712
628.00	0.712
628.19	0.711
628.38	0.715
628.57	0.718
628.76	0.718
628.96	0.714
629.15	0.716
629.34	0.719
629.53	0.720
629.72	0.714
629.91	0.713
630.11	0.719
630.30	0.719
630.49	0.721
630.68	0.722
630.87	0.725
631.06	0.728
631.26	0.722
631.45	0.725
631.64	0.734
631.83	0.736
632.02	0.733
632.21	0.732
632.41	0.739
632.60	0.733
632.79	0.731
632.98	0.731
633.17	0.733
633.36	0.734
633.55	0.729
633.75	0.725
633.94	0.728
634.13	0.728
634.32	0.724
634.51	0.718
634.70	0.721
634.89	0.721
635.09	0.718
635.28	0.718
635.47	0.720
635.66	0.724
635.85	0.718
636.04	0.719
636.23	0.724
636.43	0.726
636.62	0.725
636.81	0.724
637.00	0.728
637.19	0.731
637.38	0.727
637.57	0.727
637.76	0.729
637.95	0.730
638.15	0.726
638.34	0.723
638.53	0.728
638.72	0.729
638.91	0.726
639.10	0.722
639.29	0.723
639.48	0.724
639.67	0.723
639.87	0.721
640.06	0.727
640.25	0.727
640.44	0.728
640.63	0.727
640.82	0.730
641.01	0.730
641.20	0.730
641.39	0.731
641.58	0.734
641.78	0.732
641.97	0.728
642.16	0.742
642.35	0.743
642.54	0.742
642.73	0.736
642.92	0.734
643.11	0.739
643.30	0.738
643.49	0.734
643.68	0.736
643.87	0.739
644.06	0.739
644.25	0.717
644.45	0.720
644.64	0.722
644.83	0.723
645.02	0.719
645.21	0.718
645.40	0.720
645.59	0.720
645.78	0.714
645.97	0.716
646.16	0.717
646.35	0.716
646.54	0.714
646.73	0.715
646.92	0.715
647.11	0.715
647.30	0.709
647.49	0.711
647.68	0.710
647.88	0.709
648.07	0.701
648.26	0.705
648.45	0.707
648.64	0.703
648.83	0.700
649.02	0.704
649.21	0.716
649.40	0.716
649.59	0.710
649.78	0.712
649.97	0.727
650.16	0.726
650.35	0.720
650.54	0.722
650.73	0.732
650.92	0.728
651.11	0.720
651.30	0.717
651.49	0.721
651.68	0.723
651.87	0.719
652.06	0.708
652.25	0.712
652.44	0.714
652.63	0.711
652.82	0.709
653.01	0.710
653.20	0.708
653.39	0.695
653.58	0.692
653.77	0.691
653.96	0.685
654.15	0.677
654.34	0.675
654.53	0.670
654.72	0.664
654.91	0.655
655.10	0.651
655.29	0.649
655.48	0.648
655.67	0.642
655.86	0.640
656.05	0.639
656.24	0.639
656.43	0.634
656.62	0.633
656.81	0.634
657.00	0.631
657.19	0.629
657.38	0.629
657.57	0.628
657.76	0.631
657.95	0.629
658.14	0.633
658.33	0.636
658.51	0.641
658.70	0.641
658.89	0.642
659.08	0.652
659.27	0.659
659.46	0.659
659.65	0.666
659.84	0.670
660.03	0.673
660.22	0.675
660.41	0.680
660.60	0.679
660.79	0.680
660.98	0.686
661.17	0.686
661.36	0.685
661.55	0.686
661.74	0.682
661.92	0.686
662.11	0.689
662.30	0.686
662.49	0.679
662.68	0.679
662.87	0.683
663.06	0.676
663.25	0.676
663.44	0.676
663.63	0.677
663.82	0.675
664.01	0.668
664.20	0.667
664.38	0.669
664.57	0.669
664.76	0.669
664.95	0.670
665.14	0.676
665.33	0.671
665.52	0.678
665.71	0.682
665.90	0.682
666.09	0.685
666.28	0.681
666.46	0.681
666.65	0.682
666.84	0.680
667.03	0.674
667.22	0.671
667.41	0.674
667.60	0.664
667.79	0.657
667.98	0.658
668.16	0.659
668.35	0.660
668.54	0.655
668.73	0.656
668.92	0.658
669.11	0.657
669.30	0.650
669.49	0.646
669.67	0.650
669.86	0.652
670.05	0.649
670.24	0.646
670.43	0.643
670.62	0.642
670.81	0.637
671.00	0.638
671.18	0.638
671.37	0.637
671.56	0.635
671.75	0.634
671.94	0.631
672.13	0.629
672.32	0.625
672.50	0.625
672.69	0.625
672.88	0.625
673.07	0.620
673.26	0.623
673.45	0.625
673.63	0.624
673.82	0.620
674.01	0.622
674.20	0.622
674.39	0.621
674.58	0.620
674.76	0.620
674.95	0.618
675.14	0.617
675.33	0.612
675.52	0.611
675.71	0.611
675.89	0.611
676.08	0.606
676.27	0.606
676.46	0.607
676.65	0.606
676.84	0.605
677.02	0.606
677.21	0.610
677.40	0.609
677.59	0.606
677.78	0.607
677.96	0.610
678.15	0.610
678.34	0.607
678.53	0.609
678.72	0.609
678.90	0.606
679.09	0.601
679.28	0.598
679.47	0.597
679.66	0.597
679.84	0.592
680.03	0.589
680.22	0.588
680.41	0.590
680.60	0.585
680.78	0.585
680.97	0.587
681.16	0.588
681.35	0.586
681.53	0.585
681.72	0.587
681.91	0.589
682.10	0.588
682.29	0.591
682.47	0.588
682.66	0.588
682.85	0.586
683.04	0.585
683.22	0.585
683.41	0.587
683.60	0.586
683.79	0.587
683.97	0.586
684.16	0.585
684.35	0.580
684.54	0.582
684.72	0.583
684.91	0.584
685.10	0.582
685.29	0.583
685.47	0.580
685.66	0.579
685.85	0.576
686.04	0.576
686.22	0.579
686.41	0.582
686.60	0.578
686.79	0.581
686.97	0.582
687.16	0.583
687.35	0.580
687.54	0.584
687.72	0.588
687.91	0.587
688.10	0.588
688.29	0.588
688.47	0.586
688.66	0.586
688.85	0.582
689.03	0.580
689.22	0.585
689.41	0.584
689.60	0.579
689.78	0.576
689.97	0.577
690.16	0.575
690.34	0.570
690.53	0.570
690.72	0.571
690.91	0.569
691.09	0.567
691.28	0.561
691.47	0.560
691.65	0.559
691.84	0.556
692.03	0.555
692.21	0.553
692.40	0.553
692.59	0.550
692.77	0.549
692.96	0.550
693.15	0.551
693.34	0.548
693.52	0.548
693.71	0.549
693.90	0.550
694.08	0.551
694.27	0.552
694.46	0.561
694.64	0.562
694.83	0.561
695.02	0.561
695.20	0.560
695.39	0.560
695.58	0.559
695.76	0.560
695.95	0.560
696.14	0.559
696.32	0.556
696.51	0.547
696.70	0.547
696.88	0.549
697.07	0.547
697.26	0.549
697.44	0.550
697.63	0.549
697.81	0.547
698.00	0.546
698.19	0.546
698.37	0.546
698.56	0.545
698.75	0.545
698.93	0.545
699.12	0.544
699.31	0.543
699.49	0.542
699.68	0.543
699.87	0.546
700.05	0.545
700.24	0.544
700.42	0.546
700.61	0.545
700.80	0.542
700.98	0.543
701.17	0.544
701.36	0.543
701.54	0.543
701.73	0.544
701.91	0.542
702.10	0.541
702.29	0.539
702.47	0.538
702.66	0.540
702.84	0.542
703.03	0.540
703.22	0.541
703.40	0.541
703.59	0.542
703.77	0.542
703.96	0.541
704.15	0.542
704.33	0.542
704.52	0.542
704.70	0.541
704.89	0.540
705.08	0.539
705.26	0.535
705.45	0.535
705.63	0.535
705.82	0.532
706.00	0.531
706.19	0.530
706.38	0.530
706.56	0.529
706.75	0.527
706.93	0.526
707.12	0.528
707.30	0.528
707.49	0.525
707.68	0.523
707.86	0.523
708.05	0.523
708.23	0.520
708.42	0.521
708.60	0.523
708.79	0.523
708.98	0.521
709.16	0.521
709.35	0.523
709.53	0.527
709.72	0.526
709.90	0.528
710.09	0.530
710.27	0.532
710.46	0.536
710.64	0.535
710.83	0.537
711.02	0.539
711.20	0.537
711.39	0.536
711.57	0.533
711.76	0.534
711.94	0.532
712.13	0.532
712.31	0.532
712.50	0.527
712.68	0.524
712.87	0.525
713.05	0.526
713.24	0.526
713.42	0.525
713.61	0.525
713.79	0.526
713.98	0.527
714.16	0.527
714.35	0.527
714.54	0.528
714.72	0.529
714.91	0.526
715.09	0.532
715.28	0.535
715.46	0.535
715.65	0.533
715.83	0.533
716.02	0.536
716.20	0.532
716.39	0.532
716.57	0.533
716.76	0.535
716.94	0.535
717.12	0.527
717.31	0.529
717.49	0.532
717.68	0.534
717.86	0.533
718.05	0.535
718.23	0.538
718.42	0.541
718.60	0.542
718.79	0.551
718.97	0.554
719.16	0.554
719.34	0.552
719.53	0.551
719.71	0.551
719.90	0.553
720.08	0.549
720.27	0.550
720.45	0.550
720.63	0.548
720.82	0.541
721.00	0.543
721.19	0.546
721.37	0.546
721.56	0.546
721.74	0.549
721.93	0.558
722.11	0.566
722.30	0.564
722.48	0.568
722.66	0.569
722.85	0.570
723.03	0.570
723.22	0.568
723.40	0.572
723.59	0.571
723.77	0.574
723.95	0.568
724.14	0.570
724.32	0.572
724.51	0.571
724.69	0.573
724.88	0.574
725.06	0.572
725.24	0.574
725.43	0.575
725.61	0.579
725.80	0.572
725.98	0.569
726.16	0.565
726.35	0.573
726.53	0.571
726.72	0.569
726.90	0.580
727.09	0.581
727.27	0.586
727.45	0.583
727.64	0.592
727.82	0.601
728.01	0.606
728.19	0.603
728.37	0.608
728.56	0.613
728.74	0.619
728.92	0.606
729.11	0.609
729.29	0.608
729.48	0.612
729.66	0.601
729.84	0.601
730.03	0.606
730.21	0.608
730.40	0.596
730.58	0.599
730.76	0.600
730.95	0.602
731.13	0.600
731.31	0.614
731.50	0.623
731.68	0.626
731.86	0.621
732.05	0.636
732.23	0.639
732.42	0.641
732.60	0.644
732.78	0.650
732.97	0.671
733.15	0.679
733.33	0.667
733.52	0.675
733.70	0.689
733.88	0.699
734.07	0.683
734.25	0.712
734.43	0.725
734.62	0.727
734.80	0.721
734.98	0.711
735.17	0.720
735.35	0.726
735.53	0.713
735.72	0.716
735.90	0.740
736.08	0.762
736.27	0.735
736.45	0.746
736.63	0.761
736.82	0.774
737.00	0.775
737.18	0.786
737.37	0.822
737.55	0.849
737.73	0.841
737.92	0.845
738.10	0.844
738.28	0.870
738.46	0.855
738.65	0.870
738.83	0.895
739.01	0.956
739.20	0.944
739.38	0.928
739.56	0.917
739.75	0.925
739.93	0.885
740.11	0.913
740.29	0.912
740.48	0.917
740.66	0.889
740.84	0.884
741.03	0.846
741.21	0.860
741.39	0.838
741.57	0.859
741.76	0.880
741.94	0.885
742.12	0.841
742.31	0.850
742.49	0.876
742.67	0.899
742.85	0.912
743.04	0.919
743.22	0.933
743.40	0.996
743.58	0.963
743.77	0.979
743.95	1.029
744.13	1.094
744.31	1.063
744.50	1.057
744.68	1.068
744.86	1.041
745.04	1.048
745.23	1.121
745.41	1.102
745.59	1.114
745.77	1.067
745.96	1.049
746.14	1.063
746.32	1.066
746.50	1.054
746.69	1.030
746.87	1.050
747.05	1.035
747.23	0.949
747.42	0.935
747.60	0.971
747.78	0.977
747.96	1.012
748.14	0.958
748.33	0.994
748.51	0.986
748.69	0.979
748.87	1.011
749.06	1.013
749.24	1.004
749.42	0.979
749.60	0.956
749.78	0.971
749.97	0.914
750.15	0.904
750.33	0.904
750.51	0.935
750.69	0.937
750.88	0.937
751.06	0.944
751.24	0.983
751.42	0.972
751.60	0.961
751.79	1.045
751.97	1.105
752.15	1.101
752.33	1.059
752.51	1.143
752.69	1.174
752.88	1.130
753.06	1.193
753.24	1.156
753.42	1.208
753.60	1.466
753.78	1.228
753.97	1.257
754.15	1.298
754.33	1.349
754.51	1.158
754.69	1.141
754.87	1.175
755.06	1.079
755.24	1.079
755.42	1.082
755.60	0.963
755.78	0.978
755.96	0.913
756.15	0.911
756.33	0.916
756.51	0.937
756.69	0.914
756.87	0.882
757.05	0.904
757.23	0.884
757.42	0.849
757.60	0.847
757.78	0.834
757.96	0.831
758.14	0.810
758.32	0.793
758.50	0.808
758.69	0.808
758.87	0.795
759.05	0.800
759.23	0.813
759.41	0.813
759.59	0.805
759.77	0.832
759.95	0.865
760.13	0.923
760.32	0.925
760.50	0.919
760.68	0.945
760.86	0.947
761.04	0.915
761.22	0.920
761.40	0.979
761.58	0.981
761.76	0.946
761.95	0.920
762.13	0.870
762.31	0.870
762.49	0.833
762.67	0.856
762.85	0.871
763.03	0.864
763.21	0.842
763.39	0.820
763.57	0.823
763.75	0.817
763.94	0.804
764.12	0.804
764.30	0.833
764.48	0.838
764.66	0.796
764.84	0.794
765.02	0.838
765.20	0.846
765.38	0.825
765.56	0.833
765.74	0.880
765.92	0.878
766.10	0.885
766.28	0.877
766.46	0.911
766.65	0.914
766.83	0.898
767.01	0.876
767.19	0.886
767.37	0.886
767.55	0.869
767.73	0.847
767.91	0.850
768.09	0.836
768.27	0.819
768.45	0.807
768.63	0.811
768.81	0.814
768.99	0.788
769.17	0.816
769.35	0.832
769.53	0.827
769.71	0.809
769.89	0.821
770.07	0.832
770.25	0.815
770.43	0.790
770.61	0.818
770.79	0.826
770.97	0.837
771.15	0.797
771.33	0.801
771.51	0.806
771.69	0.813
771.87	0.818
772.05	0.824
772.24	0.835
772.42	0.842
772.60	0.815
772.78	0.881
772.96	0.910
773.14	0.906
773.32	0.877
773.49	0.887
773.67	0.885
773.85	0.864
774.03	0.847
774.21	0.880
774.39	0.895
774.57	0.924
774.75	0.841
774.93	0.838
775.11	0.867
775.29	0.872
775.47	0.870
775.65	0.881
775.83	0.905
776.01	0.933
776.19	0.877
776.37	0.880
776.55	0.881
776.73	0.877
776.91	0.867
777.09	0.849
777.27	0.856
777.45	0.843
777.63	0.816
777.81	0.810
777.99	0.799
778.17	0.800
778.35	0.776
778.53	0.762
778.71	0.773
778.89	0.758
779.07	0.744
779.24	0.746
779.42	0.748
779.60	0.771
779.78	0.764
779.96	0.770
780.14	0.779
780.32	0.802
780.50	0.783
780.68	0.780
780.86	0.774
781.04	0.793
781.22	0.797
781.40	0.809
781.58	0.800
781.75	0.791
781.93	0.770
782.11	0.771
782.29	0.756
782.47	0.754
782.65	0.738
782.83	0.768
783.01	0.764
783.19	0.756
783.37	0.741
783.55	0.744
783.72	0.763
783.90	0.772
784.08	0.760
784.26	0.774
784.44	0.798
784.62	0.802
784.80	0.764
784.98	0.770
785.16	0.776
785.33	0.790
785.51	0.773
785.69	0.762
785.87	0.766
786.05	0.779
786.23	0.772
786.41	0.770
786.59	0.779
786.77	0.778
786.94	0.763
787.12	0.767
787.30	0.770
787.48	0.763
787.66	0.749
787.84	0.746
788.02	0.735
788.19	0.733
788.37	0.716
788.55	0.715
788.73	0.717
788.91	0.711
789.09	0.691
789.27	0.682
789.44	0.697
789.62	0.701
789.80	0.711
789.98	0.741
790.16	0.726
790.34	0.724
790.51	0.713
790.69	0.734
790.87	0.741
791.05	0.738
791.23	0.726
791.41	0.726
791.58	0.737
791.76	0.712
791.94	0.679
792.12	0.690
792.30	0.692
792.48	0.689
792.65	0.682
792.83	0.689
793.01	0.699
793.19	0.700
793.37	0.683
793.54	0.679
793.72	0.693
793.90	0.689
794.08	0.677
794.26	0.678
794.43	0.688
794.61	0.671
794.79	0.657
794.97	0.657
795.15	0.662
795.32	0.668
795.50	0.657
795.68	0.652
795.86	0.658
796.04	0.660
796.21	0.653
796.39	0.651
796.57	0.667
796.75	0.677
796.92	0.676
797.10	0.681
797.28	0.683
797.46	0.686
797.64	0.684
797.81	0.693
797.99	0.696
798.17	0.700
798.35	0.693
798.52	0.696
798.70	0.691
798.88	0.700
799.06	0.699
799.23	0.701
799.41	0.710
799.59	0.703
799.77	0.692
799.94	0.701
800.12	0.713
800.30	0.731
800.48	0.729
800.65	0.730
800.83	0.719
801.01	0.710
801.19	0.711
801.36	0.708
801.54	0.713
801.72	0.723
801.90	0.709
802.07	0.702
802.25	0.687
802.43	0.670
802.60	0.665
802.78	0.672
802.96	0.679
803.14	0.669
803.31	0.665
803.49	0.666
803.67	0.662
803.84	0.666
804.02	0.658
804.20	0.662
804.38	0.670
804.55	0.667
804.73	0.652
804.91	0.652
805.08	0.667
805.26	0.664
805.44	0.733
805.61	0.736
805.79	0.737
805.97	0.734
806.15	0.724
806.32	0.717
806.50	0.726
806.68	0.727
806.85	0.717
807.03	0.707
807.21	0.725
807.38	0.652
807.56	0.641
807.74	0.651
807.91	0.659
808.09	0.662
808.27	0.681
808.44	0.708
808.62	0.718
808.80	0.720
808.97	0.714
809.15	0.707
809.33	0.728
809.50	0.736
809.68	0.720
809.86	0.729
810.03	0.764
810.21	0.743
810.39	0.721
810.56	0.730
810.74	0.757
810.91	0.836
811.09	0.823
811.27	0.845
811.44	0.854
811.62	0.856
811.80	0.837
811.97	0.804
812.15	0.804
812.33	0.799
812.50	0.780
812.68	0.767
812.85	0.709
813.03	0.710
813.21	0.678
813.38	0.670
813.56	0.674
813.74	0.683
813.91	0.688
814.09	0.721
814.26	0.715
814.44	0.719
814.62	0.707
814.79	0.709
814.97	0.717
815.14	0.720
815.32	0.721
815.50	0.740
815.67	0.747
815.85	0.737
816.02	0.726
816.20	0.734
816.38	0.752
816.55	0.761
816.73	0.757
816.90	0.768
817.08	0.803
817.26	0.813
817.43	0.790
817.61	0.817
817.78	0.843
817.96	0.817
818.13	0.805
818.31	0.806
818.49	0.818
818.66	0.810
818.84	0.793
819.01	0.771
819.19	0.780
819.36	0.783
819.54	0.751
819.71	0.799
819.89	0.817
820.07	0.835
820.24	0.825
820.42	0.827
820.59	0.851
820.77	0.879
820.94	0.865
821.12	0.889
821.29	0.906
821.47	0.905
821.64	0.828
821.82	0.843
822.00	0.838
822.17	0.838
822.35	0.829
822.52	0.833
822.70	0.822
822.87	0.830
823.05	0.801
823.22	0.815
823.40	0.847
823.57	0.873
823.75	0.849
823.92	0.880
824.10	0.904
824.27	0.956
824.45	0.942
824.62	1.024
824.80	1.051
824.97	1.075
825.15	1.060
825.32	1.088
825.50	1.093
825.67	1.114
825.85	1.080
826.02	1.112
826.20	1.147
826.37	1.353
826.55	1.219
826.72	1.637
826.90	1.959
827.07	2.383
827.25	1.951
827.42	-0.000
827.60	-0.000
827.77	-0.000
827.95	-0.000
828.12	-0.000
828.30	-0.000
828.47	-0.000
828.65	2.336
828.82	-0.000
829.00	-0.000
829.17	-0.000
829.34	-0.000
829.52	-0.000
829.69	-0.000
829.87	-0.000
830.04	-0.000
830.22	-0.000
830.39	-0.000
830.57	-0.000
830.74	-0.000
830.92	-0.000
831.09	-0.000
831.26	-0.000
831.44	-0.000
831.61	-0.000
831.79	-0.000
831.96	-0.000
832.14	-0.000
832.31	-0.000
832.49	-0.000
832.66	-0.000
832.83	-0.000
833.01	-0.000
833.18	-0.000
833.36	-0.000
833.53	-0.000
833.70	-0.000
833.88	-0.000
834.05	-0.000
834.23	-0.000
834.40	-0.000
834.58	-0.000
834.75	-0.000
834.92	-0.000
835.10	-0.000
835.27	-0.000
835.45	-0.000
835.62	-0.000
835.79	-0.000
835.97	-0.000
836.14	-0.000
836.32	-0.000
836.49	-0.000
836.66	-0.000
836.84	-0.000
837.01	-0.000
837.18	-0.000
837.36	-0.000
837.53	-0.000
837.71	-0.000
837.88	-0.000
838.05	-0.000
838.23	-0.000
838.40	-0.000
838.58	-0.000
838.75	-0.000
838.92	-0.000
839.10	-0.000
839.27	-0.000
839.44	-0.000
839.62	-0.000
839.79	-0.000
839.96	-0.000
840.14	-0.000
840.31	-0.000
840.48	-0.000
840.66	-0.000
840.83	-0.000
841.01	-0.000
841.18	-0.000
841.35	-0.000
841.53	-0.000
841.70	-0.000
841.87	-0.000
842.05	-0.000
842.22	-0.000
842.39	-0.000
842.57	-0.000
842.74	-0.000
842.91	-0.000
843.09	-0.000
843.26	-0.000
843.43	-0.000
843.60	-0.000
843.78	-0.000
843.95	-0.000
844.12	-0.000
844.30	-0.000
844.47	-0.000
844.64	-0.000
844.82	-0.000
844.99	-0.000
845.16	-0.000
845.34	-0.000
845.51	-0.000
845.68	-0.000
845.85	-0.000
846.03	-0.000
846.20	-0.000
846.37	-0.000
846.55	-0.000
846.72	-0.000
846.89	-0.000
847.06	-0.000
847.24	-0.000
847.41	-0.000
847.58	-0.000
847.76	-0.000
847.93	-0.000
848.10	-0.000
848.27	-0.000
848.45	-0.000
848.62	-0.000
848.79	-0.000
848.97	-0.000
849.14	-0.000
849.31	-0.000
849.48	-0.000
849.66	-0.000
849.83	-0.000
850.00	-0.000
850.17	-0.000
850.35	-0.000
850.52	-0.000
850.69	-0.000
850.86	-0.000
851.04	-0.000
851.21	-0.000
851.38	-0.000
851.55	-0.000
851.72	-0.000
851.90	-0.000
852.07	-0.000
852.24	-0.000
852.41	-0.000
852.59	-0.000
852.76	-0.000
852.93	-0.000
853.10	-0.000
853.28	-0.000
853.45	-0.000
853.62	-0.000
853.79	-0.000
853.96	-0.000
854.14	-0.000
854.31	-0.000
854.48	-0.000
854.65	-0.000
854.82	-0.000
855.00	-0.000
855.17	-0.000
855.34	-0.000
855.51	-0.000
855.68	-0.000
855.86	-0.000
856.03	-0.000
856.20	-0.000
856.37	-0.000
856.54	-0.000
856.72	-0.000
856.89	-0.000
857.06	-0.000
857.23	-0.000
857.40	-0.000
857.57	-0.000
857.75	-0.000
857.92	-0.000
858.09	-0.000
858.26	-0.000
858.43	-0.000
858.60	-0.000
858.78	-0.000
858.95	-0.000
859.12	-0.000
859.29	-0.000
859.46	-0.000
859.63	-0.000
859.81	-0.000
859.98	-0.000
860.15	-0.000
860.32	-0.000
860.49	-0.000
860.66	-0.000
860.83	-0.000
861.01	-0.000
861.18	-0.000
861.35	-0.000
861.52	-0.000
861.69	-0.000
861.86	-0.000
862.03	-0.000
862.21	-0.000
862.38	-0.000
862.55	-0.000
862.72	-0.000
862.89	-0.000
863.06	-0.000
863.23	-0.000
863.40	-0.000
863.58	-0.000
863.75	-0.000
863.92	-0.000
864.09	-0.000
864.26	-0.000
864.43	-0.000
864.60	-0.000
864.77	-0.000
864.94	-0.000
865.11	-0.000
865.29	-0.000
865.46	-0.000
865.63	-0.000
865.80	-0.000
865.97	-0.000
866.14	-0.000
866.31	-0.000
866.48	-0.000
866.65	-0.000
866.82	-0.000
866.99	-0.000
867.16	-0.000
867.34	-0.000
867.51	-0.000
867.68	-0.000
867.85	-0.000
868.02	-0.000
868.19	-0.000
868.36	-0.000
868.53	-0.000
868.70	-0.000
868.87	-0.000
869.04	-0.000
869.21	-0.000
869.38	-0.000
869.55	-0.000
869.72	-0.000
869.89	-0.000
870.06	-0.000
870.24	-0.000
870.41	-0.000
870.58	-0.000
870.75	-0.000
870.92	-0.000
871.09	-0.000
871.26	-0.000
871.43	-0.000
871.60	-0.000
871.77	-0.000
871.94	-0.000
872.11	-0.000
872.28	-0.000
872.45	-0.000
872.62	-0.000
872.79	-0.000
872.96	-0.000
873.13	-0.000
873.30	-0.000
873.47	-0.000
873.64	-0.000
873.81	-0.000
873.98	-0.000
874.15	-0.000
874.32	-0.000
874.49	-0.000
874.66	-0.000
874.83	-0.000
875.00	-0.000
875.17	-0.000
875.34	-0.000
875.51	-0.000
875.68	-0.000
875.85	-0.000
876.02	-0.000
876.19	-0.000
876.36	-0.000
876.53	-0.000
876.70	-0.000
876.87	-0.000
877.04	-0.000
877.21	-0.000
877.38	-0.000
877.55	-0.000
877.72	-0.000
877.89	-0.000
878.06	-0.000
878.23	-0.000
878.39	-0.000
878.56	-0.000
878.73	-0.000
878.90	-0.000
879.07	-0.000
879.24	-0.000
879.41	-0.000
879.58	-0.000
879.75	-0.000
879.92	-0.000
880.09	-0.000
880.26	-0.000
880.43	-0.000
880.60	-0.000
880.77	-0.000
880.94	-0.000
881.11	-0.000
881.27	-0.000
881.44	-0.000
881.61	-0.000
881.78	-0.000
881.95	-0.000
882.12	-0.000
882.29	-0.000
882.46	-0.000
882.63	-0.000
882.80	-0.000
882.97	-0.000
883.14	-0.000
883.30	-0.000
883.47	-0.000
883.64	-0.000
883.81	-0.000
883.98	-0.000
884.15	-0.000
884.32	-0.000
884.49	-0.000
884.66	-0.000
884.82	-0.000
884.99	-0.000
885.16	-0.000
885.33	-0.000
885.50	-0.000
885.67	-0.000
885.84	-0.000
886.01	-0.000
886.17	-0.000
886.34	-0.000
886.51	-0.000
886.68	-0.000
886.85	-0.000
887.02	-0.000
887.19	-0.000
887.36	-0.000
887.52	-0.000
887.69	-0.000
887.86	-0.000
888.03	-0.000
888.20	-0.000
888.37	-0.000
888.54	-0.000
888.70	-0.000
888.87	-0.000
889.04	-0.000
889.21	-0.000
889.38	-0.000
889.55	-0.000
889.71	-0.000
889.88	-0.000
890.05	-0.000
890.22	-0.000
890.39	-0.000
>>>>>End Processed Spectral Data<<<<<
