SpectraSuite Data File
++++++++++++++++++++++++++++++++++++
Date: Fri Jun 19 13:37:52 CEST 2015
User: introlabs
Dark Spectrum Present: Yes
Reference Spectrum Present: Yes
Number of Sampled Component Spectra: 1
Spectrometers: USB4H08886
Integration Time (usec): 745692 (USB4H08886)
Spectra Averaged: 5 (USB4H08886)
Boxcar Smoothing: 5 (USB4H08886)
Correct for Electrical Dark: Yes (USB4H08886)
Strobe/Lamp Enabled: No (USB4H08886)
Correct for Detector Non-linearity: Yes (USB4H08886)
Correct for Stray Light: Yes (USB4H08886)
Number of Pixels in Processed Spectrum: 3648
>>>>>Begin Processed Spectral Data<<<<<
178.14	-0.000
178.36	-0.000
178.57	-0.000
178.79	-0.000
179.01	-0.000
179.22	-0.000
179.44	-0.000
179.65	-0.000
179.87	-0.000
180.08	-0.000
180.30	-0.000
180.52	-0.000
180.73	-0.000
180.95	-0.000
181.16	-0.000
181.38	-0.000
181.59	-0.000
181.81	-0.000
182.03	-0.000
182.24	-0.000
182.46	-0.000
182.67	-0.000
182.89	-0.000
183.10	-0.000
183.32	-0.000
183.54	-0.000
183.75	-0.000
183.97	-0.000
184.18	-0.000
184.40	-0.000
184.61	-0.000
184.83	-0.000
185.04	-0.000
185.26	-0.000
185.48	-0.000
185.69	-0.000
185.91	-0.000
186.12	-0.000
186.34	-0.000
186.55	-0.000
186.77	-0.000
186.98	-0.000
187.20	-0.000
187.42	-0.000
187.63	-0.000
187.85	-0.000
188.06	-0.000
188.28	-0.000
188.49	-0.000
188.71	-0.000
188.92	-0.000
189.14	-0.000
189.36	-0.000
189.57	-0.000
189.79	-0.000
190.00	-0.000
190.22	-0.000
190.43	-0.000
190.65	-0.000
190.86	-0.000
191.08	-0.000
191.29	-0.000
191.51	-0.000
191.72	-0.000
191.94	-0.000
192.16	-0.000
192.37	-0.000
192.59	-0.000
192.80	-0.000
193.02	-0.000
193.23	-0.000
193.45	-0.000
193.66	-0.000
193.88	-0.000
194.09	-0.000
194.31	-0.000
194.52	-0.000
194.74	-0.000
194.95	-0.000
195.17	-0.000
195.38	-0.000
195.60	-0.000
195.81	-0.000
196.03	-0.000
196.25	-0.000
196.46	-0.000
196.68	-0.000
196.89	-0.000
197.11	-0.000
197.32	-0.000
197.54	-0.000
197.75	-0.000
197.97	-0.000
198.18	-0.000
198.40	-0.000
198.61	-0.000
198.83	-0.000
199.04	-0.000
199.26	-0.000
199.47	-0.000
199.69	-0.000
199.90	-0.000
200.12	-0.000
200.33	-0.000
200.55	-0.000
200.76	-0.000
200.98	-0.000
201.19	-0.000
201.41	-0.000
201.62	-0.000
201.84	-0.000
202.05	-0.000
202.27	-0.000
202.48	-0.000
202.70	-0.000
202.91	-0.000
203.13	-0.000
203.34	-0.000
203.56	-0.000
203.77	-0.000
203.99	-0.000
204.20	-0.000
204.42	-0.000
204.63	-0.000
204.85	-0.000
205.06	-0.000
205.28	-0.000
205.49	-0.000
205.71	-0.000
205.92	-0.000
206.14	-0.000
206.35	-0.000
206.56	-0.000
206.78	-0.000
206.99	-0.000
207.21	-0.000
207.42	-0.000
207.64	-0.000
207.85	-0.000
208.07	-0.000
208.28	-0.000
208.50	-0.000
208.71	-0.000
208.93	-0.000
209.14	-0.000
209.36	-0.000
209.57	-0.000
209.79	-0.000
210.00	-0.000
210.22	-0.000
210.43	-0.000
210.64	-0.000
210.86	-0.000
211.07	-0.000
211.29	-0.000
211.50	-0.000
211.72	-0.000
211.93	-0.000
212.15	-0.000
212.36	-0.000
212.58	-0.000
212.79	-0.000
213.01	-0.000
213.22	-0.000
213.43	-0.000
213.65	-0.000
213.86	-0.000
214.08	-0.000
214.29	-0.000
214.51	-0.000
214.72	-0.000
214.94	-0.000
215.15	-0.000
215.36	-0.000
215.58	-0.000
215.79	-0.000
216.01	-0.000
216.22	-0.000
216.44	-0.000
216.65	-0.000
216.87	-0.000
217.08	-0.000
217.29	-0.000
217.51	-0.000
217.72	-0.000
217.94	-0.000
218.15	-0.000
218.37	-0.000
218.58	-0.000
218.80	-0.000
219.01	-0.000
219.22	-0.000
219.44	-0.000
219.65	-0.000
219.87	-0.000
220.08	-0.000
220.30	-0.000
220.51	-0.000
220.72	-0.000
220.94	-0.000
221.15	-0.000
221.37	-0.000
221.58	-0.000
221.79	-0.000
222.01	-0.000
222.22	-0.000
222.44	-0.000
222.65	-0.000
222.87	-0.000
223.08	-0.000
223.29	-0.000
223.51	-0.000
223.72	-0.000
223.94	-0.000
224.15	-0.000
224.36	-0.000
224.58	-0.000
224.79	-0.000
225.01	-0.000
225.22	-0.000
225.44	-0.000
225.65	-0.000
225.86	-0.000
226.08	-0.000
226.29	-0.000
226.51	-0.000
226.72	-0.000
226.93	-0.000
227.15	-0.000
227.36	-0.000
227.58	-0.000
227.79	-0.000
228.00	-0.000
228.22	-0.000
228.43	-0.000
228.65	-0.000
228.86	-0.000
229.07	-0.000
229.29	-0.000
229.50	-0.000
229.72	-0.000
229.93	-0.000
230.14	-0.000
230.36	-0.000
230.57	-0.000
230.78	-0.000
231.00	-0.000
231.21	-0.000
231.43	-0.000
231.64	-0.000
231.85	-0.000
232.07	-0.000
232.28	-0.000
232.50	-0.000
232.71	-0.000
232.92	-0.000
233.14	-0.000
233.35	-0.000
233.56	-0.000
233.78	-0.000
233.99	-0.000
234.21	-0.000
234.42	-0.000
234.63	-0.000
234.85	-0.000
235.06	-0.000
235.27	-0.000
235.49	-0.000
235.70	-0.000
235.91	-0.000
236.13	-0.000
236.34	-0.000
236.56	-0.000
236.77	-0.000
236.98	-0.000
237.20	-0.000
237.41	-0.000
237.62	-0.000
237.84	-0.000
238.05	-0.000
238.26	-0.000
238.48	-0.000
238.69	-0.000
238.91	-0.000
239.12	-0.000
239.33	-0.000
239.55	-0.000
239.76	-0.000
239.97	-0.000
240.19	-0.000
240.40	-0.000
240.61	-0.000
240.83	-0.000
241.04	-0.000
241.25	-0.000
241.47	-0.000
241.68	-0.000
241.89	-0.000
242.11	-0.000
242.32	-0.000
242.53	-0.000
242.75	-0.000
242.96	-0.000
243.17	-0.000
243.39	-0.000
243.60	-0.000
243.81	-0.000
244.03	-0.000
244.24	-0.000
244.45	-0.000
244.67	-0.000
244.88	-0.000
245.09	-0.000
245.31	-0.000
245.52	-0.000
245.73	-0.000
245.95	-0.000
246.16	-0.000
246.37	-0.000
246.59	-0.000
246.80	-0.000
247.01	-0.000
247.23	-0.000
247.44	-0.000
247.65	-0.000
247.87	-0.000
248.08	-0.000
248.29	-0.000
248.51	-0.000
248.72	-0.000
248.93	-0.000
249.15	-0.000
249.36	-0.000
249.57	-0.000
249.78	-0.000
250.00	-0.000
250.21	-0.000
250.42	-0.000
250.64	-0.000
250.85	-0.000
251.06	-0.000
251.28	-0.000
251.49	-0.000
251.70	-0.000
251.92	-0.000
252.13	-0.000
252.34	-0.000
252.55	-0.000
252.77	-0.000
252.98	-0.000
253.19	-0.000
253.41	-0.000
253.62	-0.000
253.83	-0.000
254.05	-0.000
254.26	-0.000
254.47	-0.000
254.68	-0.000
254.90	-0.000
255.11	-0.000
255.32	-0.000
255.54	-0.000
255.75	-0.000
255.96	-0.000
256.17	-0.000
256.39	-0.000
256.60	-0.000
256.81	-0.000
257.03	-0.000
257.24	-0.000
257.45	-0.000
257.66	-0.000
257.88	-0.000
258.09	-0.000
258.30	-0.000
258.51	-0.000
258.73	-0.000
258.94	-0.000
259.15	-0.000
259.37	-0.000
259.58	-0.000
259.79	-0.000
260.00	-0.000
260.22	-0.000
260.43	-0.000
260.64	-0.000
260.85	-0.000
261.07	-0.000
261.28	-0.000
261.49	-0.000
261.71	-0.000
261.92	-0.000
262.13	-0.000
262.34	-0.000
262.56	-0.000
262.77	-0.000
262.98	-0.000
263.19	-0.000
263.41	-0.000
263.62	-0.000
263.83	-0.000
264.04	-0.000
264.26	-0.000
264.47	-0.000
264.68	-0.000
264.89	-0.000
265.11	-0.000
265.32	-0.000
265.53	-0.000
265.74	-0.000
265.96	-0.000
266.17	-0.000
266.38	-0.000
266.59	-0.000
266.81	-0.000
267.02	-0.000
267.23	-0.000
267.44	-0.000
267.65	-0.000
267.87	-0.000
268.08	-0.000
268.29	-0.000
268.50	-0.000
268.72	-0.000
268.93	-0.000
269.14	-0.000
269.35	-0.000
269.57	-0.000
269.78	-0.000
269.99	-0.000
270.20	-0.000
270.41	-0.000
270.63	-0.000
270.84	-0.000
271.05	-0.000
271.26	-0.000
271.48	-0.000
271.69	-0.000
271.90	-0.000
272.11	-0.000
272.32	-0.000
272.54	-0.000
272.75	-0.000
272.96	-0.000
273.17	-0.000
273.39	-0.000
273.60	-0.000
273.81	-0.000
274.02	-0.000
274.23	-0.000
274.45	-0.000
274.66	-0.000
274.87	-0.000
275.08	-0.000
275.29	-0.000
275.51	-0.000
275.72	-0.000
275.93	-0.000
276.14	-0.000
276.35	-0.000
276.57	-0.000
276.78	-0.000
276.99	-0.000
277.20	-0.000
277.41	-0.000
277.63	-0.000
277.84	-0.000
278.05	-0.000
278.26	-0.000
278.47	-0.000
278.69	-0.000
278.90	-0.000
279.11	-0.000
279.32	-0.000
279.53	-0.000
279.74	-0.000
279.96	-0.000
280.17	-0.000
280.38	-0.000
280.59	-0.000
280.80	-0.000
281.02	-0.000
281.23	-0.000
281.44	-0.000
281.65	-0.000
281.86	-0.000
282.07	-0.000
282.29	-0.000
282.50	-0.000
282.71	-0.000
282.92	-0.000
283.13	-0.000
283.35	-0.000
283.56	-0.000
283.77	-0.000
283.98	-0.000
284.19	-0.000
284.40	-0.000
284.62	-0.000
284.83	-0.000
285.04	-0.000
285.25	-0.000
285.46	-0.000
285.67	-0.000
285.88	-0.000
286.10	-0.000
286.31	-0.000
286.52	-0.000
286.73	-0.000
286.94	-0.000
287.15	-0.000
287.37	-0.000
287.58	-0.000
287.79	-0.000
288.00	-0.000
288.21	-0.000
288.42	-0.000
288.63	-0.000
288.85	-0.000
289.06	-0.000
289.27	-0.000
289.48	-0.000
289.69	-0.000
289.90	-0.000
290.11	-0.000
290.33	-0.000
290.54	-0.000
290.75	-0.000
290.96	-0.000
291.17	-0.000
291.38	-0.000
291.59	-0.000
291.81	-0.000
292.02	-0.000
292.23	-0.000
292.44	-0.000
292.65	-0.000
292.86	-0.000
293.07	-0.000
293.28	-0.000
293.50	-0.000
293.71	-0.000
293.92	-0.000
294.13	-0.000
294.34	-0.000
294.55	-0.000
294.76	-0.000
294.97	-0.000
295.19	-0.000
295.40	-0.000
295.61	-0.000
295.82	-0.000
296.03	-0.000
296.24	-0.000
296.45	-0.000
296.66	3.156
296.87	-0.000
297.09	-0.000
297.30	-0.000
297.51	2.510
297.72	2.279
297.93	2.961
298.14	2.512
298.35	2.267
298.56	2.207
298.77	3.015
298.99	2.675
299.20	2.393
299.41	2.264
299.62	2.118
299.83	2.072
300.04	1.919
300.25	1.894
300.46	1.972
300.67	1.890
300.88	1.790
301.10	1.799
301.31	1.937
301.52	1.806
301.73	1.698
301.94	1.697
302.15	1.726
302.36	1.658
302.57	1.566
302.78	1.578
302.99	1.656
303.20	1.676
303.41	1.539
303.63	1.510
303.84	1.527
304.05	1.525
304.26	1.440
304.47	1.448
304.68	1.451
304.89	1.433
305.10	1.382
305.31	1.359
305.52	1.412
305.73	1.407
305.94	1.358
306.15	1.347
306.37	1.377
306.58	1.384
306.79	1.344
307.00	1.374
307.21	1.426
307.42	1.416
307.63	1.371
307.84	1.330
308.05	1.370
308.26	1.369
308.47	1.341
308.68	1.337
308.89	1.338
309.10	1.332
309.31	1.282
309.52	1.268
309.73	1.287
309.95	1.279
310.16	1.248
310.37	1.234
310.58	1.257
310.79	1.253
311.00	1.246
311.21	1.250
311.42	1.255
311.63	1.246
311.84	1.226
312.05	1.223
312.26	1.247
312.47	1.258
312.68	1.228
312.89	1.208
313.10	1.217
313.31	1.183
313.52	1.185
313.73	1.185
313.94	1.186
314.15	1.167
314.36	1.143
314.57	1.135
314.78	1.121
314.99	1.115
315.21	1.099
315.42	1.104
315.63	1.120
315.84	1.093
316.05	1.078
316.26	1.088
316.47	1.108
316.68	1.105
316.89	1.086
317.10	1.108
317.31	1.118
317.52	1.120
317.73	1.097
317.94	1.096
318.15	1.144
318.36	1.143
318.57	1.124
318.78	1.108
318.99	1.146
319.20	1.142
319.41	1.105
319.62	1.105
319.83	1.119
320.04	1.113
320.25	1.097
320.46	1.060
320.67	1.065
320.88	1.058
321.09	1.043
321.30	1.028
321.51	1.043
321.72	1.040
321.93	1.023
322.14	1.014
322.35	1.043
322.56	1.045
322.77	1.031
322.98	1.041
323.19	1.052
323.40	1.059
323.61	1.035
323.82	1.028
324.03	1.036
324.24	1.033
324.45	1.019
324.66	0.998
324.87	0.994
325.08	0.994
325.29	0.973
325.50	0.964
325.71	0.969
325.92	0.977
326.13	0.963
326.34	0.964
326.55	0.973
326.76	0.972
326.97	0.961
327.18	0.955
327.39	0.982
327.60	0.983
327.80	0.984
328.01	0.982
328.22	0.983
328.43	0.986
328.64	0.971
328.85	0.975
329.06	0.977
329.27	0.975
329.48	0.971
329.69	0.951
329.90	0.963
330.11	0.956
330.32	0.948
330.53	0.940
330.74	0.941
330.95	0.940
331.16	0.925
331.37	0.934
331.58	0.933
331.79	0.933
332.00	0.923
332.21	0.916
332.42	0.920
332.63	0.910
332.83	0.906
333.04	0.908
333.25	0.922
333.46	0.920
333.67	0.905
333.88	0.910
334.09	0.920
334.30	0.915
334.51	0.906
334.72	0.902
334.93	0.908
335.14	0.907
335.35	0.898
335.56	0.893
335.77	0.899
335.98	0.898
336.18	0.891
336.39	0.884
336.60	0.889
336.81	0.887
337.02	0.886
337.23	0.890
337.44	0.893
337.65	0.896
337.86	0.885
338.07	0.882
338.28	0.887
338.49	0.885
338.70	0.877
338.91	0.884
339.11	0.890
339.32	0.888
339.53	0.873
339.74	0.871
339.95	0.869
340.16	0.867
340.37	0.858
340.58	0.857
340.79	0.861
341.00	0.860
341.21	0.848
341.41	0.848
341.62	0.849
341.83	0.850
342.04	0.845
342.25	0.855
342.46	0.860
342.67	0.858
342.88	0.850
343.09	0.849
343.30	0.857
343.50	0.860
343.71	0.850
343.92	0.850
344.13	0.855
344.34	0.853
344.55	0.836
344.76	0.835
344.97	0.841
345.18	0.839
345.38	0.836
345.59	0.830
345.80	0.830
346.01	0.828
346.22	0.824
346.43	0.818
346.64	0.828
346.85	0.827
347.06	0.820
347.26	0.819
347.47	0.823
347.68	0.820
347.89	0.815
348.10	0.809
348.31	0.816
348.52	0.815
348.73	0.813
348.93	0.809
349.14	0.812
349.35	0.811
349.56	0.805
349.77	0.800
349.98	0.806
350.19	0.804
350.39	0.800
350.60	0.795
350.81	0.811
351.02	0.809
351.23	0.805
351.44	0.808
351.65	0.812
351.86	0.809
352.06	0.808
352.27	0.807
352.48	0.809
352.69	0.808
352.90	0.803
353.11	0.789
353.31	0.796
353.52	0.792
353.73	0.783
353.94	0.784
354.15	0.791
354.36	0.791
354.57	0.783
354.77	0.785
354.98	0.784
355.19	0.783
355.40	0.783
355.61	0.788
355.82	0.793
356.02	0.793
356.23	0.786
356.44	0.788
356.65	0.791
356.86	0.791
357.07	0.784
357.27	0.788
357.48	0.790
357.69	0.785
357.90	0.770
358.11	0.767
358.32	0.770
358.52	0.773
358.73	0.762
358.94	0.764
359.15	0.769
359.36	0.769
359.56	0.764
359.77	0.762
359.98	0.769
360.19	0.768
360.40	0.764
360.61	0.766
360.81	0.765
361.02	0.766
361.23	0.758
361.44	0.757
361.65	0.758
361.85	0.757
362.06	0.755
362.27	0.758
362.48	0.758
362.69	0.760
362.89	0.753
363.10	0.755
363.31	0.759
363.52	0.762
363.73	0.757
363.93	0.757
364.14	0.760
364.35	0.761
364.56	0.750
364.77	0.752
364.97	0.755
365.18	0.755
365.39	0.750
365.60	0.748
365.81	0.749
366.01	0.748
366.22	0.745
366.43	0.743
366.64	0.746
366.84	0.752
367.05	0.749
367.26	0.749
367.47	0.751
367.68	0.750
367.88	0.746
368.09	0.744
368.30	0.747
368.51	0.748
368.71	0.747
368.92	0.751
369.13	0.749
369.34	0.748
369.55	0.746
369.75	0.746
369.96	0.754
370.17	0.754
370.38	0.750
370.58	0.749
370.79	0.754
371.00	0.752
371.21	0.743
371.41	0.749
371.62	0.753
371.83	0.749
372.04	0.746
372.24	0.739
372.45	0.740
372.66	0.741
372.87	0.738
373.07	0.735
373.28	0.736
373.49	0.739
373.70	0.729
373.90	0.727
374.11	0.736
374.32	0.736
374.53	0.735
374.73	0.736
374.94	0.739
375.15	0.738
375.36	0.735
375.56	0.743
375.77	0.744
375.98	0.745
376.19	0.742
376.39	0.736
376.60	0.739
376.81	0.739
377.02	0.736
377.22	0.735
377.43	0.735
377.64	0.734
377.84	0.725
378.05	0.730
378.26	0.736
378.47	0.735
378.67	0.732
378.88	0.728
379.09	0.731
379.30	0.731
379.50	0.729
379.71	0.731
379.92	0.734
380.12	0.733
380.33	0.724
380.54	0.720
380.75	0.727
380.95	0.727
381.16	0.725
381.37	0.725
381.57	0.726
381.78	0.726
381.99	0.725
382.20	0.725
382.40	0.729
382.61	0.729
382.82	0.726
383.02	0.720
383.23	0.723
383.44	0.723
383.64	0.721
383.85	0.723
384.06	0.726
384.27	0.724
384.47	0.722
384.68	0.721
384.89	0.727
385.09	0.726
385.30	0.725
385.51	0.724
385.71	0.728
385.92	0.728
386.13	0.727
386.33	0.729
386.54	0.730
386.75	0.729
386.95	0.725
387.16	0.720
387.37	0.723
387.58	0.723
387.78	0.721
387.99	0.717
388.20	0.719
388.40	0.716
388.61	0.711
388.82	0.714
389.02	0.717
389.23	0.717
389.44	0.715
389.64	0.715
389.85	0.727
390.06	0.726
390.26	0.727
390.47	0.726
390.68	0.728
390.88	0.727
391.09	0.722
391.30	0.722
391.50	0.722
391.71	0.722
391.92	0.719
392.12	0.711
392.33	0.712
392.53	0.711
392.74	0.712
392.95	0.711
393.15	0.714
393.36	0.716
393.57	0.712
393.77	0.715
393.98	0.717
394.19	0.717
394.39	0.716
394.60	0.718
394.81	0.720
395.01	0.717
395.22	0.715
395.43	0.716
395.63	0.721
395.84	0.723
396.04	0.719
396.25	0.721
396.46	0.723
396.66	0.721
396.87	0.718
397.08	0.714
397.28	0.717
397.49	0.717
397.69	0.713
397.90	0.707
398.11	0.708
398.31	0.709
398.52	0.705
398.73	0.706
398.93	0.705
399.14	0.704
399.34	0.703
399.55	0.704
399.76	0.705
399.96	0.705
400.17	0.704
400.37	0.703
400.58	0.710
400.79	0.711
400.99	0.709
401.20	0.714
401.41	0.717
401.61	0.717
401.82	0.722
402.02	0.722
402.23	0.723
402.44	0.723
402.64	0.722
402.85	0.716
403.05	0.715
403.26	0.714
403.47	0.707
403.67	0.706
403.88	0.707
404.08	0.701
404.29	0.699
404.50	0.699
404.70	0.700
404.91	0.700
405.11	0.696
405.32	0.697
405.52	0.697
405.73	0.697
405.94	0.695
406.14	0.698
406.35	0.700
406.55	0.700
406.76	0.697
406.97	0.697
407.17	0.700
407.38	0.700
407.58	0.698
407.79	0.700
407.99	0.703
408.20	0.704
408.41	0.699
408.61	0.697
408.82	0.698
409.02	0.699
409.23	0.697
409.43	0.695
409.64	0.696
409.84	0.697
410.05	0.693
410.26	0.692
410.46	0.691
410.67	0.690
410.87	0.691
411.08	0.693
411.28	0.694
411.49	0.696
411.69	0.694
411.90	0.695
412.11	0.697
412.31	0.698
412.52	0.696
412.72	0.697
412.93	0.698
413.13	0.697
413.34	0.693
413.54	0.694
413.75	0.696
413.95	0.695
414.16	0.691
414.37	0.694
414.57	0.694
414.78	0.696
414.98	0.694
415.19	0.696
415.39	0.693
415.60	0.696
415.80	0.695
416.01	0.693
416.21	0.695
416.42	0.696
416.62	0.690
416.83	0.691
417.03	0.691
417.24	0.691
417.44	0.688
417.65	0.688
417.86	0.688
418.06	0.686
418.27	0.684
418.47	0.685
418.68	0.686
418.88	0.686
419.09	0.684
419.29	0.685
419.50	0.684
419.70	0.684
419.91	0.682
420.11	0.681
420.32	0.684
420.52	0.683
420.73	0.682
420.93	0.683
421.14	0.685
421.34	0.684
421.55	0.681
421.75	0.681
421.96	0.683
422.16	0.684
422.37	0.682
422.57	0.679
422.78	0.680
422.98	0.677
423.19	0.675
423.39	0.673
423.60	0.677
423.80	0.678
424.01	0.676
424.21	0.678
424.42	0.679
424.62	0.679
424.83	0.678
425.03	0.679
425.23	0.681
425.44	0.681
425.64	0.682
425.85	0.680
426.05	0.681
426.26	0.682
426.46	0.678
426.67	0.677
426.87	0.682
427.08	0.683
427.28	0.681
427.49	0.682
427.69	0.683
427.90	0.682
428.10	0.679
428.31	0.679
428.51	0.680
428.71	0.679
428.92	0.681
429.12	0.678
429.33	0.680
429.53	0.684
429.74	0.688
429.94	0.688
430.15	0.688
430.35	0.688
430.56	0.686
430.76	0.685
430.96	0.686
431.17	0.683
431.37	0.680
431.58	0.678
431.78	0.675
431.99	0.668
432.19	0.669
432.40	0.671
432.60	0.672
432.80	0.674
433.01	0.672
433.21	0.673
433.42	0.675
433.62	0.676
433.83	0.675
434.03	0.678
434.23	0.680
434.44	0.679
434.64	0.677
434.85	0.682
435.05	0.683
435.26	0.684
435.46	0.683
435.66	0.682
435.87	0.681
436.07	0.681
436.28	0.677
436.48	0.674
436.69	0.674
436.89	0.674
437.09	0.668
437.30	0.666
437.50	0.666
437.71	0.678
437.91	0.677
438.11	0.679
438.32	0.683
438.52	0.683
438.73	0.682
438.93	0.681
439.13	0.680
439.34	0.684
439.54	0.681
439.75	0.681
439.95	0.671
440.15	0.675
440.36	0.674
440.56	0.671
440.77	0.673
440.97	0.673
441.17	0.672
441.38	0.674
441.58	0.671
441.79	0.671
441.99	0.669
442.19	0.669
442.40	0.666
442.60	0.666
442.81	0.664
443.01	0.664
443.21	0.665
443.42	0.665
443.62	0.663
443.82	0.663
444.03	0.664
444.23	0.665
444.44	0.664
444.64	0.663
444.84	0.665
445.05	0.664
445.25	0.662
445.45	0.662
445.66	0.664
445.86	0.664
446.06	0.665
446.27	0.664
446.47	0.667
446.68	0.666
446.88	0.665
447.08	0.664
447.29	0.666
447.49	0.667
447.69	0.665
447.90	0.665
448.10	0.669
448.30	0.666
448.51	0.667
448.71	0.665
448.91	0.668
449.12	0.667
449.32	0.668
449.52	0.667
449.73	0.670
449.93	0.670
450.14	0.670
450.34	0.668
450.54	0.671
450.75	0.668
450.95	0.668
451.15	0.667
451.36	0.670
451.56	0.666
451.76	0.666
451.97	0.663
452.17	0.664
452.37	0.662
452.58	0.659
452.78	0.659
452.98	0.661
453.19	0.660
453.39	0.661
453.59	0.660
453.79	0.661
454.00	0.661
454.20	0.660
454.40	0.661
454.61	0.664
454.81	0.664
455.01	0.663
455.22	0.663
455.42	0.666
455.62	0.663
455.83	0.663
456.03	0.666
456.23	0.667
456.44	0.668
456.64	0.666
456.84	0.666
457.04	0.666
457.25	0.665
457.45	0.661
457.65	0.660
457.86	0.661
458.06	0.660
458.26	0.656
458.47	0.655
458.67	0.657
458.87	0.658
459.07	0.655
459.28	0.658
459.48	0.661
459.68	0.661
459.89	0.660
460.09	0.658
460.29	0.660
460.49	0.661
460.70	0.660
460.90	0.659
461.10	0.660
461.31	0.660
461.51	0.656
461.71	0.657
461.91	0.659
462.12	0.659
462.32	0.658
462.52	0.658
462.72	0.661
462.93	0.662
463.13	0.661
463.33	0.662
463.53	0.663
463.74	0.663
463.94	0.659
464.14	0.659
464.35	0.661
464.55	0.661
464.75	0.659
464.95	0.657
465.16	0.659
465.36	0.658
465.56	0.657
465.76	0.657
465.97	0.657
466.17	0.658
466.37	0.655
466.57	0.656
466.78	0.657
466.98	0.657
467.18	0.654
467.38	0.653
467.59	0.655
467.79	0.656
467.99	0.655
468.19	0.656
468.39	0.659
468.60	0.659
468.80	0.657
469.00	0.658
469.20	0.659
469.41	0.660
469.61	0.659
469.81	0.659
470.01	0.659
470.22	0.659
470.42	0.657
470.62	0.655
470.82	0.656
471.02	0.656
471.23	0.654
471.43	0.654
471.63	0.657
471.83	0.656
472.04	0.655
472.24	0.653
472.44	0.658
472.64	0.658
472.84	0.656
473.05	0.656
473.25	0.659
473.45	0.659
473.65	0.656
473.85	0.657
474.06	0.659
474.26	0.659
474.46	0.660
474.66	0.656
474.86	0.657
475.07	0.658
475.27	0.656
475.47	0.652
475.67	0.653
475.87	0.655
476.08	0.651
476.28	0.652
476.48	0.653
476.68	0.651
476.88	0.649
477.09	0.650
477.29	0.652
477.49	0.652
477.69	0.651
477.89	0.651
478.09	0.651
478.30	0.653
478.50	0.650
478.70	0.650
478.90	0.650
479.10	0.654
479.31	0.654
479.51	0.652
479.71	0.653
479.91	0.653
480.11	0.652
480.31	0.653
480.52	0.651
480.72	0.651
480.92	0.650
481.12	0.649
481.32	0.646
481.52	0.644
481.72	0.645
481.93	0.648
482.13	0.649
482.33	0.649
482.53	0.646
482.73	0.646
482.93	0.648
483.14	0.647
483.34	0.647
483.54	0.648
483.74	0.648
483.94	0.646
484.14	0.642
484.34	0.642
484.55	0.642
484.75	0.642
484.95	0.641
485.15	0.640
485.35	0.640
485.55	0.640
485.75	0.638
485.96	0.638
486.16	0.639
486.36	0.639
486.56	0.637
486.76	0.637
486.96	0.638
487.16	0.638
487.36	0.636
487.57	0.635
487.77	0.636
487.97	0.637
488.17	0.634
488.37	0.634
488.57	0.634
488.77	0.635
488.97	0.633
489.18	0.632
489.38	0.635
489.58	0.636
489.78	0.635
489.98	0.635
490.18	0.635
490.38	0.636
490.58	0.634
490.78	0.635
490.98	0.637
491.19	0.638
491.39	0.637
491.59	0.636
491.79	0.639
491.99	0.640
492.19	0.639
492.39	0.641
492.59	0.641
492.79	0.643
492.99	0.643
493.20	0.643
493.40	0.643
493.60	0.645
493.80	0.643
494.00	0.641
494.20	0.642
494.40	0.642
494.60	0.639
494.80	0.644
495.00	0.643
495.20	0.641
495.40	0.640
495.61	0.641
495.81	0.641
496.01	0.644
496.21	0.645
496.41	0.644
496.61	0.644
496.81	0.643
497.01	0.638
497.21	0.637
497.41	0.639
497.61	0.639
497.81	0.636
498.01	0.636
498.21	0.634
498.41	0.633
498.61	0.633
498.82	0.634
499.02	0.636
499.22	0.637
499.42	0.636
499.62	0.637
499.82	0.638
500.02	0.639
500.22	0.638
500.42	0.639
500.62	0.640
500.82	0.640
501.02	0.638
501.22	0.638
501.42	0.639
501.62	0.641
501.82	0.640
502.02	0.641
502.22	0.640
502.42	0.642
502.62	0.639
502.82	0.640
503.02	0.640
503.22	0.641
503.42	0.638
503.63	0.638
503.83	0.636
504.03	0.635
504.23	0.633
504.43	0.634
504.63	0.635
504.83	0.635
505.03	0.634
505.23	0.636
505.43	0.638
505.63	0.638
505.83	0.638
506.03	0.640
506.23	0.642
506.43	0.642
506.63	0.641
506.83	0.640
507.03	0.642
507.23	0.642
507.43	0.639
507.63	0.639
507.83	0.639
508.03	0.640
508.23	0.638
508.43	0.636
508.63	0.638
508.83	0.639
509.03	0.640
509.23	0.639
509.43	0.640
509.63	0.640
509.83	0.639
510.03	0.642
510.23	0.644
510.43	0.645
510.63	0.646
510.83	0.645
511.03	0.647
511.23	0.644
511.43	0.643
511.63	0.645
511.83	0.648
512.03	0.648
512.22	0.645
512.42	0.644
512.62	0.645
512.82	0.645
513.02	0.644
513.22	0.644
513.42	0.647
513.62	0.649
513.82	0.646
514.02	0.645
514.22	0.647
514.42	0.647
514.62	0.647
514.82	0.647
515.02	0.649
515.22	0.652
515.42	0.651
515.62	0.654
515.82	0.653
516.02	0.654
516.22	0.654
516.42	0.655
516.62	0.657
516.82	0.657
517.01	0.655
517.21	0.655
517.41	0.659
517.61	0.659
517.81	0.655
518.01	0.654
518.21	0.653
518.41	0.652
518.61	0.651
518.81	0.651
519.01	0.653
519.21	0.653
519.41	0.652
519.61	0.647
519.81	0.650
520.00	0.650
520.20	0.651
520.40	0.654
520.60	0.655
520.80	0.654
521.00	0.655
521.20	0.655
521.40	0.660
521.60	0.660
521.80	0.659
522.00	0.659
522.20	0.662
522.39	0.661
522.59	0.657
522.79	0.659
522.99	0.662
523.19	0.660
523.39	0.658
523.59	0.656
523.79	0.659
523.99	0.661
524.19	0.660
524.38	0.658
524.58	0.660
524.78	0.660
524.98	0.658
525.18	0.661
525.38	0.662
525.58	0.663
525.78	0.660
525.98	0.658
526.18	0.659
526.37	0.658
526.57	0.660
526.77	0.660
526.97	0.661
527.17	0.662
527.37	0.657
527.57	0.660
527.77	0.661
527.96	0.662
528.16	0.660
528.36	0.662
528.56	0.664
528.76	0.661
528.96	0.660
529.16	0.661
529.36	0.663
529.55	0.664
529.75	0.660
529.95	0.660
530.15	0.662
530.35	0.665
530.55	0.661
530.75	0.662
530.94	0.664
531.14	0.664
531.34	0.662
531.54	0.661
531.74	0.664
531.94	0.668
532.13	0.667
532.33	0.668
532.53	0.667
532.73	0.667
532.93	0.665
533.13	0.666
533.33	0.667
533.52	0.667
533.72	0.670
533.92	0.668
534.12	0.666
534.32	0.665
534.52	0.663
534.71	0.665
534.91	0.668
535.11	0.670
535.31	0.668
535.51	0.670
535.71	0.672
535.90	0.668
536.10	0.669
536.30	0.671
536.50	0.673
536.70	0.673
536.89	0.670
537.09	0.670
537.29	0.671
537.49	0.672
537.69	0.670
537.89	0.671
538.08	0.671
538.28	0.669
538.48	0.670
538.68	0.671
538.88	0.673
539.07	0.673
539.27	0.671
539.47	0.670
539.67	0.671
539.87	0.671
540.06	0.668
540.26	0.669
540.46	0.672
540.66	0.669
540.86	0.666
541.05	0.666
541.25	0.667
541.45	0.668
541.65	0.665
541.84	0.667
542.04	0.668
542.24	0.669
542.44	0.668
542.64	0.670
542.83	0.673
543.03	0.673
543.23	0.672
543.43	0.673
543.62	0.674
543.82	0.675
544.02	0.673
544.22	0.673
544.42	0.676
544.61	0.676
544.81	0.672
545.01	0.671
545.21	0.673
545.40	0.673
545.60	0.670
545.80	0.674
546.00	0.674
546.19	0.674
546.39	0.673
546.59	0.671
546.79	0.673
546.98	0.673
547.18	0.673
547.38	0.673
547.58	0.676
547.77	0.676
547.97	0.673
548.17	0.674
548.37	0.675
548.56	0.674
548.76	0.673
548.96	0.674
549.16	0.678
549.35	0.677
549.55	0.676
549.75	0.676
549.95	0.680
550.14	0.680
550.34	0.678
550.54	0.683
550.73	0.688
550.93	0.689
551.13	0.685
551.33	0.683
551.52	0.684
551.72	0.685
551.92	0.682
552.12	0.682
552.31	0.683
552.51	0.683
552.71	0.678
552.90	0.678
553.10	0.679
553.30	0.679
553.50	0.678
553.69	0.679
553.89	0.680
554.09	0.680
554.28	0.677
554.48	0.678
554.68	0.680
554.87	0.679
555.07	0.675
555.27	0.676
555.47	0.677
555.66	0.678
555.86	0.676
556.06	0.679
556.25	0.680
556.45	0.688
556.65	0.687
556.84	0.690
557.04	0.694
557.24	0.695
557.43	0.694
557.63	0.697
557.83	0.699
558.02	0.700
558.22	0.704
558.42	0.705
558.61	0.698
558.81	0.698
559.01	0.693
559.21	0.693
559.40	0.695
559.60	0.695
559.80	0.691
559.99	0.692
560.19	0.695
560.39	0.688
560.58	0.686
560.78	0.686
560.97	0.690
561.17	0.689
561.37	0.687
561.56	0.688
561.76	0.690
561.96	0.689
562.15	0.686
562.35	0.688
562.55	0.689
562.74	0.689
562.94	0.688
563.14	0.686
563.33	0.687
563.53	0.687
563.73	0.684
563.92	0.686
564.12	0.689
564.31	0.691
564.51	0.688
564.71	0.691
564.90	0.694
565.10	0.695
565.30	0.697
565.49	0.698
565.69	0.701
565.89	0.701
566.08	0.697
566.28	0.698
566.47	0.701
566.67	0.699
566.87	0.696
567.06	0.697
567.26	0.703
567.46	0.699
567.65	0.697
567.85	0.698
568.04	0.702
568.24	0.702
568.44	0.699
568.63	0.697
568.83	0.699
569.02	0.698
569.22	0.693
569.42	0.689
569.61	0.692
569.81	0.691
570.00	0.688
570.20	0.689
570.40	0.690
570.59	0.690
570.79	0.687
570.98	0.685
571.18	0.686
571.38	0.686
571.57	0.683
571.77	0.681
571.96	0.684
572.16	0.681
572.35	0.676
572.55	0.677
572.75	0.676
572.94	0.675
573.14	0.674
573.33	0.674
573.53	0.675
573.73	0.675
573.92	0.672
574.12	0.671
574.31	0.674
574.51	0.675
574.70	0.672
574.90	0.673
575.09	0.675
575.29	0.675
575.49	0.672
575.68	0.673
575.88	0.674
576.07	0.675
576.27	0.673
576.46	0.672
576.66	0.671
576.86	0.670
577.05	0.668
577.25	0.667
577.44	0.669
577.64	0.668
577.83	0.666
578.03	0.667
578.22	0.667
578.42	0.665
578.61	0.664
578.81	0.665
579.00	0.665
579.20	0.665
579.40	0.664
579.59	0.662
579.79	0.663
579.98	0.662
580.18	0.661
580.37	0.662
580.57	0.664
580.76	0.669
580.96	0.666
581.15	0.668
581.35	0.669
581.54	0.669
581.74	0.669
581.93	0.670
582.13	0.671
582.32	0.669
582.52	0.667
582.71	0.666
582.91	0.662
583.10	0.662
583.30	0.661
583.49	0.660
583.69	0.664
583.88	0.665
584.08	0.663
584.27	0.666
584.47	0.669
584.66	0.670
584.86	0.669
585.05	0.671
585.25	0.674
585.44	0.673
585.64	0.672
585.83	0.669
586.03	0.669
586.22	0.668
586.42	0.664
586.61	0.666
586.81	0.668
587.00	0.668
587.20	0.665
587.39	0.666
587.59	0.668
587.78	0.669
587.98	0.669
588.17	0.670
588.37	0.673
588.56	0.674
588.76	0.670
588.95	0.670
589.15	0.674
589.34	0.677
589.54	0.675
589.73	0.676
589.92	0.679
590.12	0.679
590.31	0.676
590.51	0.682
590.70	0.684
590.90	0.684
591.09	0.682
591.29	0.680
591.48	0.680
591.68	0.681
591.87	0.680
592.06	0.679
592.26	0.682
592.45	0.681
592.65	0.675
592.84	0.674
593.04	0.677
593.23	0.679
593.43	0.676
593.62	0.676
593.81	0.676
594.01	0.675
594.20	0.673
594.40	0.673
594.59	0.675
594.79	0.676
594.98	0.674
595.17	0.673
595.37	0.675
595.56	0.677
595.76	0.677
595.95	0.679
596.14	0.682
596.34	0.683
596.53	0.682
596.73	0.683
596.92	0.684
597.12	0.687
597.31	0.687
597.50	0.686
597.70	0.687
597.89	0.686
598.09	0.682
598.28	0.684
598.47	0.686
598.67	0.684
598.86	0.680
599.06	0.682
599.25	0.682
599.44	0.680
599.64	0.678
599.83	0.675
600.03	0.679
600.22	0.679
600.41	0.679
600.61	0.677
600.80	0.680
601.00	0.680
601.19	0.676
601.38	0.675
601.58	0.677
601.77	0.679
601.96	0.681
602.16	0.681
602.35	0.689
602.55	0.687
602.74	0.688
602.93	0.690
603.13	0.696
603.32	0.696
603.51	0.696
603.71	0.700
603.90	0.702
604.09	0.702
604.29	0.699
604.48	0.693
604.68	0.695
604.87	0.693
605.06	0.689
605.26	0.685
605.45	0.686
605.64	0.686
605.84	0.680
606.03	0.678
606.22	0.678
606.42	0.677
606.61	0.673
606.80	0.673
607.00	0.676
607.19	0.676
607.38	0.674
607.58	0.676
607.77	0.678
607.96	0.679
608.16	0.677
608.35	0.682
608.54	0.686
608.74	0.689
608.93	0.694
609.12	0.697
609.32	0.700
609.51	0.703
609.70	0.701
609.90	0.703
610.09	0.708
610.28	0.714
610.48	0.707
610.67	0.708
610.86	0.709
611.06	0.703
611.25	0.701
611.44	0.702
611.64	0.702
611.83	0.704
612.02	0.701
612.21	0.700
612.41	0.699
612.60	0.698
612.79	0.694
612.99	0.695
613.18	0.697
613.37	0.694
613.57	0.691
613.76	0.693
613.95	0.691
614.14	0.690
614.34	0.687
614.53	0.688
614.72	0.691
614.92	0.691
615.11	0.688
615.30	0.684
615.49	0.686
615.69	0.689
615.88	0.686
616.07	0.687
616.26	0.690
616.46	0.691
616.65	0.688
616.84	0.687
617.04	0.688
617.23	0.692
617.42	0.693
617.61	0.696
617.81	0.697
618.00	0.698
618.19	0.697
618.38	0.701
618.58	0.705
618.77	0.706
618.96	0.705
619.15	0.707
619.35	0.709
619.54	0.709
619.73	0.705
619.92	0.707
620.12	0.712
620.31	0.712
620.50	0.706
620.69	0.707
620.89	0.710
621.08	0.711
621.27	0.710
621.46	0.708
621.66	0.713
621.85	0.713
622.04	0.709
622.23	0.710
622.43	0.710
622.62	0.710
622.81	0.708
623.00	0.707
623.19	0.711
623.39	0.710
623.58	0.707
623.77	0.705
623.96	0.709
624.16	0.708
624.35	0.703
624.54	0.706
624.73	0.711
624.92	0.709
625.12	0.706
625.31	0.706
625.50	0.710
625.69	0.711
625.88	0.706
626.08	0.706
626.27	0.708
626.46	0.709
626.65	0.705
626.84	0.704
627.04	0.709
627.23	0.710
627.42	0.706
627.61	0.708
627.80	0.711
628.00	0.712
628.19	0.709
628.38	0.712
628.57	0.715
628.76	0.715
628.96	0.711
629.15	0.712
629.34	0.714
629.53	0.714
629.72	0.708
629.91	0.709
630.11	0.713
630.30	0.714
630.49	0.716
630.68	0.716
630.87	0.719
631.06	0.723
631.26	0.718
631.45	0.720
631.64	0.729
631.83	0.732
632.02	0.728
632.21	0.727
632.41	0.735
632.60	0.730
632.79	0.728
632.98	0.729
633.17	0.730
633.36	0.731
633.55	0.728
633.75	0.724
633.94	0.726
634.13	0.726
634.32	0.723
634.51	0.718
634.70	0.720
634.89	0.720
635.09	0.715
635.28	0.717
635.47	0.719
635.66	0.721
635.85	0.717
636.04	0.718
636.23	0.725
636.43	0.727
636.62	0.725
636.81	0.724
637.00	0.727
637.19	0.730
637.38	0.726
637.57	0.724
637.76	0.727
637.95	0.729
638.15	0.725
638.34	0.721
638.53	0.724
638.72	0.726
638.91	0.722
639.10	0.720
639.29	0.720
639.48	0.721
639.67	0.722
639.87	0.721
640.06	0.726
640.25	0.725
640.44	0.726
640.63	0.726
640.82	0.728
641.01	0.728
641.20	0.728
641.39	0.730
641.58	0.733
641.78	0.732
641.97	0.728
642.16	0.742
642.35	0.742
642.54	0.741
642.73	0.735
642.92	0.733
643.11	0.738
643.30	0.737
643.49	0.731
643.68	0.734
643.87	0.735
644.06	0.735
644.25	0.714
644.45	0.718
644.64	0.720
644.83	0.721
645.02	0.718
645.21	0.717
645.40	0.719
645.59	0.718
645.78	0.712
645.97	0.714
646.16	0.715
646.35	0.714
646.54	0.712
646.73	0.713
646.92	0.715
647.11	0.714
647.30	0.710
647.49	0.712
647.68	0.712
647.88	0.710
648.07	0.704
648.26	0.707
648.45	0.710
648.64	0.706
648.83	0.703
649.02	0.705
649.21	0.715
649.40	0.715
649.59	0.709
649.78	0.710
649.97	0.726
650.16	0.725
650.35	0.718
650.54	0.720
650.73	0.728
650.92	0.725
651.11	0.718
651.30	0.716
651.49	0.721
651.68	0.721
651.87	0.717
652.06	0.706
652.25	0.711
652.44	0.714
652.63	0.711
652.82	0.711
653.01	0.711
653.20	0.709
653.39	0.696
653.58	0.692
653.77	0.691
653.96	0.687
654.15	0.679
654.34	0.676
654.53	0.671
654.72	0.665
654.91	0.656
655.10	0.652
655.29	0.650
655.48	0.648
655.67	0.643
655.86	0.640
656.05	0.639
656.24	0.638
656.43	0.633
656.62	0.632
656.81	0.632
657.00	0.630
657.19	0.627
657.38	0.626
657.57	0.626
657.76	0.629
657.95	0.627
658.14	0.630
658.33	0.633
658.51	0.638
658.70	0.639
658.89	0.641
659.08	0.651
659.27	0.659
659.46	0.660
659.65	0.665
659.84	0.669
660.03	0.672
660.22	0.672
660.41	0.676
660.60	0.677
660.79	0.678
660.98	0.683
661.17	0.683
661.36	0.681
661.55	0.682
661.74	0.680
661.92	0.683
662.11	0.686
662.30	0.684
662.49	0.678
662.68	0.678
662.87	0.681
663.06	0.675
663.25	0.675
663.44	0.675
663.63	0.677
663.82	0.675
664.01	0.670
664.20	0.668
664.38	0.671
664.57	0.671
664.76	0.669
664.95	0.670
665.14	0.675
665.33	0.669
665.52	0.677
665.71	0.680
665.90	0.681
666.09	0.682
666.28	0.681
666.46	0.679
666.65	0.681
666.84	0.679
667.03	0.673
667.22	0.671
667.41	0.675
667.60	0.664
667.79	0.658
667.98	0.659
668.16	0.660
668.35	0.659
668.54	0.654
668.73	0.655
668.92	0.655
669.11	0.654
669.30	0.648
669.49	0.645
669.67	0.647
669.86	0.648
670.05	0.646
670.24	0.643
670.43	0.641
670.62	0.641
670.81	0.635
671.00	0.637
671.18	0.637
671.37	0.637
671.56	0.634
671.75	0.633
671.94	0.630
672.13	0.628
672.32	0.623
672.50	0.623
672.69	0.623
672.88	0.624
673.07	0.619
673.26	0.621
673.45	0.622
673.63	0.622
673.82	0.618
674.01	0.620
674.20	0.619
674.39	0.620
674.58	0.618
674.76	0.618
674.95	0.616
675.14	0.616
675.33	0.611
675.52	0.610
675.71	0.610
675.89	0.609
676.08	0.604
676.27	0.605
676.46	0.605
676.65	0.605
676.84	0.605
677.02	0.607
677.21	0.609
677.40	0.609
677.59	0.606
677.78	0.607
677.96	0.610
678.15	0.610
678.34	0.607
678.53	0.608
678.72	0.608
678.90	0.604
679.09	0.600
679.28	0.597
679.47	0.597
679.66	0.597
679.84	0.594
680.03	0.591
680.22	0.590
680.41	0.591
680.60	0.587
680.78	0.587
680.97	0.589
681.16	0.590
681.35	0.588
681.53	0.587
681.72	0.589
681.91	0.591
682.10	0.589
682.29	0.592
682.47	0.590
682.66	0.590
682.85	0.588
683.04	0.586
683.22	0.585
683.41	0.587
683.60	0.585
683.79	0.586
683.97	0.585
684.16	0.583
684.35	0.579
684.54	0.580
684.72	0.580
684.91	0.581
685.10	0.579
685.29	0.580
685.47	0.577
685.66	0.576
685.85	0.572
686.04	0.571
686.22	0.574
686.41	0.576
686.60	0.574
686.79	0.577
686.97	0.579
687.16	0.580
687.35	0.577
687.54	0.581
687.72	0.584
687.91	0.584
688.10	0.587
688.29	0.586
688.47	0.585
688.66	0.585
688.85	0.581
689.03	0.578
689.22	0.583
689.41	0.583
689.60	0.578
689.78	0.576
689.97	0.577
690.16	0.575
690.34	0.571
690.53	0.570
690.72	0.570
690.91	0.568
691.09	0.567
691.28	0.561
691.47	0.560
691.65	0.559
691.84	0.556
692.03	0.554
692.21	0.552
692.40	0.552
692.59	0.549
692.77	0.548
692.96	0.550
693.15	0.550
693.34	0.548
693.52	0.548
693.71	0.549
693.90	0.550
694.08	0.550
694.27	0.551
694.46	0.561
694.64	0.562
694.83	0.562
695.02	0.560
695.20	0.560
695.39	0.560
695.58	0.559
695.76	0.559
695.95	0.559
696.14	0.558
696.32	0.556
696.51	0.545
696.70	0.546
696.88	0.547
697.07	0.545
697.26	0.547
697.44	0.548
697.63	0.547
697.81	0.545
698.00	0.545
698.19	0.545
698.37	0.545
698.56	0.545
698.75	0.544
698.93	0.544
699.12	0.543
699.31	0.542
699.49	0.541
699.68	0.542
699.87	0.544
700.05	0.544
700.24	0.543
700.42	0.545
700.61	0.544
700.80	0.542
700.98	0.542
701.17	0.544
701.36	0.543
701.54	0.543
701.73	0.545
701.91	0.542
702.10	0.541
702.29	0.539
702.47	0.538
702.66	0.540
702.84	0.542
703.03	0.540
703.22	0.541
703.40	0.541
703.59	0.542
703.77	0.541
703.96	0.541
704.15	0.542
704.33	0.543
704.52	0.542
704.70	0.540
704.89	0.540
705.08	0.539
705.26	0.535
705.45	0.534
705.63	0.534
705.82	0.531
706.00	0.529
706.19	0.528
706.38	0.528
706.56	0.528
706.75	0.526
706.93	0.524
707.12	0.526
707.30	0.527
707.49	0.524
707.68	0.523
707.86	0.523
708.05	0.523
708.23	0.520
708.42	0.521
708.60	0.524
708.79	0.523
708.98	0.522
709.16	0.521
709.35	0.523
709.53	0.527
709.72	0.526
709.90	0.527
710.09	0.529
710.27	0.531
710.46	0.535
710.64	0.533
710.83	0.535
711.02	0.536
711.20	0.535
711.39	0.533
711.57	0.530
711.76	0.531
711.94	0.529
712.13	0.530
712.31	0.530
712.50	0.525
712.68	0.523
712.87	0.524
713.05	0.525
713.24	0.525
713.42	0.524
713.61	0.525
713.79	0.525
713.98	0.526
714.16	0.526
714.35	0.526
714.54	0.527
714.72	0.527
714.91	0.524
715.09	0.531
715.28	0.535
715.46	0.535
715.65	0.532
715.83	0.532
716.02	0.535
716.20	0.532
716.39	0.531
716.57	0.532
716.76	0.535
716.94	0.535
717.12	0.526
717.31	0.528
717.49	0.531
717.68	0.534
717.86	0.533
718.05	0.534
718.23	0.538
718.42	0.540
718.60	0.540
718.79	0.548
718.97	0.551
719.16	0.552
719.34	0.549
719.53	0.548
719.71	0.549
719.90	0.551
720.08	0.547
720.27	0.547
720.45	0.549
720.63	0.549
720.82	0.542
721.00	0.545
721.19	0.549
721.37	0.549
721.56	0.549
721.74	0.551
721.93	0.560
722.11	0.567
722.30	0.566
722.48	0.570
722.66	0.571
722.85	0.570
723.03	0.570
723.22	0.568
723.40	0.571
723.59	0.571
723.77	0.574
723.95	0.569
724.14	0.570
724.32	0.572
724.51	0.571
724.69	0.573
724.88	0.574
725.06	0.572
725.24	0.573
725.43	0.574
725.61	0.577
725.80	0.571
725.98	0.568
726.16	0.565
726.35	0.571
726.53	0.571
726.72	0.569
726.90	0.579
727.09	0.580
727.27	0.586
727.45	0.584
727.64	0.593
727.82	0.603
728.01	0.606
728.19	0.603
728.37	0.610
728.56	0.613
728.74	0.620
728.92	0.607
729.11	0.611
729.29	0.609
729.48	0.611
729.66	0.600
729.84	0.600
730.03	0.605
730.21	0.606
730.40	0.594
730.58	0.595
730.76	0.595
730.95	0.597
731.13	0.597
731.31	0.611
731.50	0.622
731.68	0.625
731.86	0.620
732.05	0.635
732.23	0.639
732.42	0.643
732.60	0.646
732.78	0.653
732.97	0.673
733.15	0.680
733.33	0.668
733.52	0.674
733.70	0.688
733.88	0.699
734.07	0.682
734.25	0.710
734.43	0.719
734.62	0.723
734.80	0.717
734.98	0.708
735.17	0.716
735.35	0.721
735.53	0.709
735.72	0.711
735.90	0.734
736.08	0.756
736.27	0.731
736.45	0.742
736.63	0.756
736.82	0.766
737.00	0.766
737.18	0.778
737.37	0.816
737.55	0.841
737.73	0.832
737.92	0.834
738.10	0.836
738.28	0.858
738.46	0.845
738.65	0.860
738.83	0.890
739.01	0.953
739.20	0.943
739.38	0.923
739.56	0.917
739.75	0.924
739.93	0.886
740.11	0.910
740.29	0.915
740.48	0.924
740.66	0.898
740.84	0.889
741.03	0.848
741.21	0.859
741.39	0.835
741.57	0.849
741.76	0.873
741.94	0.876
742.12	0.835
742.31	0.840
742.49	0.866
742.67	0.892
742.85	0.907
743.04	0.916
743.22	0.929
743.40	0.991
743.58	0.970
743.77	0.988
743.95	1.037
744.13	1.100
744.31	1.071
744.50	1.054
744.68	1.058
744.86	1.026
745.04	1.034
745.23	1.109
745.41	1.089
745.59	1.095
745.77	1.051
745.96	1.031
746.14	1.047
746.32	1.049
746.50	1.036
746.69	1.014
746.87	1.031
747.05	1.014
747.23	0.930
747.42	0.916
747.60	0.949
747.78	0.954
747.96	0.994
748.14	0.943
748.33	0.974
748.51	0.977
748.69	0.966
748.87	0.997
749.06	0.992
749.24	0.992
749.42	0.975
749.60	0.951
749.78	0.964
749.97	0.906
750.15	0.896
750.33	0.901
750.51	0.928
750.69	0.934
750.88	0.937
751.06	0.953
751.24	0.982
751.42	0.969
751.60	0.956
751.79	1.035
751.97	1.103
752.15	1.106
752.33	1.061
752.51	1.145
752.69	1.169
752.88	1.123
753.06	1.180
753.24	1.149
753.42	1.207
753.60	1.470
753.78	1.240
753.97	1.256
754.15	1.285
754.33	1.323
754.51	1.144
754.69	1.127
754.87	1.168
755.06	1.073
755.24	1.071
755.42	1.071
755.60	0.956
755.78	0.964
755.96	0.902
756.15	0.901
756.33	0.909
756.51	0.931
756.69	0.914
756.87	0.876
757.05	0.899
757.23	0.884
757.42	0.848
757.60	0.846
757.78	0.837
757.96	0.834
758.14	0.814
758.32	0.796
758.50	0.808
758.69	0.805
758.87	0.794
759.05	0.796
759.23	0.806
759.41	0.804
759.59	0.794
759.77	0.815
759.95	0.844
760.13	0.895
760.32	0.896
760.50	0.892
760.68	0.918
760.86	0.922
761.04	0.897
761.22	0.899
761.40	0.958
761.58	0.961
761.76	0.927
761.95	0.905
762.13	0.858
762.31	0.859
762.49	0.824
762.67	0.842
762.85	0.858
763.03	0.848
763.21	0.826
763.39	0.805
763.57	0.807
763.75	0.803
763.94	0.790
764.12	0.789
764.30	0.815
764.48	0.820
764.66	0.781
764.84	0.779
765.02	0.819
765.20	0.828
765.38	0.806
765.56	0.811
765.74	0.856
765.92	0.856
766.10	0.864
766.28	0.853
766.46	0.884
766.65	0.885
766.83	0.868
767.01	0.854
767.19	0.864
767.37	0.861
767.55	0.844
767.73	0.822
767.91	0.827
768.09	0.815
768.27	0.804
768.45	0.795
768.63	0.802
768.81	0.805
768.99	0.778
769.17	0.800
769.35	0.818
769.53	0.820
769.71	0.800
769.89	0.808
770.07	0.817
770.25	0.796
770.43	0.771
770.61	0.797
770.79	0.804
770.97	0.815
771.15	0.781
771.33	0.786
771.51	0.791
771.69	0.801
771.87	0.806
772.05	0.815
772.24	0.826
772.42	0.833
772.60	0.806
772.78	0.872
772.96	0.903
773.14	0.898
773.32	0.874
773.49	0.880
773.67	0.876
773.85	0.857
774.03	0.841
774.21	0.876
774.39	0.895
774.57	0.924
774.75	0.837
774.93	0.830
775.11	0.856
775.29	0.863
775.47	0.862
775.65	0.878
775.83	0.902
776.01	0.926
776.19	0.871
776.37	0.871
776.55	0.868
776.73	0.867
776.91	0.860
777.09	0.841
777.27	0.843
777.45	0.832
777.63	0.805
777.81	0.799
777.99	0.786
778.17	0.787
778.35	0.765
778.53	0.754
778.71	0.763
778.89	0.749
779.07	0.737
779.24	0.741
779.42	0.741
779.60	0.762
779.78	0.756
779.96	0.762
780.14	0.770
780.32	0.787
780.50	0.769
780.68	0.766
780.86	0.759
781.04	0.780
781.22	0.784
781.40	0.798
781.58	0.789
781.75	0.779
781.93	0.761
782.11	0.762
782.29	0.748
782.47	0.748
782.65	0.735
782.83	0.765
783.01	0.757
783.19	0.748
783.37	0.730
783.55	0.732
783.72	0.754
783.90	0.765
784.08	0.755
784.26	0.770
784.44	0.791
784.62	0.796
784.80	0.762
784.98	0.768
785.16	0.775
785.33	0.788
785.51	0.773
785.69	0.757
785.87	0.757
786.05	0.769
786.23	0.762
786.41	0.760
786.59	0.765
786.77	0.763
786.94	0.749
787.12	0.751
787.30	0.754
787.48	0.752
787.66	0.740
787.84	0.741
788.02	0.730
788.19	0.727
788.37	0.711
788.55	0.713
788.73	0.713
788.91	0.707
789.09	0.691
789.27	0.680
789.44	0.692
789.62	0.698
789.80	0.704
789.98	0.731
790.16	0.717
790.34	0.713
790.51	0.701
790.69	0.722
790.87	0.730
791.05	0.728
791.23	0.718
791.41	0.719
791.58	0.726
791.76	0.704
791.94	0.673
792.12	0.685
792.30	0.688
792.48	0.684
792.65	0.675
792.83	0.682
793.01	0.691
793.19	0.690
793.37	0.674
793.54	0.671
793.72	0.684
793.90	0.682
794.08	0.671
794.26	0.673
794.43	0.686
794.61	0.668
794.79	0.655
794.97	0.653
795.15	0.660
795.32	0.664
795.50	0.653
795.68	0.648
795.86	0.653
796.04	0.652
796.21	0.644
796.39	0.639
796.57	0.656
796.75	0.664
796.92	0.663
797.10	0.667
797.28	0.670
797.46	0.672
797.64	0.673
797.81	0.680
797.99	0.687
798.17	0.690
798.35	0.685
798.52	0.687
798.70	0.684
798.88	0.695
799.06	0.693
799.23	0.696
799.41	0.707
799.59	0.699
799.77	0.686
799.94	0.695
800.12	0.708
800.30	0.726
800.48	0.726
800.65	0.726
800.83	0.715
801.01	0.706
801.19	0.706
801.36	0.700
801.54	0.703
801.72	0.715
801.90	0.700
802.07	0.692
802.25	0.678
802.43	0.661
802.60	0.656
802.78	0.664
802.96	0.671
803.14	0.664
803.31	0.661
803.49	0.661
803.67	0.658
803.84	0.661
804.02	0.653
804.20	0.655
804.38	0.662
804.55	0.661
804.73	0.645
804.91	0.645
805.08	0.659
805.26	0.655
805.44	0.725
805.61	0.728
805.79	0.728
805.97	0.728
806.15	0.720
806.32	0.714
806.50	0.721
806.68	0.721
806.85	0.711
807.03	0.700
807.21	0.717
807.38	0.643
807.56	0.632
807.74	0.643
807.91	0.650
808.09	0.652
808.27	0.670
808.44	0.697
808.62	0.708
808.80	0.709
808.97	0.703
809.15	0.698
809.33	0.719
809.50	0.725
809.68	0.707
809.86	0.715
810.03	0.750
810.21	0.729
810.39	0.711
810.56	0.718
810.74	0.745
810.91	0.823
811.09	0.809
811.27	0.830
811.44	0.838
811.62	0.842
811.80	0.821
811.97	0.787
812.15	0.789
812.33	0.783
812.50	0.767
812.68	0.753
812.85	0.694
813.03	0.700
813.21	0.668
813.38	0.661
813.56	0.665
813.74	0.678
813.91	0.685
814.09	0.716
814.26	0.707
814.44	0.711
814.62	0.699
814.79	0.704
814.97	0.710
815.14	0.714
815.32	0.718
815.50	0.735
815.67	0.738
815.85	0.730
816.02	0.718
816.20	0.728
816.38	0.745
816.55	0.751
816.73	0.750
816.90	0.761
817.08	0.793
817.26	0.802
817.43	0.779
817.61	0.805
817.78	0.828
817.96	0.805
818.13	0.791
818.31	0.792
818.49	0.810
818.66	0.801
818.84	0.786
819.01	0.763
819.19	0.771
819.36	0.775
819.54	0.742
819.71	0.787
819.89	0.805
820.07	0.822
820.24	0.815
820.42	0.816
820.59	0.839
820.77	0.862
820.94	0.851
821.12	0.867
821.29	0.889
821.47	0.891
821.64	0.818
821.82	0.830
822.00	0.825
822.17	0.822
822.35	0.811
822.52	0.812
822.70	0.801
822.87	0.814
823.05	0.792
823.22	0.803
823.40	0.834
823.57	0.866
823.75	0.847
823.92	0.882
824.10	0.905
824.27	0.953
824.45	0.945
824.62	1.024
824.80	1.047
824.97	1.068
825.15	1.051
825.32	1.073
825.50	1.071
825.67	1.085
825.85	1.051
826.02	1.076
826.20	1.111
826.37	1.302
826.55	1.187
826.72	1.520
826.90	1.709
827.07	1.906
827.25	1.736
827.42	3.211
827.60	-0.000
827.77	-0.000
827.95	-0.000
828.12	-0.000
828.30	-0.000
828.47	-0.000
828.65	1.800
828.82	2.230
829.00	-0.000
829.17	-0.000
829.34	-0.000
829.52	-0.000
829.69	-0.000
829.87	-0.000
830.04	-0.000
830.22	-0.000
830.39	-0.000
830.57	-0.000
830.74	-0.000
830.92	-0.000
831.09	-0.000
831.26	-0.000
831.44	-0.000
831.61	-0.000
831.79	-0.000
831.96	-0.000
832.14	-0.000
832.31	-0.000
832.49	-0.000
832.66	-0.000
832.83	-0.000
833.01	-0.000
833.18	-0.000
833.36	-0.000
833.53	-0.000
833.70	-0.000
833.88	-0.000
834.05	-0.000
834.23	-0.000
834.40	-0.000
834.58	-0.000
834.75	-0.000
834.92	-0.000
835.10	-0.000
835.27	-0.000
835.45	-0.000
835.62	-0.000
835.79	-0.000
835.97	-0.000
836.14	-0.000
836.32	-0.000
836.49	-0.000
836.66	-0.000
836.84	-0.000
837.01	-0.000
837.18	-0.000
837.36	-0.000
837.53	-0.000
837.71	-0.000
837.88	-0.000
838.05	-0.000
838.23	-0.000
838.40	-0.000
838.58	-0.000
838.75	-0.000
838.92	-0.000
839.10	-0.000
839.27	-0.000
839.44	-0.000
839.62	-0.000
839.79	-0.000
839.96	-0.000
840.14	-0.000
840.31	-0.000
840.48	-0.000
840.66	-0.000
840.83	-0.000
841.01	-0.000
841.18	-0.000
841.35	-0.000
841.53	-0.000
841.70	-0.000
841.87	-0.000
842.05	-0.000
842.22	-0.000
842.39	-0.000
842.57	-0.000
842.74	-0.000
842.91	-0.000
843.09	-0.000
843.26	-0.000
843.43	-0.000
843.60	-0.000
843.78	-0.000
843.95	-0.000
844.12	-0.000
844.30	-0.000
844.47	-0.000
844.64	-0.000
844.82	-0.000
844.99	-0.000
845.16	-0.000
845.34	-0.000
845.51	-0.000
845.68	-0.000
845.85	-0.000
846.03	-0.000
846.20	-0.000
846.37	-0.000
846.55	-0.000
846.72	-0.000
846.89	-0.000
847.06	-0.000
847.24	-0.000
847.41	-0.000
847.58	-0.000
847.76	-0.000
847.93	-0.000
848.10	-0.000
848.27	-0.000
848.45	-0.000
848.62	-0.000
848.79	-0.000
848.97	-0.000
849.14	-0.000
849.31	-0.000
849.48	-0.000
849.66	-0.000
849.83	-0.000
850.00	-0.000
850.17	-0.000
850.35	-0.000
850.52	-0.000
850.69	-0.000
850.86	-0.000
851.04	-0.000
851.21	-0.000
851.38	-0.000
851.55	-0.000
851.72	-0.000
851.90	-0.000
852.07	-0.000
852.24	-0.000
852.41	-0.000
852.59	-0.000
852.76	-0.000
852.93	-0.000
853.10	-0.000
853.28	-0.000
853.45	-0.000
853.62	-0.000
853.79	-0.000
853.96	-0.000
854.14	-0.000
854.31	-0.000
854.48	-0.000
854.65	-0.000
854.82	-0.000
855.00	-0.000
855.17	-0.000
855.34	-0.000
855.51	-0.000
855.68	-0.000
855.86	-0.000
856.03	-0.000
856.20	-0.000
856.37	-0.000
856.54	-0.000
856.72	-0.000
856.89	-0.000
857.06	-0.000
857.23	-0.000
857.40	-0.000
857.57	-0.000
857.75	-0.000
857.92	-0.000
858.09	-0.000
858.26	-0.000
858.43	-0.000
858.60	-0.000
858.78	-0.000
858.95	-0.000
859.12	-0.000
859.29	-0.000
859.46	-0.000
859.63	-0.000
859.81	-0.000
859.98	-0.000
860.15	-0.000
860.32	-0.000
860.49	-0.000
860.66	-0.000
860.83	-0.000
861.01	-0.000
861.18	-0.000
861.35	-0.000
861.52	-0.000
861.69	-0.000
861.86	-0.000
862.03	-0.000
862.21	-0.000
862.38	-0.000
862.55	-0.000
862.72	-0.000
862.89	-0.000
863.06	-0.000
863.23	-0.000
863.40	-0.000
863.58	-0.000
863.75	-0.000
863.92	-0.000
864.09	-0.000
864.26	-0.000
864.43	-0.000
864.60	-0.000
864.77	-0.000
864.94	-0.000
865.11	-0.000
865.29	-0.000
865.46	-0.000
865.63	-0.000
865.80	-0.000
865.97	-0.000
866.14	-0.000
866.31	-0.000
866.48	-0.000
866.65	-0.000
866.82	-0.000
866.99	-0.000
867.16	-0.000
867.34	-0.000
867.51	-0.000
867.68	-0.000
867.85	-0.000
868.02	-0.000
868.19	-0.000
868.36	-0.000
868.53	-0.000
868.70	-0.000
868.87	-0.000
869.04	-0.000
869.21	-0.000
869.38	-0.000
869.55	-0.000
869.72	-0.000
869.89	-0.000
870.06	-0.000
870.24	-0.000
870.41	-0.000
870.58	-0.000
870.75	-0.000
870.92	-0.000
871.09	-0.000
871.26	-0.000
871.43	-0.000
871.60	-0.000
871.77	-0.000
871.94	-0.000
872.11	-0.000
872.28	-0.000
872.45	-0.000
872.62	-0.000
872.79	-0.000
872.96	-0.000
873.13	-0.000
873.30	-0.000
873.47	-0.000
873.64	-0.000
873.81	-0.000
873.98	-0.000
874.15	-0.000
874.32	-0.000
874.49	-0.000
874.66	-0.000
874.83	-0.000
875.00	-0.000
875.17	-0.000
875.34	-0.000
875.51	-0.000
875.68	-0.000
875.85	-0.000
876.02	-0.000
876.19	-0.000
876.36	-0.000
876.53	-0.000
876.70	-0.000
876.87	-0.000
877.04	-0.000
877.21	-0.000
877.38	-0.000
877.55	-0.000
877.72	-0.000
877.89	-0.000
878.06	-0.000
878.23	-0.000
878.39	-0.000
878.56	-0.000
878.73	-0.000
878.90	-0.000
879.07	-0.000
879.24	-0.000
879.41	-0.000
879.58	-0.000
879.75	-0.000
879.92	-0.000
880.09	-0.000
880.26	-0.000
880.43	-0.000
880.60	-0.000
880.77	-0.000
880.94	-0.000
881.11	-0.000
881.27	-0.000
881.44	-0.000
881.61	-0.000
881.78	-0.000
881.95	-0.000
882.12	-0.000
882.29	-0.000
882.46	-0.000
882.63	-0.000
882.80	-0.000
882.97	-0.000
883.14	-0.000
883.30	-0.000
883.47	-0.000
883.64	-0.000
883.81	-0.000
883.98	-0.000
884.15	-0.000
884.32	-0.000
884.49	-0.000
884.66	-0.000
884.82	-0.000
884.99	-0.000
885.16	-0.000
885.33	-0.000
885.50	-0.000
885.67	-0.000
885.84	-0.000
886.01	-0.000
886.17	-0.000
886.34	-0.000
886.51	-0.000
886.68	-0.000
886.85	-0.000
887.02	-0.000
887.19	-0.000
887.36	-0.000
887.52	-0.000
887.69	-0.000
887.86	-0.000
888.03	-0.000
888.20	-0.000
888.37	-0.000
888.54	-0.000
888.70	-0.000
888.87	-0.000
889.04	-0.000
889.21	-0.000
889.38	-0.000
889.55	-0.000
889.71	-0.000
889.88	-0.000
890.05	-0.000
890.22	-0.000
890.39	-0.000
>>>>>End Processed Spectral Data<<<<<
