SpectraSuite Data File
++++++++++++++++++++++++++++++++++++
Date: Fri Jun 19 15:24:22 CEST 2015
User: introlabs
Dark Spectrum Present: Yes
Reference Spectrum Present: Yes
Number of Sampled Component Spectra: 1
Spectrometers: USB4H08886
Integration Time (usec): 745692 (USB4H08886)
Spectra Averaged: 5 (USB4H08886)
Boxcar Smoothing: 5 (USB4H08886)
Correct for Electrical Dark: Yes (USB4H08886)
Strobe/Lamp Enabled: No (USB4H08886)
Correct for Detector Non-linearity: Yes (USB4H08886)
Correct for Stray Light: Yes (USB4H08886)
Number of Pixels in Processed Spectrum: 3648
>>>>>Begin Processed Spectral Data<<<<<
178.14	-0.000
178.36	-0.000
178.57	-0.000
178.79	-0.000
179.01	-0.000
179.22	-0.000
179.44	-0.000
179.65	-0.000
179.87	-0.000
180.08	-0.000
180.30	-0.000
180.52	-0.000
180.73	-0.000
180.95	-0.000
181.16	-0.000
181.38	-0.000
181.59	-0.000
181.81	-0.000
182.03	-0.000
182.24	-0.000
182.46	-0.000
182.67	-0.000
182.89	-0.000
183.10	-0.000
183.32	-0.000
183.54	-0.000
183.75	-0.000
183.97	-0.000
184.18	-0.000
184.40	-0.000
184.61	-0.000
184.83	-0.000
185.04	-0.000
185.26	-0.000
185.48	-0.000
185.69	-0.000
185.91	-0.000
186.12	-0.000
186.34	-0.000
186.55	-0.000
186.77	-0.000
186.98	-0.000
187.20	-0.000
187.42	-0.000
187.63	-0.000
187.85	-0.000
188.06	-0.000
188.28	-0.000
188.49	-0.000
188.71	-0.000
188.92	-0.000
189.14	-0.000
189.36	-0.000
189.57	-0.000
189.79	-0.000
190.00	-0.000
190.22	-0.000
190.43	-0.000
190.65	-0.000
190.86	-0.000
191.08	-0.000
191.29	-0.000
191.51	-0.000
191.72	-0.000
191.94	-0.000
192.16	-0.000
192.37	-0.000
192.59	-0.000
192.80	-0.000
193.02	-0.000
193.23	-0.000
193.45	-0.000
193.66	-0.000
193.88	-0.000
194.09	-0.000
194.31	-0.000
194.52	-0.000
194.74	-0.000
194.95	-0.000
195.17	-0.000
195.38	-0.000
195.60	-0.000
195.81	-0.000
196.03	-0.000
196.25	-0.000
196.46	-0.000
196.68	-0.000
196.89	-0.000
197.11	-0.000
197.32	-0.000
197.54	-0.000
197.75	-0.000
197.97	-0.000
198.18	-0.000
198.40	-0.000
198.61	-0.000
198.83	-0.000
199.04	-0.000
199.26	-0.000
199.47	-0.000
199.69	-0.000
199.90	-0.000
200.12	-0.000
200.33	-0.000
200.55	-0.000
200.76	-0.000
200.98	-0.000
201.19	-0.000
201.41	-0.000
201.62	-0.000
201.84	-0.000
202.05	-0.000
202.27	-0.000
202.48	-0.000
202.70	-0.000
202.91	-0.000
203.13	-0.000
203.34	-0.000
203.56	-0.000
203.77	-0.000
203.99	-0.000
204.20	-0.000
204.42	-0.000
204.63	-0.000
204.85	-0.000
205.06	-0.000
205.28	-0.000
205.49	-0.000
205.71	-0.000
205.92	-0.000
206.14	-0.000
206.35	-0.000
206.56	-0.000
206.78	-0.000
206.99	-0.000
207.21	-0.000
207.42	-0.000
207.64	-0.000
207.85	-0.000
208.07	-0.000
208.28	-0.000
208.50	-0.000
208.71	-0.000
208.93	-0.000
209.14	-0.000
209.36	-0.000
209.57	-0.000
209.79	-0.000
210.00	-0.000
210.22	-0.000
210.43	-0.000
210.64	-0.000
210.86	-0.000
211.07	-0.000
211.29	-0.000
211.50	-0.000
211.72	-0.000
211.93	-0.000
212.15	-0.000
212.36	-0.000
212.58	-0.000
212.79	-0.000
213.01	-0.000
213.22	-0.000
213.43	-0.000
213.65	-0.000
213.86	-0.000
214.08	-0.000
214.29	-0.000
214.51	-0.000
214.72	-0.000
214.94	-0.000
215.15	-0.000
215.36	-0.000
215.58	-0.000
215.79	-0.000
216.01	-0.000
216.22	-0.000
216.44	-0.000
216.65	-0.000
216.87	-0.000
217.08	-0.000
217.29	-0.000
217.51	-0.000
217.72	-0.000
217.94	-0.000
218.15	-0.000
218.37	-0.000
218.58	-0.000
218.80	-0.000
219.01	-0.000
219.22	-0.000
219.44	-0.000
219.65	-0.000
219.87	-0.000
220.08	-0.000
220.30	-0.000
220.51	-0.000
220.72	-0.000
220.94	-0.000
221.15	-0.000
221.37	-0.000
221.58	-0.000
221.79	-0.000
222.01	-0.000
222.22	-0.000
222.44	-0.000
222.65	-0.000
222.87	-0.000
223.08	-0.000
223.29	-0.000
223.51	-0.000
223.72	-0.000
223.94	-0.000
224.15	-0.000
224.36	-0.000
224.58	-0.000
224.79	-0.000
225.01	-0.000
225.22	-0.000
225.44	-0.000
225.65	-0.000
225.86	-0.000
226.08	-0.000
226.29	-0.000
226.51	-0.000
226.72	-0.000
226.93	-0.000
227.15	-0.000
227.36	-0.000
227.58	-0.000
227.79	-0.000
228.00	-0.000
228.22	-0.000
228.43	-0.000
228.65	-0.000
228.86	-0.000
229.07	-0.000
229.29	-0.000
229.50	-0.000
229.72	-0.000
229.93	-0.000
230.14	-0.000
230.36	-0.000
230.57	-0.000
230.78	-0.000
231.00	-0.000
231.21	-0.000
231.43	-0.000
231.64	-0.000
231.85	-0.000
232.07	-0.000
232.28	-0.000
232.50	-0.000
232.71	-0.000
232.92	-0.000
233.14	-0.000
233.35	-0.000
233.56	-0.000
233.78	-0.000
233.99	-0.000
234.21	-0.000
234.42	-0.000
234.63	-0.000
234.85	-0.000
235.06	-0.000
235.27	-0.000
235.49	-0.000
235.70	-0.000
235.91	-0.000
236.13	-0.000
236.34	-0.000
236.56	-0.000
236.77	-0.000
236.98	-0.000
237.20	-0.000
237.41	-0.000
237.62	-0.000
237.84	-0.000
238.05	-0.000
238.26	-0.000
238.48	-0.000
238.69	-0.000
238.91	-0.000
239.12	-0.000
239.33	-0.000
239.55	-0.000
239.76	-0.000
239.97	-0.000
240.19	-0.000
240.40	-0.000
240.61	-0.000
240.83	-0.000
241.04	-0.000
241.25	-0.000
241.47	-0.000
241.68	-0.000
241.89	-0.000
242.11	-0.000
242.32	-0.000
242.53	-0.000
242.75	-0.000
242.96	-0.000
243.17	-0.000
243.39	-0.000
243.60	-0.000
243.81	-0.000
244.03	-0.000
244.24	-0.000
244.45	-0.000
244.67	-0.000
244.88	-0.000
245.09	-0.000
245.31	-0.000
245.52	-0.000
245.73	-0.000
245.95	-0.000
246.16	-0.000
246.37	-0.000
246.59	-0.000
246.80	-0.000
247.01	-0.000
247.23	-0.000
247.44	-0.000
247.65	-0.000
247.87	-0.000
248.08	-0.000
248.29	-0.000
248.51	-0.000
248.72	-0.000
248.93	-0.000
249.15	-0.000
249.36	-0.000
249.57	-0.000
249.78	-0.000
250.00	-0.000
250.21	-0.000
250.42	-0.000
250.64	-0.000
250.85	-0.000
251.06	-0.000
251.28	-0.000
251.49	-0.000
251.70	-0.000
251.92	-0.000
252.13	-0.000
252.34	-0.000
252.55	-0.000
252.77	-0.000
252.98	-0.000
253.19	-0.000
253.41	-0.000
253.62	-0.000
253.83	-0.000
254.05	-0.000
254.26	-0.000
254.47	-0.000
254.68	-0.000
254.90	-0.000
255.11	-0.000
255.32	-0.000
255.54	-0.000
255.75	-0.000
255.96	-0.000
256.17	-0.000
256.39	-0.000
256.60	-0.000
256.81	-0.000
257.03	-0.000
257.24	-0.000
257.45	-0.000
257.66	-0.000
257.88	-0.000
258.09	-0.000
258.30	-0.000
258.51	-0.000
258.73	-0.000
258.94	-0.000
259.15	-0.000
259.37	-0.000
259.58	-0.000
259.79	-0.000
260.00	-0.000
260.22	-0.000
260.43	-0.000
260.64	-0.000
260.85	-0.000
261.07	-0.000
261.28	-0.000
261.49	-0.000
261.71	-0.000
261.92	-0.000
262.13	-0.000
262.34	-0.000
262.56	-0.000
262.77	-0.000
262.98	-0.000
263.19	-0.000
263.41	-0.000
263.62	-0.000
263.83	-0.000
264.04	-0.000
264.26	-0.000
264.47	-0.000
264.68	-0.000
264.89	-0.000
265.11	-0.000
265.32	-0.000
265.53	-0.000
265.74	-0.000
265.96	-0.000
266.17	-0.000
266.38	-0.000
266.59	-0.000
266.81	-0.000
267.02	-0.000
267.23	-0.000
267.44	-0.000
267.65	-0.000
267.87	-0.000
268.08	-0.000
268.29	-0.000
268.50	-0.000
268.72	-0.000
268.93	-0.000
269.14	-0.000
269.35	-0.000
269.57	-0.000
269.78	-0.000
269.99	-0.000
270.20	-0.000
270.41	-0.000
270.63	-0.000
270.84	-0.000
271.05	-0.000
271.26	-0.000
271.48	-0.000
271.69	-0.000
271.90	-0.000
272.11	-0.000
272.32	-0.000
272.54	-0.000
272.75	-0.000
272.96	-0.000
273.17	-0.000
273.39	-0.000
273.60	-0.000
273.81	-0.000
274.02	-0.000
274.23	-0.000
274.45	-0.000
274.66	-0.000
274.87	-0.000
275.08	-0.000
275.29	-0.000
275.51	-0.000
275.72	-0.000
275.93	-0.000
276.14	-0.000
276.35	-0.000
276.57	-0.000
276.78	-0.000
276.99	-0.000
277.20	-0.000
277.41	-0.000
277.63	-0.000
277.84	-0.000
278.05	-0.000
278.26	-0.000
278.47	-0.000
278.69	-0.000
278.90	-0.000
279.11	-0.000
279.32	-0.000
279.53	-0.000
279.74	-0.000
279.96	-0.000
280.17	-0.000
280.38	-0.000
280.59	-0.000
280.80	-0.000
281.02	-0.000
281.23	-0.000
281.44	-0.000
281.65	-0.000
281.86	-0.000
282.07	-0.000
282.29	-0.000
282.50	-0.000
282.71	-0.000
282.92	-0.000
283.13	-0.000
283.35	-0.000
283.56	-0.000
283.77	-0.000
283.98	-0.000
284.19	-0.000
284.40	-0.000
284.62	-0.000
284.83	-0.000
285.04	-0.000
285.25	-0.000
285.46	-0.000
285.67	-0.000
285.88	-0.000
286.10	-0.000
286.31	-0.000
286.52	-0.000
286.73	-0.000
286.94	-0.000
287.15	-0.000
287.37	-0.000
287.58	-0.000
287.79	-0.000
288.00	-0.000
288.21	-0.000
288.42	-0.000
288.63	-0.000
288.85	-0.000
289.06	-0.000
289.27	-0.000
289.48	-0.000
289.69	-0.000
289.90	-0.000
290.11	-0.000
290.33	-0.000
290.54	-0.000
290.75	-0.000
290.96	-0.000
291.17	-0.000
291.38	-0.000
291.59	-0.000
291.81	-0.000
292.02	-0.000
292.23	-0.000
292.44	-0.000
292.65	-0.000
292.86	-0.000
293.07	-0.000
293.28	-0.000
293.50	-0.000
293.71	-0.000
293.92	-0.000
294.13	-0.000
294.34	-0.000
294.55	-0.000
294.76	-0.000
294.97	-0.000
295.19	-0.000
295.40	-0.000
295.61	-0.000
295.82	-0.000
296.03	2.769
296.24	3.447
296.45	1.974
296.66	1.714
296.87	1.745
297.09	1.797
297.30	1.942
297.51	1.653
297.72	1.633
297.93	1.714
298.14	1.690
298.35	1.654
298.56	1.631
298.77	1.722
298.99	1.690
299.20	1.663
299.41	1.651
299.62	1.614
299.83	1.600
300.04	1.543
300.25	1.529
300.46	1.548
300.67	1.529
300.88	1.480
301.10	1.480
301.31	1.543
301.52	1.492
301.73	1.448
301.94	1.447
302.15	1.466
302.36	1.429
302.57	1.380
302.78	1.391
302.99	1.426
303.20	1.448
303.41	1.373
303.63	1.356
303.84	1.359
304.05	1.355
304.26	1.301
304.47	1.302
304.68	1.304
304.89	1.296
305.10	1.259
305.31	1.248
305.52	1.285
305.73	1.279
305.94	1.246
306.15	1.239
306.37	1.261
306.58	1.270
306.79	1.248
307.00	1.273
307.21	1.306
307.42	1.300
307.63	1.268
307.84	1.238
308.05	1.270
308.26	1.270
308.47	1.250
308.68	1.242
308.89	1.239
309.10	1.233
309.31	1.195
309.52	1.187
309.73	1.201
309.95	1.195
310.16	1.169
310.37	1.160
310.58	1.172
310.79	1.171
311.00	1.169
311.21	1.173
311.42	1.170
311.63	1.165
311.84	1.151
312.05	1.148
312.26	1.169
312.47	1.181
312.68	1.159
312.89	1.144
313.10	1.147
313.31	1.121
313.52	1.124
313.73	1.127
313.94	1.129
314.15	1.112
314.36	1.092
314.57	1.085
314.78	1.073
314.99	1.069
315.21	1.059
315.42	1.065
315.63	1.079
315.84	1.056
316.05	1.045
316.26	1.052
316.47	1.068
316.68	1.066
316.89	1.046
317.10	1.064
317.31	1.067
317.52	1.069
317.73	1.050
317.94	1.049
318.15	1.090
318.36	1.089
318.57	1.072
318.78	1.059
318.99	1.090
319.20	1.088
319.41	1.057
319.62	1.060
319.83	1.073
320.04	1.068
320.25	1.055
320.46	1.022
320.67	1.025
320.88	1.020
321.09	1.011
321.30	0.998
321.51	1.012
321.72	1.009
321.93	0.993
322.14	0.984
322.35	1.010
322.56	1.013
322.77	1.003
322.98	1.012
323.19	1.020
323.40	1.025
323.61	1.006
323.82	1.001
324.03	1.007
324.24	1.005
324.45	0.995
324.66	0.976
324.87	0.971
325.08	0.971
325.29	0.954
325.50	0.948
325.71	0.952
325.92	0.960
326.13	0.948
326.34	0.948
326.55	0.956
326.76	0.954
326.97	0.944
327.18	0.938
327.39	0.961
327.60	0.962
327.80	0.963
328.01	0.961
328.22	0.959
328.43	0.962
328.64	0.950
328.85	0.953
329.06	0.953
329.27	0.954
329.48	0.951
329.69	0.933
329.90	0.941
330.11	0.934
330.32	0.929
330.53	0.923
330.74	0.921
330.95	0.920
331.16	0.908
331.37	0.916
331.58	0.915
331.79	0.915
332.00	0.908
332.21	0.902
332.42	0.905
332.63	0.898
332.83	0.895
333.04	0.897
333.25	0.908
333.46	0.906
333.67	0.893
333.88	0.896
334.09	0.905
334.30	0.903
334.51	0.895
334.72	0.891
334.93	0.892
335.14	0.891
335.35	0.884
335.56	0.879
335.77	0.887
335.98	0.885
336.18	0.880
336.39	0.872
336.60	0.875
336.81	0.873
337.02	0.873
337.23	0.878
337.44	0.880
337.65	0.883
337.86	0.874
338.07	0.870
338.28	0.874
338.49	0.872
338.70	0.865
338.91	0.873
339.11	0.879
339.32	0.876
339.53	0.865
339.74	0.861
339.95	0.858
340.16	0.854
340.37	0.847
340.58	0.845
340.79	0.846
341.00	0.847
341.21	0.837
341.41	0.836
341.62	0.837
341.83	0.838
342.04	0.834
342.25	0.844
342.46	0.848
342.67	0.847
342.88	0.841
343.09	0.840
343.30	0.846
343.50	0.850
343.71	0.842
343.92	0.841
344.13	0.844
344.34	0.843
344.55	0.828
344.76	0.827
344.97	0.832
345.18	0.831
345.38	0.829
345.59	0.825
345.80	0.823
346.01	0.821
346.22	0.816
346.43	0.810
346.64	0.817
346.85	0.817
347.06	0.810
347.26	0.810
347.47	0.814
347.68	0.809
347.89	0.806
348.10	0.801
348.31	0.808
348.52	0.808
348.73	0.806
348.93	0.804
349.14	0.805
349.35	0.805
349.56	0.801
349.77	0.795
349.98	0.800
350.19	0.798
350.39	0.793
350.60	0.790
350.81	0.805
351.02	0.803
351.23	0.799
351.44	0.802
351.65	0.803
351.86	0.800
352.06	0.799
352.27	0.800
352.48	0.801
352.69	0.799
352.90	0.794
353.11	0.780
353.31	0.788
353.52	0.783
353.73	0.776
353.94	0.777
354.15	0.781
354.36	0.782
354.57	0.773
354.77	0.776
354.98	0.775
355.19	0.774
355.40	0.774
355.61	0.778
355.82	0.783
356.02	0.782
356.23	0.776
356.44	0.778
356.65	0.781
356.86	0.781
357.07	0.774
357.27	0.777
357.48	0.780
357.69	0.776
357.90	0.762
358.11	0.760
358.32	0.763
358.52	0.766
358.73	0.756
358.94	0.758
359.15	0.763
359.36	0.765
359.56	0.760
359.77	0.757
359.98	0.763
360.19	0.763
360.40	0.758
360.61	0.759
360.81	0.757
361.02	0.757
361.23	0.749
361.44	0.747
361.65	0.748
361.85	0.748
362.06	0.746
362.27	0.748
362.48	0.747
362.69	0.751
362.89	0.746
363.10	0.747
363.31	0.752
363.52	0.755
363.73	0.751
363.93	0.750
364.14	0.751
364.35	0.752
364.56	0.742
364.77	0.745
364.97	0.746
365.18	0.747
365.39	0.742
365.60	0.739
365.81	0.740
366.01	0.740
366.22	0.738
366.43	0.737
366.64	0.738
366.84	0.745
367.05	0.741
367.26	0.740
367.47	0.741
367.68	0.742
367.88	0.739
368.09	0.737
368.30	0.739
368.51	0.738
368.71	0.738
368.92	0.741
369.13	0.739
369.34	0.739
369.55	0.737
369.75	0.737
369.96	0.743
370.17	0.743
370.38	0.740
370.58	0.739
370.79	0.744
371.00	0.743
371.21	0.736
371.41	0.741
371.62	0.744
371.83	0.741
372.04	0.739
372.24	0.732
372.45	0.734
372.66	0.735
372.87	0.732
373.07	0.729
373.28	0.730
373.49	0.733
373.70	0.724
373.90	0.724
374.11	0.733
374.32	0.733
374.53	0.732
374.73	0.731
374.94	0.732
375.15	0.732
375.36	0.730
375.56	0.738
375.77	0.737
375.98	0.738
376.19	0.735
376.39	0.729
376.60	0.732
376.81	0.733
377.02	0.731
377.22	0.731
377.43	0.731
377.64	0.731
377.84	0.723
378.05	0.727
378.26	0.733
378.47	0.733
378.67	0.730
378.88	0.728
379.09	0.728
379.30	0.728
379.50	0.725
379.71	0.727
379.92	0.730
380.12	0.729
380.33	0.720
380.54	0.717
380.75	0.722
380.95	0.723
381.16	0.721
381.37	0.721
381.57	0.722
381.78	0.723
381.99	0.723
382.20	0.722
382.40	0.726
382.61	0.727
382.82	0.724
383.02	0.718
383.23	0.722
383.44	0.722
383.64	0.721
383.85	0.724
384.06	0.726
384.27	0.724
384.47	0.722
384.68	0.722
384.89	0.728
385.09	0.727
385.30	0.726
385.51	0.725
385.71	0.728
385.92	0.728
386.13	0.726
386.33	0.729
386.54	0.730
386.75	0.729
386.95	0.726
387.16	0.721
387.37	0.723
387.58	0.724
387.78	0.722
387.99	0.720
388.20	0.722
388.40	0.719
388.61	0.715
388.82	0.718
389.02	0.720
389.23	0.720
389.44	0.719
389.64	0.720
389.85	0.731
390.06	0.730
390.26	0.731
390.47	0.731
390.68	0.733
390.88	0.732
391.09	0.728
391.30	0.727
391.50	0.727
391.71	0.727
391.92	0.724
392.12	0.717
392.33	0.717
392.53	0.717
392.74	0.718
392.95	0.717
393.15	0.720
393.36	0.721
393.57	0.720
393.77	0.722
393.98	0.724
394.19	0.723
394.39	0.722
394.60	0.723
394.81	0.725
395.01	0.722
395.22	0.722
395.43	0.721
395.63	0.726
395.84	0.727
396.04	0.724
396.25	0.726
396.46	0.728
396.66	0.727
396.87	0.725
397.08	0.723
397.28	0.725
397.49	0.726
397.69	0.724
397.90	0.719
398.11	0.721
398.31	0.721
398.52	0.718
398.73	0.719
398.93	0.718
399.14	0.718
399.34	0.716
399.55	0.718
399.76	0.717
399.96	0.718
400.17	0.716
400.37	0.714
400.58	0.721
400.79	0.723
400.99	0.720
401.20	0.726
401.41	0.727
401.61	0.728
401.82	0.733
402.02	0.733
402.23	0.734
402.44	0.734
402.64	0.734
402.85	0.729
403.05	0.728
403.26	0.726
403.47	0.721
403.67	0.721
403.88	0.721
404.08	0.716
404.29	0.714
404.50	0.714
404.70	0.715
404.91	0.714
405.11	0.712
405.32	0.712
405.52	0.712
405.73	0.712
405.94	0.711
406.14	0.714
406.35	0.715
406.55	0.715
406.76	0.714
406.97	0.715
407.17	0.718
407.38	0.717
407.58	0.716
407.79	0.719
407.99	0.721
408.20	0.722
408.41	0.717
408.61	0.715
408.82	0.716
409.02	0.716
409.23	0.713
409.43	0.711
409.64	0.713
409.84	0.712
410.05	0.709
410.26	0.707
410.46	0.707
410.67	0.707
410.87	0.708
411.08	0.710
411.28	0.711
411.49	0.713
411.69	0.711
411.90	0.712
412.11	0.713
412.31	0.714
412.52	0.712
412.72	0.713
412.93	0.714
413.13	0.713
413.34	0.710
413.54	0.711
413.75	0.713
413.95	0.712
414.16	0.709
414.37	0.712
414.57	0.713
414.78	0.716
414.98	0.714
415.19	0.716
415.39	0.713
415.60	0.715
415.80	0.714
416.01	0.712
416.21	0.714
416.42	0.714
416.62	0.709
416.83	0.708
417.03	0.707
417.24	0.707
417.44	0.705
417.65	0.704
417.86	0.704
418.06	0.702
418.27	0.700
418.47	0.702
418.68	0.703
418.88	0.703
419.09	0.702
419.29	0.703
419.50	0.703
419.70	0.703
419.91	0.702
420.11	0.700
420.32	0.702
420.52	0.702
420.73	0.701
420.93	0.702
421.14	0.704
421.34	0.702
421.55	0.698
421.75	0.699
421.96	0.700
422.16	0.700
422.37	0.699
422.57	0.695
422.78	0.696
422.98	0.693
423.19	0.690
423.39	0.689
423.60	0.692
423.80	0.694
424.01	0.692
424.21	0.695
424.42	0.696
424.62	0.696
424.83	0.695
425.03	0.695
425.23	0.697
425.44	0.697
425.64	0.697
425.85	0.696
426.05	0.696
426.26	0.697
426.46	0.693
426.67	0.692
426.87	0.697
427.08	0.698
427.28	0.696
427.49	0.697
427.69	0.698
427.90	0.696
428.10	0.693
428.31	0.693
428.51	0.695
428.71	0.694
428.92	0.695
429.12	0.692
429.33	0.692
429.53	0.696
429.74	0.701
429.94	0.702
430.15	0.701
430.35	0.701
430.56	0.698
430.76	0.697
430.96	0.697
431.17	0.695
431.37	0.692
431.58	0.690
431.78	0.687
431.99	0.679
432.19	0.681
432.40	0.682
432.60	0.683
432.80	0.685
433.01	0.684
433.21	0.684
433.42	0.686
433.62	0.686
433.83	0.687
434.03	0.689
434.23	0.692
434.44	0.690
434.64	0.688
434.85	0.693
435.05	0.694
435.26	0.694
435.46	0.693
435.66	0.692
435.87	0.692
436.07	0.692
436.28	0.688
436.48	0.686
436.69	0.685
436.89	0.685
437.09	0.679
437.30	0.677
437.50	0.678
437.71	0.689
437.91	0.688
438.11	0.689
438.32	0.693
438.52	0.693
438.73	0.692
438.93	0.691
439.13	0.691
439.34	0.694
439.54	0.693
439.75	0.692
439.95	0.683
440.15	0.687
440.36	0.686
440.56	0.683
440.77	0.684
440.97	0.684
441.17	0.683
441.38	0.684
441.58	0.681
441.79	0.680
441.99	0.679
442.19	0.677
442.40	0.675
442.60	0.675
442.81	0.672
443.01	0.673
443.21	0.673
443.42	0.672
443.62	0.671
443.82	0.670
444.03	0.672
444.23	0.672
444.44	0.672
444.64	0.671
444.84	0.672
445.05	0.672
445.25	0.670
445.45	0.670
445.66	0.672
445.86	0.671
446.06	0.673
446.27	0.672
446.47	0.674
446.68	0.673
446.88	0.671
447.08	0.671
447.29	0.672
447.49	0.672
447.69	0.672
447.90	0.671
448.10	0.674
448.30	0.671
448.51	0.673
448.71	0.670
448.91	0.672
449.12	0.671
449.32	0.672
449.52	0.671
449.73	0.675
449.93	0.674
450.14	0.674
450.34	0.674
450.54	0.676
450.75	0.673
450.95	0.672
451.15	0.672
451.36	0.674
451.56	0.671
451.76	0.670
451.97	0.667
452.17	0.667
452.37	0.665
452.58	0.662
452.78	0.661
452.98	0.664
453.19	0.663
453.39	0.664
453.59	0.663
453.79	0.663
454.00	0.664
454.20	0.663
454.40	0.663
454.61	0.664
454.81	0.665
455.01	0.663
455.22	0.664
455.42	0.666
455.62	0.663
455.83	0.663
456.03	0.667
456.23	0.667
456.44	0.668
456.64	0.667
456.84	0.667
457.04	0.668
457.25	0.667
457.45	0.664
457.65	0.663
457.86	0.664
458.06	0.663
458.26	0.658
458.47	0.658
458.67	0.660
458.87	0.660
459.07	0.658
459.28	0.660
459.48	0.662
459.68	0.662
459.89	0.661
460.09	0.660
460.29	0.661
460.49	0.662
460.70	0.661
460.90	0.661
461.10	0.661
461.31	0.661
461.51	0.658
461.71	0.660
461.91	0.661
462.12	0.661
462.32	0.660
462.52	0.661
462.72	0.664
462.93	0.665
463.13	0.662
463.33	0.663
463.53	0.664
463.74	0.663
463.94	0.658
464.14	0.658
464.35	0.659
464.55	0.659
464.75	0.657
464.95	0.655
465.16	0.657
465.36	0.656
465.56	0.656
465.76	0.655
465.97	0.656
466.17	0.656
466.37	0.655
466.57	0.655
466.78	0.656
466.98	0.656
467.18	0.653
467.38	0.652
467.59	0.654
467.79	0.655
467.99	0.654
468.19	0.655
468.39	0.658
468.60	0.658
468.80	0.657
469.00	0.658
469.20	0.659
469.41	0.660
469.61	0.659
469.81	0.659
470.01	0.659
470.22	0.660
470.42	0.658
470.62	0.656
470.82	0.657
471.02	0.656
471.23	0.655
471.43	0.654
471.63	0.657
471.83	0.656
472.04	0.655
472.24	0.653
472.44	0.658
472.64	0.658
472.84	0.657
473.05	0.657
473.25	0.659
473.45	0.659
473.65	0.657
473.85	0.658
474.06	0.660
474.26	0.659
474.46	0.661
474.66	0.657
474.86	0.657
475.07	0.657
475.27	0.655
475.47	0.652
475.67	0.653
475.87	0.654
476.08	0.650
476.28	0.652
476.48	0.653
476.68	0.651
476.88	0.649
477.09	0.651
477.29	0.653
477.49	0.653
477.69	0.652
477.89	0.652
478.09	0.652
478.30	0.654
478.50	0.652
478.70	0.651
478.90	0.652
479.10	0.654
479.31	0.655
479.51	0.653
479.71	0.654
479.91	0.654
480.11	0.653
480.31	0.653
480.52	0.652
480.72	0.651
480.92	0.650
481.12	0.649
481.32	0.646
481.52	0.644
481.72	0.645
481.93	0.648
482.13	0.649
482.33	0.649
482.53	0.647
482.73	0.647
482.93	0.648
483.14	0.648
483.34	0.647
483.54	0.649
483.74	0.648
483.94	0.646
484.14	0.642
484.34	0.642
484.55	0.643
484.75	0.642
484.95	0.641
485.15	0.640
485.35	0.640
485.55	0.640
485.75	0.638
485.96	0.638
486.16	0.640
486.36	0.639
486.56	0.638
486.76	0.637
486.96	0.638
487.16	0.637
487.36	0.635
487.57	0.635
487.77	0.635
487.97	0.635
488.17	0.634
488.37	0.633
488.57	0.633
488.77	0.633
488.97	0.632
489.18	0.632
489.38	0.634
489.58	0.635
489.78	0.634
489.98	0.634
490.18	0.634
490.38	0.634
490.58	0.633
490.78	0.634
490.98	0.636
491.19	0.636
491.39	0.635
491.59	0.634
491.79	0.637
491.99	0.638
492.19	0.637
492.39	0.640
492.59	0.641
492.79	0.643
492.99	0.643
493.20	0.643
493.40	0.643
493.60	0.645
493.80	0.643
494.00	0.640
494.20	0.641
494.40	0.640
494.60	0.638
494.80	0.642
495.00	0.641
495.20	0.640
495.40	0.638
495.61	0.640
495.81	0.640
496.01	0.643
496.21	0.644
496.41	0.644
496.61	0.644
496.81	0.643
497.01	0.638
497.21	0.637
497.41	0.638
497.61	0.638
497.81	0.636
498.01	0.636
498.21	0.634
498.41	0.632
498.61	0.632
498.82	0.633
499.02	0.635
499.22	0.636
499.42	0.636
499.62	0.637
499.82	0.637
500.02	0.639
500.22	0.637
500.42	0.639
500.62	0.640
500.82	0.640
501.02	0.638
501.22	0.638
501.42	0.638
501.62	0.640
501.82	0.639
502.02	0.639
502.22	0.638
502.42	0.640
502.62	0.637
502.82	0.638
503.02	0.638
503.22	0.638
503.42	0.636
503.63	0.636
503.83	0.634
504.03	0.632
504.23	0.631
504.43	0.632
504.63	0.633
504.83	0.633
505.03	0.632
505.23	0.634
505.43	0.635
505.63	0.636
505.83	0.636
506.03	0.637
506.23	0.639
506.43	0.639
506.63	0.638
506.83	0.637
507.03	0.639
507.23	0.639
507.43	0.636
507.63	0.637
507.83	0.637
508.03	0.637
508.23	0.637
508.43	0.636
508.63	0.638
508.83	0.638
509.03	0.639
509.23	0.638
509.43	0.639
509.63	0.639
509.83	0.638
510.03	0.640
510.23	0.641
510.43	0.642
510.63	0.642
510.83	0.642
511.03	0.644
511.23	0.641
511.43	0.641
511.63	0.643
511.83	0.645
512.03	0.645
512.22	0.642
512.42	0.642
512.62	0.643
512.82	0.642
513.02	0.642
513.22	0.641
513.42	0.643
513.62	0.646
513.82	0.644
514.02	0.643
514.22	0.644
514.42	0.644
514.62	0.644
514.82	0.644
515.02	0.646
515.22	0.649
515.42	0.648
515.62	0.650
515.82	0.648
516.02	0.649
516.22	0.650
516.42	0.651
516.62	0.652
516.82	0.653
517.01	0.652
517.21	0.651
517.41	0.655
517.61	0.655
517.81	0.652
518.01	0.651
518.21	0.651
518.41	0.650
518.61	0.649
518.81	0.649
519.01	0.649
519.21	0.649
519.41	0.648
519.61	0.643
519.81	0.645
520.00	0.646
520.20	0.647
520.40	0.649
520.60	0.650
520.80	0.649
521.00	0.650
521.20	0.651
521.40	0.656
521.60	0.657
521.80	0.656
522.00	0.656
522.20	0.658
522.39	0.658
522.59	0.655
522.79	0.657
522.99	0.659
523.19	0.658
523.39	0.656
523.59	0.654
523.79	0.656
523.99	0.658
524.19	0.657
524.38	0.655
524.58	0.656
524.78	0.656
524.98	0.654
525.18	0.656
525.38	0.657
525.58	0.658
525.78	0.655
525.98	0.653
526.18	0.654
526.37	0.653
526.57	0.655
526.77	0.655
526.97	0.656
527.17	0.656
527.37	0.653
527.57	0.655
527.77	0.657
527.96	0.658
528.16	0.656
528.36	0.658
528.56	0.660
528.76	0.657
528.96	0.656
529.16	0.658
529.36	0.660
529.55	0.660
529.75	0.658
529.95	0.656
530.15	0.658
530.35	0.660
530.55	0.658
530.75	0.658
530.94	0.659
531.14	0.660
531.34	0.658
531.54	0.656
531.74	0.659
531.94	0.662
532.13	0.660
532.33	0.662
532.53	0.661
532.73	0.661
532.93	0.659
533.13	0.661
533.33	0.660
533.52	0.661
533.72	0.665
533.92	0.663
534.12	0.661
534.32	0.661
534.52	0.660
534.71	0.661
534.91	0.664
535.11	0.665
535.31	0.664
535.51	0.666
535.71	0.667
535.90	0.664
536.10	0.665
536.30	0.668
536.50	0.668
536.70	0.668
536.89	0.665
537.09	0.665
537.29	0.665
537.49	0.666
537.69	0.665
537.89	0.665
538.08	0.666
538.28	0.663
538.48	0.663
538.68	0.665
538.88	0.667
539.07	0.667
539.27	0.666
539.47	0.665
539.67	0.665
539.87	0.666
540.06	0.664
540.26	0.665
540.46	0.667
540.66	0.664
540.86	0.662
541.05	0.662
541.25	0.663
541.45	0.664
541.65	0.662
541.84	0.665
542.04	0.665
542.24	0.665
542.44	0.664
542.64	0.666
542.83	0.668
543.03	0.668
543.23	0.666
543.43	0.667
543.62	0.668
543.82	0.669
544.02	0.667
544.22	0.667
544.42	0.671
544.61	0.671
544.81	0.668
545.01	0.667
545.21	0.670
545.40	0.670
545.60	0.669
545.80	0.672
546.00	0.671
546.19	0.670
546.39	0.669
546.59	0.667
546.79	0.668
546.98	0.669
547.18	0.668
547.38	0.669
547.58	0.671
547.77	0.671
547.97	0.667
548.17	0.669
548.37	0.670
548.56	0.671
548.76	0.670
548.96	0.671
549.16	0.673
549.35	0.674
549.55	0.671
549.75	0.672
549.95	0.676
550.14	0.675
550.34	0.673
550.54	0.678
550.73	0.682
550.93	0.682
551.13	0.679
551.33	0.678
551.52	0.678
551.72	0.679
551.92	0.677
552.12	0.678
552.31	0.679
552.51	0.679
552.71	0.673
552.90	0.673
553.10	0.674
553.30	0.674
553.50	0.673
553.69	0.674
553.89	0.674
554.09	0.675
554.28	0.671
554.48	0.673
554.68	0.674
554.87	0.675
555.07	0.672
555.27	0.672
555.47	0.674
555.66	0.675
555.86	0.673
556.06	0.676
556.25	0.677
556.45	0.684
556.65	0.683
556.84	0.686
557.04	0.689
557.24	0.691
557.43	0.690
557.63	0.693
557.83	0.695
558.02	0.696
558.22	0.700
558.42	0.700
558.61	0.693
558.81	0.693
559.01	0.689
559.21	0.688
559.40	0.689
559.60	0.689
559.80	0.686
559.99	0.687
560.19	0.689
560.39	0.683
560.58	0.681
560.78	0.682
560.97	0.685
561.17	0.683
561.37	0.681
561.56	0.682
561.76	0.683
561.96	0.683
562.15	0.681
562.35	0.682
562.55	0.684
562.74	0.683
562.94	0.682
563.14	0.680
563.33	0.681
563.53	0.681
563.73	0.679
563.92	0.680
564.12	0.683
564.31	0.685
564.51	0.684
564.71	0.685
564.90	0.688
565.10	0.688
565.30	0.691
565.49	0.692
565.69	0.694
565.89	0.695
566.08	0.692
566.28	0.693
566.47	0.695
566.67	0.693
566.87	0.691
567.06	0.693
567.26	0.700
567.46	0.696
567.65	0.696
567.85	0.698
568.04	0.702
568.24	0.701
568.44	0.698
568.63	0.696
568.83	0.697
569.02	0.696
569.22	0.691
569.42	0.687
569.61	0.689
569.81	0.688
570.00	0.685
570.20	0.686
570.40	0.687
570.59	0.686
570.79	0.684
570.98	0.683
571.18	0.684
571.38	0.684
571.57	0.681
571.77	0.679
571.96	0.682
572.16	0.680
572.35	0.674
572.55	0.675
572.75	0.674
572.94	0.674
573.14	0.672
573.33	0.672
573.53	0.672
573.73	0.672
573.92	0.670
574.12	0.668
574.31	0.671
574.51	0.672
574.70	0.669
574.90	0.671
575.09	0.672
575.29	0.673
575.49	0.670
575.68	0.670
575.88	0.672
576.07	0.673
576.27	0.671
576.46	0.670
576.66	0.669
576.86	0.668
577.05	0.666
577.25	0.665
577.44	0.666
577.64	0.666
577.83	0.664
578.03	0.666
578.22	0.665
578.42	0.664
578.61	0.662
578.81	0.663
579.00	0.663
579.20	0.663
579.40	0.662
579.59	0.660
579.79	0.661
579.98	0.660
580.18	0.659
580.37	0.659
580.57	0.661
580.76	0.665
580.96	0.664
581.15	0.665
581.35	0.667
581.54	0.666
581.74	0.666
581.93	0.668
582.13	0.669
582.32	0.666
582.52	0.664
582.71	0.663
582.91	0.659
583.10	0.659
583.30	0.658
583.49	0.657
583.69	0.660
583.88	0.661
584.08	0.660
584.27	0.663
584.47	0.666
584.66	0.667
584.86	0.666
585.05	0.669
585.25	0.671
585.44	0.671
585.64	0.670
585.83	0.666
586.03	0.666
586.22	0.665
586.42	0.661
586.61	0.662
586.81	0.663
587.00	0.663
587.20	0.660
587.39	0.660
587.59	0.662
587.78	0.663
587.98	0.664
588.17	0.665
588.37	0.668
588.56	0.669
588.76	0.665
588.95	0.666
589.15	0.670
589.34	0.673
589.54	0.672
589.73	0.673
589.92	0.676
590.12	0.676
590.31	0.675
590.51	0.680
590.70	0.681
590.90	0.682
591.09	0.680
591.29	0.678
591.48	0.678
591.68	0.679
591.87	0.678
592.06	0.677
592.26	0.679
592.45	0.678
592.65	0.671
592.84	0.671
593.04	0.673
593.23	0.675
593.43	0.672
593.62	0.672
593.81	0.672
594.01	0.671
594.20	0.670
594.40	0.669
594.59	0.670
594.79	0.672
594.98	0.670
595.17	0.670
595.37	0.671
595.56	0.673
595.76	0.672
595.95	0.674
596.14	0.676
596.34	0.678
596.53	0.676
596.73	0.678
596.92	0.681
597.12	0.684
597.31	0.684
597.50	0.683
597.70	0.684
597.89	0.684
598.09	0.680
598.28	0.682
598.47	0.683
598.67	0.682
598.86	0.678
599.06	0.679
599.25	0.679
599.44	0.677
599.64	0.674
599.83	0.671
600.03	0.674
600.22	0.675
600.41	0.674
600.61	0.672
600.80	0.674
601.00	0.674
601.19	0.670
601.38	0.668
601.58	0.670
601.77	0.671
601.96	0.674
602.16	0.674
602.35	0.682
602.55	0.681
602.74	0.682
602.93	0.685
603.13	0.690
603.32	0.691
603.51	0.692
603.71	0.695
603.90	0.696
604.09	0.697
604.29	0.695
604.48	0.689
604.68	0.690
604.87	0.689
605.06	0.685
605.26	0.681
605.45	0.682
605.64	0.681
605.84	0.676
606.03	0.675
606.22	0.673
606.42	0.673
606.61	0.669
606.80	0.669
607.00	0.670
607.19	0.670
607.38	0.669
607.58	0.670
607.77	0.673
607.96	0.672
608.16	0.671
608.35	0.676
608.54	0.679
608.74	0.682
608.93	0.687
609.12	0.689
609.32	0.692
609.51	0.695
609.70	0.694
609.90	0.696
610.09	0.701
610.28	0.706
610.48	0.700
610.67	0.702
610.86	0.703
611.06	0.697
611.25	0.696
611.44	0.697
611.64	0.697
611.83	0.699
612.02	0.696
612.21	0.694
612.41	0.693
612.60	0.692
612.79	0.688
612.99	0.689
613.18	0.691
613.37	0.689
613.57	0.685
613.76	0.687
613.95	0.685
614.14	0.684
614.34	0.681
614.53	0.682
614.72	0.685
614.92	0.685
615.11	0.682
615.30	0.678
615.49	0.679
615.69	0.682
615.88	0.678
616.07	0.679
616.26	0.681
616.46	0.683
616.65	0.680
616.84	0.679
617.04	0.680
617.23	0.684
617.42	0.684
617.61	0.688
617.81	0.688
618.00	0.690
618.19	0.690
618.38	0.693
618.58	0.697
618.77	0.698
618.96	0.697
619.15	0.699
619.35	0.700
619.54	0.701
619.73	0.696
619.92	0.698
620.12	0.702
620.31	0.702
620.50	0.697
620.69	0.696
620.89	0.700
621.08	0.700
621.27	0.700
621.46	0.700
621.66	0.703
621.85	0.704
622.04	0.701
622.23	0.702
622.43	0.703
622.62	0.703
622.81	0.702
623.00	0.701
623.19	0.704
623.39	0.703
623.58	0.700
623.77	0.698
623.96	0.700
624.16	0.700
624.35	0.694
624.54	0.697
624.73	0.701
624.92	0.699
625.12	0.696
625.31	0.697
625.50	0.699
625.69	0.700
625.88	0.697
626.08	0.696
626.27	0.698
626.46	0.699
626.65	0.695
626.84	0.695
627.04	0.701
627.23	0.701
627.42	0.697
627.61	0.699
627.80	0.702
628.00	0.702
628.19	0.701
628.38	0.703
628.57	0.706
628.76	0.706
628.96	0.702
629.15	0.702
629.34	0.706
629.53	0.706
629.72	0.699
629.91	0.700
630.11	0.705
630.30	0.705
630.49	0.709
630.68	0.709
630.87	0.712
631.06	0.714
631.26	0.708
631.45	0.710
631.64	0.717
631.83	0.720
632.02	0.717
632.21	0.715
632.41	0.722
632.60	0.716
632.79	0.715
632.98	0.714
633.17	0.716
633.36	0.718
633.55	0.714
633.75	0.711
633.94	0.712
634.13	0.712
634.32	0.710
634.51	0.704
634.70	0.706
634.89	0.706
635.09	0.703
635.28	0.703
635.47	0.705
635.66	0.707
635.85	0.703
636.04	0.704
636.23	0.709
636.43	0.710
636.62	0.709
636.81	0.708
637.00	0.711
637.19	0.714
637.38	0.711
637.57	0.711
637.76	0.712
637.95	0.714
638.15	0.710
638.34	0.707
638.53	0.710
638.72	0.711
638.91	0.709
639.10	0.707
639.29	0.707
639.48	0.707
639.67	0.708
639.87	0.706
640.06	0.710
640.25	0.709
640.44	0.710
640.63	0.711
640.82	0.713
641.01	0.713
641.20	0.712
641.39	0.714
641.58	0.716
641.78	0.715
641.97	0.712
642.16	0.726
642.35	0.727
642.54	0.725
642.73	0.720
642.92	0.718
643.11	0.721
643.30	0.721
643.49	0.716
643.68	0.719
643.87	0.720
644.06	0.720
644.25	0.701
644.45	0.703
644.64	0.704
644.83	0.705
645.02	0.703
645.21	0.702
645.40	0.703
645.59	0.704
645.78	0.698
645.97	0.700
646.16	0.701
646.35	0.701
646.54	0.700
646.73	0.701
646.92	0.703
647.11	0.702
647.30	0.699
647.49	0.701
647.68	0.700
647.88	0.698
648.07	0.692
648.26	0.696
648.45	0.698
648.64	0.694
648.83	0.692
649.02	0.694
649.21	0.704
649.40	0.703
649.59	0.698
649.78	0.699
649.97	0.713
650.16	0.712
650.35	0.706
650.54	0.707
650.73	0.715
650.92	0.713
651.11	0.705
651.30	0.702
651.49	0.706
651.68	0.707
651.87	0.704
652.06	0.694
652.25	0.697
652.44	0.700
652.63	0.700
652.82	0.702
653.01	0.702
653.20	0.702
653.39	0.690
653.58	0.687
653.77	0.686
653.96	0.681
654.15	0.674
654.34	0.672
654.53	0.667
654.72	0.660
654.91	0.650
655.10	0.646
655.29	0.643
655.48	0.642
655.67	0.637
655.86	0.634
656.05	0.633
656.24	0.632
656.43	0.627
656.62	0.626
656.81	0.626
657.00	0.623
657.19	0.619
657.38	0.619
657.57	0.617
657.76	0.618
657.95	0.616
658.14	0.620
658.33	0.622
658.51	0.625
658.70	0.625
658.89	0.626
659.08	0.636
659.27	0.645
659.46	0.646
659.65	0.654
659.84	0.658
660.03	0.661
660.22	0.661
660.41	0.666
660.60	0.665
660.79	0.667
660.98	0.672
661.17	0.671
661.36	0.670
661.55	0.671
661.74	0.669
661.92	0.672
662.11	0.674
662.30	0.672
662.49	0.666
662.68	0.665
662.87	0.668
663.06	0.663
663.25	0.663
663.44	0.664
663.63	0.665
663.82	0.663
664.01	0.658
664.20	0.658
664.38	0.659
664.57	0.661
664.76	0.661
664.95	0.661
665.14	0.665
665.33	0.661
665.52	0.668
665.71	0.672
665.90	0.671
666.09	0.672
666.28	0.669
666.46	0.668
666.65	0.668
666.84	0.666
667.03	0.661
667.22	0.658
667.41	0.661
667.60	0.652
667.79	0.645
667.98	0.647
668.16	0.648
668.35	0.648
668.54	0.645
668.73	0.646
668.92	0.647
669.11	0.646
669.30	0.641
669.49	0.637
669.67	0.638
669.86	0.640
670.05	0.638
670.24	0.636
670.43	0.632
670.62	0.631
670.81	0.626
671.00	0.626
671.18	0.626
671.37	0.625
671.56	0.623
671.75	0.622
671.94	0.619
672.13	0.617
672.32	0.613
672.50	0.613
672.69	0.613
672.88	0.614
673.07	0.610
673.26	0.612
673.45	0.613
673.63	0.613
673.82	0.610
674.01	0.612
674.20	0.611
674.39	0.610
674.58	0.609
674.76	0.609
674.95	0.608
675.14	0.607
675.33	0.603
675.52	0.601
675.71	0.601
675.89	0.600
676.08	0.597
676.27	0.597
676.46	0.598
676.65	0.598
676.84	0.597
677.02	0.599
677.21	0.601
677.40	0.599
677.59	0.597
677.78	0.598
677.96	0.600
678.15	0.600
678.34	0.598
678.53	0.599
678.72	0.598
678.90	0.595
679.09	0.591
679.28	0.588
679.47	0.588
679.66	0.587
679.84	0.584
680.03	0.581
680.22	0.580
680.41	0.581
680.60	0.578
680.78	0.577
680.97	0.580
681.16	0.580
681.35	0.579
681.53	0.578
681.72	0.579
681.91	0.581
682.10	0.580
682.29	0.582
682.47	0.579
682.66	0.578
682.85	0.576
683.04	0.574
683.22	0.574
683.41	0.576
683.60	0.575
683.79	0.575
683.97	0.575
684.16	0.573
684.35	0.570
684.54	0.571
684.72	0.572
684.91	0.573
685.10	0.571
685.29	0.571
685.47	0.568
685.66	0.568
685.85	0.565
686.04	0.564
686.22	0.566
686.41	0.568
686.60	0.565
686.79	0.568
686.97	0.568
687.16	0.570
687.35	0.568
687.54	0.571
687.72	0.575
687.91	0.574
688.10	0.577
688.29	0.576
688.47	0.575
688.66	0.575
688.85	0.571
689.03	0.569
689.22	0.574
689.41	0.575
689.60	0.570
689.78	0.567
689.97	0.568
690.16	0.565
690.34	0.561
690.53	0.561
690.72	0.561
690.91	0.559
691.09	0.557
691.28	0.550
691.47	0.548
691.65	0.547
691.84	0.545
692.03	0.544
692.21	0.542
692.40	0.541
692.59	0.539
692.77	0.538
692.96	0.539
693.15	0.540
693.34	0.538
693.52	0.538
693.71	0.539
693.90	0.540
694.08	0.540
694.27	0.541
694.46	0.550
694.64	0.551
694.83	0.550
695.02	0.549
695.20	0.549
695.39	0.549
695.58	0.549
695.76	0.550
695.95	0.549
696.14	0.549
696.32	0.546
696.51	0.537
696.70	0.537
696.88	0.538
697.07	0.537
697.26	0.538
697.44	0.539
697.63	0.537
697.81	0.535
698.00	0.534
698.19	0.534
698.37	0.534
698.56	0.534
698.75	0.534
698.93	0.533
699.12	0.533
699.31	0.532
699.49	0.532
699.68	0.533
699.87	0.535
700.05	0.536
700.24	0.535
700.42	0.537
700.61	0.536
700.80	0.534
700.98	0.535
701.17	0.536
701.36	0.535
701.54	0.534
701.73	0.535
701.91	0.532
702.10	0.532
702.29	0.530
702.47	0.528
702.66	0.530
702.84	0.530
703.03	0.528
703.22	0.530
703.40	0.529
703.59	0.531
703.77	0.530
703.96	0.531
704.15	0.531
704.33	0.531
704.52	0.531
704.70	0.530
704.89	0.531
705.08	0.530
705.26	0.526
705.45	0.526
705.63	0.525
705.82	0.522
706.00	0.520
706.19	0.521
706.38	0.521
706.56	0.520
706.75	0.518
706.93	0.516
707.12	0.517
707.30	0.517
707.49	0.515
707.68	0.513
707.86	0.513
708.05	0.513
708.23	0.510
708.42	0.510
708.60	0.512
708.79	0.512
708.98	0.510
709.16	0.510
709.35	0.511
709.53	0.515
709.72	0.514
709.90	0.516
710.09	0.518
710.27	0.520
710.46	0.524
710.64	0.522
710.83	0.525
711.02	0.527
711.20	0.526
711.39	0.524
711.57	0.523
711.76	0.523
711.94	0.521
712.13	0.522
712.31	0.521
712.50	0.517
712.68	0.515
712.87	0.516
713.05	0.515
713.24	0.516
713.42	0.515
713.61	0.516
713.79	0.517
713.98	0.517
714.16	0.518
714.35	0.518
714.54	0.519
714.72	0.519
714.91	0.516
715.09	0.523
715.28	0.526
715.46	0.526
715.65	0.523
715.83	0.523
716.02	0.525
716.20	0.521
716.39	0.520
716.57	0.522
716.76	0.524
716.94	0.524
717.12	0.516
717.31	0.517
717.49	0.520
717.68	0.522
717.86	0.522
718.05	0.523
718.23	0.526
718.42	0.528
718.60	0.528
718.79	0.535
718.97	0.538
719.16	0.538
719.34	0.536
719.53	0.536
719.71	0.535
719.90	0.536
720.08	0.534
720.27	0.534
720.45	0.534
720.63	0.533
720.82	0.527
721.00	0.530
721.19	0.533
721.37	0.533
721.56	0.533
721.74	0.535
721.93	0.544
722.11	0.550
722.30	0.549
722.48	0.553
722.66	0.554
722.85	0.554
723.03	0.554
723.22	0.553
723.40	0.555
723.59	0.556
723.77	0.560
723.95	0.553
724.14	0.556
724.32	0.557
724.51	0.556
724.69	0.558
724.88	0.557
725.06	0.556
725.24	0.556
725.43	0.558
725.61	0.560
725.80	0.554
725.98	0.553
726.16	0.549
726.35	0.554
726.53	0.555
726.72	0.553
726.90	0.563
727.09	0.564
727.27	0.568
727.45	0.565
727.64	0.574
727.82	0.582
728.01	0.586
728.19	0.585
728.37	0.590
728.56	0.594
728.74	0.600
728.92	0.589
729.11	0.591
729.29	0.589
729.48	0.592
729.66	0.582
729.84	0.582
730.03	0.584
730.21	0.586
730.40	0.577
730.58	0.577
730.76	0.576
730.95	0.580
731.13	0.580
731.31	0.593
731.50	0.602
731.68	0.605
731.86	0.602
732.05	0.616
732.23	0.617
732.42	0.620
732.60	0.625
732.78	0.631
732.97	0.648
733.15	0.653
733.33	0.642
733.52	0.648
733.70	0.658
733.88	0.666
734.07	0.656
734.25	0.683
734.43	0.689
734.62	0.692
734.80	0.686
734.98	0.676
735.17	0.682
735.35	0.688
735.53	0.677
735.72	0.681
735.90	0.700
736.08	0.717
736.27	0.694
736.45	0.703
736.63	0.713
736.82	0.724
737.00	0.725
737.18	0.737
737.37	0.765
737.55	0.789
737.73	0.784
737.92	0.788
738.10	0.784
738.28	0.802
738.46	0.794
738.65	0.804
738.83	0.824
739.01	0.874
739.20	0.864
739.38	0.847
739.56	0.836
739.75	0.839
739.93	0.807
740.11	0.829
740.29	0.827
740.48	0.830
740.66	0.811
740.84	0.802
741.03	0.768
741.21	0.777
741.39	0.762
741.57	0.773
741.76	0.788
741.94	0.797
742.12	0.764
742.31	0.769
742.49	0.788
742.67	0.811
742.85	0.830
743.04	0.834
743.22	0.843
743.40	0.893
743.58	0.877
743.77	0.896
743.95	0.921
744.13	0.966
744.31	0.951
744.50	0.945
744.68	0.940
744.86	0.914
745.04	0.932
745.23	0.994
745.41	0.975
745.59	0.982
745.77	0.948
745.96	0.942
746.14	0.951
746.32	0.951
746.50	0.943
746.69	0.930
746.87	0.937
747.05	0.916
747.23	0.844
747.42	0.829
747.60	0.852
747.78	0.853
747.96	0.878
748.14	0.839
748.33	0.861
748.51	0.852
748.69	0.849
748.87	0.874
749.06	0.871
749.24	0.872
749.42	0.860
749.60	0.845
749.78	0.851
749.97	0.809
750.15	0.801
750.33	0.801
750.51	0.825
750.69	0.824
750.88	0.830
751.06	0.838
751.24	0.859
751.42	0.855
751.60	0.850
751.79	0.914
751.97	0.952
752.15	0.956
752.33	0.933
752.51	0.988
752.69	1.006
752.88	0.977
753.06	1.024
753.24	1.004
753.42	1.032
753.60	1.186
753.78	1.058
753.97	1.084
754.15	1.098
754.33	1.124
754.51	1.011
754.69	0.992
754.87	1.009
755.06	0.942
755.24	0.941
755.42	0.949
755.60	0.850
755.78	0.860
755.96	0.812
756.15	0.811
756.33	0.813
756.51	0.830
756.69	0.822
756.87	0.795
757.05	0.811
757.23	0.797
757.42	0.766
757.60	0.768
757.78	0.757
757.96	0.754
758.14	0.743
758.32	0.731
758.50	0.741
758.69	0.738
758.87	0.730
759.05	0.732
759.23	0.740
759.41	0.741
759.59	0.735
759.77	0.755
759.95	0.779
760.13	0.823
760.32	0.822
760.50	0.819
760.68	0.841
760.86	0.845
761.04	0.821
761.22	0.826
761.40	0.869
761.58	0.870
761.76	0.848
761.95	0.829
762.13	0.784
762.31	0.785
762.49	0.755
762.67	0.772
762.85	0.783
763.03	0.779
763.21	0.763
763.39	0.746
763.57	0.746
763.75	0.740
763.94	0.726
764.12	0.732
764.30	0.752
764.48	0.756
764.66	0.723
764.84	0.722
765.02	0.756
765.20	0.761
765.38	0.745
765.56	0.750
765.74	0.784
765.92	0.787
766.10	0.791
766.28	0.785
766.46	0.809
766.65	0.810
766.83	0.798
767.01	0.784
767.19	0.787
767.37	0.787
767.55	0.776
767.73	0.759
767.91	0.759
768.09	0.748
768.27	0.738
768.45	0.730
768.63	0.734
768.81	0.737
768.99	0.715
769.17	0.737
769.35	0.750
769.53	0.747
769.71	0.731
769.89	0.740
770.07	0.742
770.25	0.727
770.43	0.708
770.61	0.729
770.79	0.734
770.97	0.743
771.15	0.715
771.33	0.719
771.51	0.723
771.69	0.730
771.87	0.736
772.05	0.742
772.24	0.750
772.42	0.759
772.60	0.739
772.78	0.793
772.96	0.818
773.14	0.812
773.32	0.789
773.49	0.796
773.67	0.796
773.85	0.783
774.03	0.775
774.21	0.803
774.39	0.815
774.57	0.835
774.75	0.767
774.93	0.759
775.11	0.779
775.29	0.788
775.47	0.788
775.65	0.793
775.83	0.803
776.01	0.824
776.19	0.782
776.37	0.781
776.55	0.780
776.73	0.780
776.91	0.777
777.09	0.764
777.27	0.761
777.45	0.751
777.63	0.733
777.81	0.731
777.99	0.716
778.17	0.716
778.35	0.699
778.53	0.687
778.71	0.690
778.89	0.679
779.07	0.671
779.24	0.676
779.42	0.680
779.60	0.696
779.78	0.693
779.96	0.697
780.14	0.704
780.32	0.723
780.50	0.708
780.68	0.705
780.86	0.698
781.04	0.714
781.22	0.718
781.40	0.724
781.58	0.717
781.75	0.712
781.93	0.697
782.11	0.697
782.29	0.683
782.47	0.683
782.65	0.674
782.83	0.699
783.01	0.692
783.19	0.686
783.37	0.674
783.55	0.676
783.72	0.691
783.90	0.700
784.08	0.693
784.26	0.704
784.44	0.722
784.62	0.725
784.80	0.697
784.98	0.702
785.16	0.708
785.33	0.722
785.51	0.710
785.69	0.698
785.87	0.695
786.05	0.706
786.23	0.701
786.41	0.697
786.59	0.705
786.77	0.702
786.94	0.689
787.12	0.690
787.30	0.688
787.48	0.685
787.66	0.673
787.84	0.676
788.02	0.667
788.19	0.666
788.37	0.656
788.55	0.656
788.73	0.658
788.91	0.654
789.09	0.639
789.27	0.629
789.44	0.639
789.62	0.646
789.80	0.655
789.98	0.677
790.16	0.663
790.34	0.658
790.51	0.648
790.69	0.664
790.87	0.671
791.05	0.672
791.23	0.666
791.41	0.667
791.58	0.674
791.76	0.655
791.94	0.629
792.12	0.638
792.30	0.640
792.48	0.638
792.65	0.632
792.83	0.635
793.01	0.642
793.19	0.641
793.37	0.628
793.54	0.624
793.72	0.632
793.90	0.630
794.08	0.619
794.26	0.620
794.43	0.628
794.61	0.613
794.79	0.604
794.97	0.603
795.15	0.607
795.32	0.610
795.50	0.601
795.68	0.597
795.86	0.600
796.04	0.602
796.21	0.596
796.39	0.593
796.57	0.606
796.75	0.612
796.92	0.613
797.10	0.618
797.28	0.618
797.46	0.621
797.64	0.622
797.81	0.629
797.99	0.633
798.17	0.638
798.35	0.633
798.52	0.635
798.70	0.631
798.88	0.640
799.06	0.639
799.23	0.642
799.41	0.648
799.59	0.642
799.77	0.632
799.94	0.640
800.12	0.650
800.30	0.666
800.48	0.665
800.65	0.666
800.83	0.654
801.01	0.648
801.19	0.650
801.36	0.647
801.54	0.648
801.72	0.659
801.90	0.646
802.07	0.640
802.25	0.625
802.43	0.610
802.60	0.607
802.78	0.613
802.96	0.615
803.14	0.609
803.31	0.608
803.49	0.609
803.67	0.605
803.84	0.609
804.02	0.602
804.20	0.607
804.38	0.613
804.55	0.612
804.73	0.600
804.91	0.600
805.08	0.611
805.26	0.605
805.44	0.669
805.61	0.671
805.79	0.670
805.97	0.671
806.15	0.664
806.32	0.660
806.50	0.664
806.68	0.666
806.85	0.660
807.03	0.649
807.21	0.664
807.38	0.600
807.56	0.590
807.74	0.600
807.91	0.603
808.09	0.605
808.27	0.622
808.44	0.647
808.62	0.654
808.80	0.655
808.97	0.653
809.15	0.651
809.33	0.665
809.50	0.673
809.68	0.662
809.86	0.670
810.03	0.697
810.21	0.679
810.39	0.661
810.56	0.666
810.74	0.688
810.91	0.755
811.09	0.744
811.27	0.763
811.44	0.768
811.62	0.769
811.80	0.754
811.97	0.727
812.15	0.726
812.33	0.721
812.50	0.708
812.68	0.696
812.85	0.642
813.03	0.644
813.21	0.615
813.38	0.611
813.56	0.611
813.74	0.621
813.91	0.630
814.09	0.656
814.26	0.650
814.44	0.656
814.62	0.648
814.79	0.653
814.97	0.655
815.14	0.657
815.32	0.660
815.50	0.675
815.67	0.677
815.85	0.667
816.02	0.656
816.20	0.662
816.38	0.674
816.55	0.679
816.73	0.678
816.90	0.688
817.08	0.716
817.26	0.721
817.43	0.704
817.61	0.726
817.78	0.742
817.96	0.726
818.13	0.719
818.31	0.717
818.49	0.729
818.66	0.721
818.84	0.708
819.01	0.688
819.19	0.693
819.36	0.694
819.54	0.667
819.71	0.707
819.89	0.718
820.07	0.728
820.24	0.724
820.42	0.722
820.59	0.737
820.77	0.756
820.94	0.749
821.12	0.763
821.29	0.778
821.47	0.781
821.64	0.725
821.82	0.737
822.00	0.735
822.17	0.732
822.35	0.728
822.52	0.732
822.70	0.727
822.87	0.736
823.05	0.721
823.22	0.732
823.40	0.751
823.57	0.769
823.75	0.751
823.92	0.775
824.10	0.790
824.27	0.828
824.45	0.819
824.62	0.869
824.80	0.884
824.97	0.895
825.15	0.885
825.32	0.900
825.50	0.902
825.67	0.914
825.85	0.892
826.02	0.910
826.20	0.923
826.37	1.029
826.55	0.959
826.72	1.121
826.90	1.177
827.07	1.217
827.25	1.181
827.42	1.293
827.60	1.394
827.77	1.500
827.95	1.492
828.12	1.565
828.30	1.306
828.47	1.415
828.65	1.137
828.82	1.167
829.00	1.205
829.17	1.274
829.34	1.292
829.52	1.329
829.69	-0.000
829.87	-0.000
830.04	-0.000
830.22	-0.000
830.39	-0.000
830.57	-0.000
830.74	-0.000
830.92	-0.000
831.09	-0.000
831.26	-0.000
831.44	-0.000
831.61	-0.000
831.79	-0.000
831.96	-0.000
832.14	-0.000
832.31	-0.000
832.49	-0.000
832.66	-0.000
832.83	-0.000
833.01	-0.000
833.18	-0.000
833.36	-0.000
833.53	-0.000
833.70	-0.000
833.88	-0.000
834.05	-0.000
834.23	-0.000
834.40	-0.000
834.58	-0.000
834.75	-0.000
834.92	-0.000
835.10	-0.000
835.27	-0.000
835.45	-0.000
835.62	-0.000
835.79	-0.000
835.97	-0.000
836.14	-0.000
836.32	-0.000
836.49	-0.000
836.66	-0.000
836.84	-0.000
837.01	-0.000
837.18	-0.000
837.36	-0.000
837.53	-0.000
837.71	-0.000
837.88	-0.000
838.05	-0.000
838.23	-0.000
838.40	-0.000
838.58	-0.000
838.75	-0.000
838.92	-0.000
839.10	-0.000
839.27	-0.000
839.44	-0.000
839.62	-0.000
839.79	-0.000
839.96	-0.000
840.14	-0.000
840.31	-0.000
840.48	-0.000
840.66	-0.000
840.83	-0.000
841.01	-0.000
841.18	-0.000
841.35	-0.000
841.53	-0.000
841.70	-0.000
841.87	-0.000
842.05	-0.000
842.22	-0.000
842.39	-0.000
842.57	-0.000
842.74	-0.000
842.91	-0.000
843.09	-0.000
843.26	-0.000
843.43	-0.000
843.60	-0.000
843.78	-0.000
843.95	-0.000
844.12	-0.000
844.30	-0.000
844.47	-0.000
844.64	-0.000
844.82	-0.000
844.99	-0.000
845.16	-0.000
845.34	-0.000
845.51	-0.000
845.68	-0.000
845.85	-0.000
846.03	-0.000
846.20	-0.000
846.37	-0.000
846.55	-0.000
846.72	-0.000
846.89	-0.000
847.06	-0.000
847.24	-0.000
847.41	-0.000
847.58	-0.000
847.76	-0.000
847.93	-0.000
848.10	-0.000
848.27	-0.000
848.45	-0.000
848.62	-0.000
848.79	-0.000
848.97	-0.000
849.14	-0.000
849.31	-0.000
849.48	-0.000
849.66	-0.000
849.83	-0.000
850.00	-0.000
850.17	-0.000
850.35	-0.000
850.52	-0.000
850.69	-0.000
850.86	-0.000
851.04	-0.000
851.21	-0.000
851.38	-0.000
851.55	-0.000
851.72	-0.000
851.90	-0.000
852.07	-0.000
852.24	-0.000
852.41	-0.000
852.59	-0.000
852.76	-0.000
852.93	-0.000
853.10	-0.000
853.28	-0.000
853.45	-0.000
853.62	-0.000
853.79	-0.000
853.96	-0.000
854.14	-0.000
854.31	-0.000
854.48	-0.000
854.65	-0.000
854.82	-0.000
855.00	-0.000
855.17	-0.000
855.34	-0.000
855.51	-0.000
855.68	-0.000
855.86	-0.000
856.03	-0.000
856.20	-0.000
856.37	-0.000
856.54	-0.000
856.72	-0.000
856.89	-0.000
857.06	-0.000
857.23	-0.000
857.40	-0.000
857.57	-0.000
857.75	-0.000
857.92	-0.000
858.09	-0.000
858.26	-0.000
858.43	-0.000
858.60	-0.000
858.78	-0.000
858.95	-0.000
859.12	-0.000
859.29	-0.000
859.46	-0.000
859.63	-0.000
859.81	-0.000
859.98	-0.000
860.15	-0.000
860.32	-0.000
860.49	-0.000
860.66	-0.000
860.83	-0.000
861.01	-0.000
861.18	-0.000
861.35	-0.000
861.52	-0.000
861.69	-0.000
861.86	-0.000
862.03	-0.000
862.21	-0.000
862.38	-0.000
862.55	-0.000
862.72	-0.000
862.89	-0.000
863.06	-0.000
863.23	-0.000
863.40	-0.000
863.58	-0.000
863.75	-0.000
863.92	-0.000
864.09	-0.000
864.26	-0.000
864.43	-0.000
864.60	-0.000
864.77	-0.000
864.94	-0.000
865.11	-0.000
865.29	-0.000
865.46	-0.000
865.63	-0.000
865.80	-0.000
865.97	-0.000
866.14	-0.000
866.31	-0.000
866.48	-0.000
866.65	-0.000
866.82	-0.000
866.99	-0.000
867.16	-0.000
867.34	-0.000
867.51	-0.000
867.68	-0.000
867.85	-0.000
868.02	-0.000
868.19	-0.000
868.36	-0.000
868.53	-0.000
868.70	-0.000
868.87	-0.000
869.04	-0.000
869.21	-0.000
869.38	-0.000
869.55	-0.000
869.72	-0.000
869.89	-0.000
870.06	-0.000
870.24	-0.000
870.41	-0.000
870.58	-0.000
870.75	-0.000
870.92	-0.000
871.09	-0.000
871.26	-0.000
871.43	-0.000
871.60	-0.000
871.77	-0.000
871.94	-0.000
872.11	-0.000
872.28	-0.000
872.45	-0.000
872.62	-0.000
872.79	-0.000
872.96	-0.000
873.13	-0.000
873.30	-0.000
873.47	-0.000
873.64	-0.000
873.81	-0.000
873.98	-0.000
874.15	-0.000
874.32	-0.000
874.49	-0.000
874.66	-0.000
874.83	-0.000
875.00	-0.000
875.17	-0.000
875.34	-0.000
875.51	-0.000
875.68	-0.000
875.85	-0.000
876.02	-0.000
876.19	-0.000
876.36	-0.000
876.53	-0.000
876.70	-0.000
876.87	-0.000
877.04	-0.000
877.21	-0.000
877.38	-0.000
877.55	-0.000
877.72	-0.000
877.89	-0.000
878.06	-0.000
878.23	-0.000
878.39	-0.000
878.56	-0.000
878.73	-0.000
878.90	-0.000
879.07	-0.000
879.24	-0.000
879.41	-0.000
879.58	-0.000
879.75	-0.000
879.92	-0.000
880.09	-0.000
880.26	-0.000
880.43	-0.000
880.60	-0.000
880.77	-0.000
880.94	-0.000
881.11	-0.000
881.27	-0.000
881.44	-0.000
881.61	-0.000
881.78	-0.000
881.95	-0.000
882.12	-0.000
882.29	-0.000
882.46	-0.000
882.63	-0.000
882.80	-0.000
882.97	-0.000
883.14	-0.000
883.30	-0.000
883.47	-0.000
883.64	-0.000
883.81	-0.000
883.98	-0.000
884.15	-0.000
884.32	-0.000
884.49	-0.000
884.66	-0.000
884.82	-0.000
884.99	-0.000
885.16	-0.000
885.33	-0.000
885.50	-0.000
885.67	-0.000
885.84	-0.000
886.01	-0.000
886.17	-0.000
886.34	-0.000
886.51	-0.000
886.68	-0.000
886.85	-0.000
887.02	-0.000
887.19	-0.000
887.36	-0.000
887.52	-0.000
887.69	-0.000
887.86	-0.000
888.03	-0.000
888.20	-0.000
888.37	-0.000
888.54	-0.000
888.70	-0.000
888.87	-0.000
889.04	-0.000
889.21	-0.000
889.38	-0.000
889.55	-0.000
889.71	-0.000
889.88	-0.000
890.05	-0.000
890.22	-0.000
890.39	-0.000
>>>>>End Processed Spectral Data<<<<<
