SpectraSuite Data File
++++++++++++++++++++++++++++++++++++
Date: Fri Jun 19 12:26:42 CEST 2015
User: introlabs
Dark Spectrum Present: Yes
Reference Spectrum Present: Yes
Number of Sampled Component Spectra: 1
Spectrometers: USB4H08886
Integration Time (usec): 745692 (USB4H08886)
Spectra Averaged: 5 (USB4H08886)
Boxcar Smoothing: 5 (USB4H08886)
Correct for Electrical Dark: Yes (USB4H08886)
Strobe/Lamp Enabled: No (USB4H08886)
Correct for Detector Non-linearity: Yes (USB4H08886)
Correct for Stray Light: Yes (USB4H08886)
Number of Pixels in Processed Spectrum: 3648
>>>>>Begin Processed Spectral Data<<<<<
178.14	-0.000
178.36	-0.000
178.57	-0.000
178.79	-0.000
179.01	-0.000
179.22	-0.000
179.44	-0.000
179.65	-0.000
179.87	-0.000
180.08	-0.000
180.30	-0.000
180.52	-0.000
180.73	-0.000
180.95	-0.000
181.16	-0.000
181.38	-0.000
181.59	-0.000
181.81	-0.000
182.03	-0.000
182.24	-0.000
182.46	-0.000
182.67	-0.000
182.89	-0.000
183.10	-0.000
183.32	-0.000
183.54	-0.000
183.75	-0.000
183.97	-0.000
184.18	-0.000
184.40	-0.000
184.61	-0.000
184.83	-0.000
185.04	-0.000
185.26	-0.000
185.48	-0.000
185.69	-0.000
185.91	-0.000
186.12	-0.000
186.34	-0.000
186.55	-0.000
186.77	-0.000
186.98	-0.000
187.20	-0.000
187.42	-0.000
187.63	-0.000
187.85	-0.000
188.06	-0.000
188.28	-0.000
188.49	-0.000
188.71	-0.000
188.92	-0.000
189.14	-0.000
189.36	-0.000
189.57	-0.000
189.79	-0.000
190.00	-0.000
190.22	-0.000
190.43	-0.000
190.65	-0.000
190.86	-0.000
191.08	-0.000
191.29	-0.000
191.51	-0.000
191.72	-0.000
191.94	-0.000
192.16	-0.000
192.37	-0.000
192.59	-0.000
192.80	-0.000
193.02	-0.000
193.23	-0.000
193.45	-0.000
193.66	-0.000
193.88	-0.000
194.09	-0.000
194.31	-0.000
194.52	-0.000
194.74	-0.000
194.95	-0.000
195.17	-0.000
195.38	-0.000
195.60	-0.000
195.81	-0.000
196.03	-0.000
196.25	-0.000
196.46	-0.000
196.68	-0.000
196.89	-0.000
197.11	-0.000
197.32	-0.000
197.54	-0.000
197.75	-0.000
197.97	-0.000
198.18	-0.000
198.40	-0.000
198.61	-0.000
198.83	-0.000
199.04	-0.000
199.26	-0.000
199.47	-0.000
199.69	-0.000
199.90	-0.000
200.12	-0.000
200.33	-0.000
200.55	-0.000
200.76	-0.000
200.98	-0.000
201.19	-0.000
201.41	-0.000
201.62	-0.000
201.84	-0.000
202.05	-0.000
202.27	-0.000
202.48	-0.000
202.70	-0.000
202.91	-0.000
203.13	-0.000
203.34	-0.000
203.56	-0.000
203.77	-0.000
203.99	-0.000
204.20	-0.000
204.42	-0.000
204.63	-0.000
204.85	-0.000
205.06	-0.000
205.28	-0.000
205.49	-0.000
205.71	-0.000
205.92	-0.000
206.14	-0.000
206.35	-0.000
206.56	-0.000
206.78	-0.000
206.99	-0.000
207.21	-0.000
207.42	-0.000
207.64	-0.000
207.85	-0.000
208.07	-0.000
208.28	-0.000
208.50	-0.000
208.71	-0.000
208.93	-0.000
209.14	-0.000
209.36	-0.000
209.57	-0.000
209.79	-0.000
210.00	-0.000
210.22	-0.000
210.43	-0.000
210.64	-0.000
210.86	-0.000
211.07	-0.000
211.29	-0.000
211.50	-0.000
211.72	-0.000
211.93	-0.000
212.15	-0.000
212.36	-0.000
212.58	-0.000
212.79	-0.000
213.01	-0.000
213.22	-0.000
213.43	-0.000
213.65	-0.000
213.86	-0.000
214.08	-0.000
214.29	-0.000
214.51	-0.000
214.72	-0.000
214.94	-0.000
215.15	-0.000
215.36	-0.000
215.58	-0.000
215.79	-0.000
216.01	-0.000
216.22	-0.000
216.44	-0.000
216.65	-0.000
216.87	-0.000
217.08	-0.000
217.29	-0.000
217.51	-0.000
217.72	-0.000
217.94	-0.000
218.15	-0.000
218.37	-0.000
218.58	-0.000
218.80	-0.000
219.01	-0.000
219.22	-0.000
219.44	-0.000
219.65	-0.000
219.87	-0.000
220.08	-0.000
220.30	-0.000
220.51	-0.000
220.72	-0.000
220.94	-0.000
221.15	-0.000
221.37	-0.000
221.58	-0.000
221.79	-0.000
222.01	-0.000
222.22	-0.000
222.44	-0.000
222.65	-0.000
222.87	-0.000
223.08	-0.000
223.29	-0.000
223.51	-0.000
223.72	-0.000
223.94	-0.000
224.15	-0.000
224.36	-0.000
224.58	-0.000
224.79	-0.000
225.01	-0.000
225.22	-0.000
225.44	-0.000
225.65	-0.000
225.86	-0.000
226.08	-0.000
226.29	-0.000
226.51	-0.000
226.72	-0.000
226.93	-0.000
227.15	-0.000
227.36	-0.000
227.58	-0.000
227.79	-0.000
228.00	-0.000
228.22	-0.000
228.43	-0.000
228.65	-0.000
228.86	-0.000
229.07	-0.000
229.29	-0.000
229.50	-0.000
229.72	-0.000
229.93	-0.000
230.14	-0.000
230.36	-0.000
230.57	-0.000
230.78	-0.000
231.00	-0.000
231.21	-0.000
231.43	-0.000
231.64	-0.000
231.85	-0.000
232.07	-0.000
232.28	-0.000
232.50	-0.000
232.71	-0.000
232.92	-0.000
233.14	-0.000
233.35	-0.000
233.56	-0.000
233.78	-0.000
233.99	-0.000
234.21	-0.000
234.42	-0.000
234.63	-0.000
234.85	-0.000
235.06	-0.000
235.27	-0.000
235.49	-0.000
235.70	-0.000
235.91	-0.000
236.13	-0.000
236.34	-0.000
236.56	-0.000
236.77	-0.000
236.98	-0.000
237.20	-0.000
237.41	-0.000
237.62	-0.000
237.84	-0.000
238.05	-0.000
238.26	-0.000
238.48	-0.000
238.69	-0.000
238.91	-0.000
239.12	-0.000
239.33	-0.000
239.55	-0.000
239.76	-0.000
239.97	-0.000
240.19	-0.000
240.40	-0.000
240.61	-0.000
240.83	-0.000
241.04	-0.000
241.25	-0.000
241.47	-0.000
241.68	-0.000
241.89	-0.000
242.11	-0.000
242.32	-0.000
242.53	-0.000
242.75	-0.000
242.96	-0.000
243.17	-0.000
243.39	-0.000
243.60	-0.000
243.81	-0.000
244.03	-0.000
244.24	-0.000
244.45	-0.000
244.67	-0.000
244.88	-0.000
245.09	-0.000
245.31	-0.000
245.52	-0.000
245.73	-0.000
245.95	-0.000
246.16	-0.000
246.37	-0.000
246.59	-0.000
246.80	-0.000
247.01	-0.000
247.23	-0.000
247.44	-0.000
247.65	-0.000
247.87	-0.000
248.08	-0.000
248.29	-0.000
248.51	-0.000
248.72	-0.000
248.93	-0.000
249.15	-0.000
249.36	-0.000
249.57	-0.000
249.78	-0.000
250.00	-0.000
250.21	-0.000
250.42	-0.000
250.64	-0.000
250.85	-0.000
251.06	-0.000
251.28	-0.000
251.49	-0.000
251.70	-0.000
251.92	-0.000
252.13	-0.000
252.34	-0.000
252.55	-0.000
252.77	-0.000
252.98	-0.000
253.19	-0.000
253.41	-0.000
253.62	-0.000
253.83	-0.000
254.05	-0.000
254.26	-0.000
254.47	-0.000
254.68	-0.000
254.90	-0.000
255.11	-0.000
255.32	-0.000
255.54	-0.000
255.75	-0.000
255.96	-0.000
256.17	-0.000
256.39	-0.000
256.60	-0.000
256.81	-0.000
257.03	-0.000
257.24	-0.000
257.45	-0.000
257.66	-0.000
257.88	-0.000
258.09	-0.000
258.30	-0.000
258.51	-0.000
258.73	-0.000
258.94	-0.000
259.15	-0.000
259.37	-0.000
259.58	-0.000
259.79	-0.000
260.00	-0.000
260.22	-0.000
260.43	-0.000
260.64	-0.000
260.85	-0.000
261.07	-0.000
261.28	-0.000
261.49	-0.000
261.71	-0.000
261.92	-0.000
262.13	-0.000
262.34	-0.000
262.56	-0.000
262.77	-0.000
262.98	-0.000
263.19	-0.000
263.41	-0.000
263.62	-0.000
263.83	-0.000
264.04	-0.000
264.26	-0.000
264.47	-0.000
264.68	-0.000
264.89	-0.000
265.11	-0.000
265.32	-0.000
265.53	-0.000
265.74	-0.000
265.96	-0.000
266.17	-0.000
266.38	-0.000
266.59	-0.000
266.81	-0.000
267.02	-0.000
267.23	-0.000
267.44	-0.000
267.65	-0.000
267.87	-0.000
268.08	-0.000
268.29	-0.000
268.50	-0.000
268.72	-0.000
268.93	-0.000
269.14	-0.000
269.35	-0.000
269.57	-0.000
269.78	-0.000
269.99	-0.000
270.20	-0.000
270.41	-0.000
270.63	-0.000
270.84	-0.000
271.05	-0.000
271.26	-0.000
271.48	-0.000
271.69	-0.000
271.90	-0.000
272.11	-0.000
272.32	-0.000
272.54	-0.000
272.75	-0.000
272.96	-0.000
273.17	-0.000
273.39	-0.000
273.60	-0.000
273.81	-0.000
274.02	-0.000
274.23	-0.000
274.45	-0.000
274.66	-0.000
274.87	-0.000
275.08	-0.000
275.29	-0.000
275.51	-0.000
275.72	-0.000
275.93	-0.000
276.14	-0.000
276.35	-0.000
276.57	-0.000
276.78	-0.000
276.99	-0.000
277.20	-0.000
277.41	-0.000
277.63	-0.000
277.84	-0.000
278.05	-0.000
278.26	-0.000
278.47	-0.000
278.69	-0.000
278.90	-0.000
279.11	-0.000
279.32	-0.000
279.53	-0.000
279.74	-0.000
279.96	-0.000
280.17	-0.000
280.38	-0.000
280.59	-0.000
280.80	-0.000
281.02	-0.000
281.23	-0.000
281.44	-0.000
281.65	-0.000
281.86	-0.000
282.07	-0.000
282.29	-0.000
282.50	-0.000
282.71	-0.000
282.92	-0.000
283.13	-0.000
283.35	-0.000
283.56	-0.000
283.77	-0.000
283.98	-0.000
284.19	-0.000
284.40	-0.000
284.62	-0.000
284.83	-0.000
285.04	-0.000
285.25	-0.000
285.46	-0.000
285.67	-0.000
285.88	-0.000
286.10	-0.000
286.31	-0.000
286.52	-0.000
286.73	-0.000
286.94	-0.000
287.15	-0.000
287.37	-0.000
287.58	-0.000
287.79	-0.000
288.00	-0.000
288.21	-0.000
288.42	-0.000
288.63	-0.000
288.85	-0.000
289.06	-0.000
289.27	-0.000
289.48	-0.000
289.69	-0.000
289.90	-0.000
290.11	-0.000
290.33	-0.000
290.54	-0.000
290.75	-0.000
290.96	-0.000
291.17	-0.000
291.38	-0.000
291.59	-0.000
291.81	-0.000
292.02	-0.000
292.23	-0.000
292.44	2.026
292.65	1.807
292.86	2.060
293.07	2.016
293.28	1.708
293.50	1.773
293.71	1.947
293.92	1.831
294.13	1.922
294.34	1.963
294.55	2.064
294.76	2.020
294.97	1.811
295.19	1.898
295.40	2.310
295.61	2.194
295.82	1.763
296.03	1.650
296.24	1.717
296.45	1.505
296.66	1.368
296.87	1.377
297.09	1.413
297.30	1.470
297.51	1.332
297.72	1.305
297.93	1.344
298.14	1.330
298.35	1.307
298.56	1.296
298.77	1.361
298.99	1.348
299.20	1.323
299.41	1.315
299.62	1.302
299.83	1.298
300.04	1.264
300.25	1.258
300.46	1.284
300.67	1.270
300.88	1.233
301.10	1.235
301.31	1.284
301.52	1.253
301.73	1.213
301.94	1.215
302.15	1.227
302.36	1.198
302.57	1.156
302.78	1.160
302.99	1.187
303.20	1.197
303.41	1.141
303.63	1.124
303.84	1.133
304.05	1.131
304.26	1.092
304.47	1.096
304.68	1.104
304.89	1.098
305.10	1.067
305.31	1.058
305.52	1.086
305.73	1.080
305.94	1.054
306.15	1.049
306.37	1.067
306.58	1.074
306.79	1.051
307.00	1.063
307.21	1.091
307.42	1.086
307.63	1.062
307.84	1.041
308.05	1.069
308.26	1.070
308.47	1.052
308.68	1.049
308.89	1.050
309.10	1.047
309.31	1.018
309.52	1.012
309.73	1.026
309.95	1.020
310.16	1.001
310.37	0.993
310.58	1.008
310.79	1.007
311.00	1.001
311.21	1.002
311.42	1.006
311.63	1.004
311.84	0.989
312.05	0.988
312.26	1.006
312.47	1.014
312.68	0.996
312.89	0.984
313.10	0.990
313.31	0.971
313.52	0.969
313.73	0.970
313.94	0.973
314.15	0.959
314.36	0.941
314.57	0.935
314.78	0.928
314.99	0.923
315.21	0.911
315.42	0.914
315.63	0.926
315.84	0.910
316.05	0.898
316.26	0.905
316.47	0.921
316.68	0.918
316.89	0.902
317.10	0.917
317.31	0.923
317.52	0.925
317.73	0.907
317.94	0.906
318.15	0.940
318.36	0.940
318.57	0.924
318.78	0.917
318.99	0.945
319.20	0.943
319.41	0.914
319.62	0.914
319.83	0.923
320.04	0.921
320.25	0.908
320.46	0.883
320.67	0.887
320.88	0.884
321.09	0.871
321.30	0.861
321.51	0.872
321.72	0.873
321.93	0.860
322.14	0.856
322.35	0.879
322.56	0.882
322.77	0.870
322.98	0.879
323.19	0.888
323.40	0.893
323.61	0.874
323.82	0.872
324.03	0.876
324.24	0.874
324.45	0.862
324.66	0.846
324.87	0.845
325.08	0.846
325.29	0.828
325.50	0.822
325.71	0.828
325.92	0.833
326.13	0.821
326.34	0.821
326.55	0.829
326.76	0.827
326.97	0.818
327.18	0.813
327.39	0.833
327.60	0.835
327.80	0.833
328.01	0.831
328.22	0.834
328.43	0.836
328.64	0.827
328.85	0.830
329.06	0.834
329.27	0.832
329.48	0.828
329.69	0.813
329.90	0.823
330.11	0.818
330.32	0.813
330.53	0.808
330.74	0.809
330.95	0.807
331.16	0.795
331.37	0.800
331.58	0.802
331.79	0.801
332.00	0.792
332.21	0.787
332.42	0.790
332.63	0.783
332.83	0.778
333.04	0.780
333.25	0.791
333.46	0.789
333.67	0.778
333.88	0.780
334.09	0.790
334.30	0.787
334.51	0.779
334.72	0.775
334.93	0.778
335.14	0.778
335.35	0.770
335.56	0.767
335.77	0.776
335.98	0.775
336.18	0.769
336.39	0.764
336.60	0.769
336.81	0.767
337.02	0.766
337.23	0.770
337.44	0.772
337.65	0.774
337.86	0.764
338.07	0.760
338.28	0.766
338.49	0.764
338.70	0.756
338.91	0.761
339.11	0.769
339.32	0.765
339.53	0.754
339.74	0.752
339.95	0.751
340.16	0.749
340.37	0.742
340.58	0.739
340.79	0.744
341.00	0.744
341.21	0.734
341.41	0.736
341.62	0.737
341.83	0.739
342.04	0.734
342.25	0.743
342.46	0.749
342.67	0.748
342.88	0.741
343.09	0.741
343.30	0.748
343.50	0.750
343.71	0.741
343.92	0.740
344.13	0.745
344.34	0.746
344.55	0.731
344.76	0.730
344.97	0.736
345.18	0.735
345.38	0.732
345.59	0.728
345.80	0.729
346.01	0.728
346.22	0.723
346.43	0.718
346.64	0.726
346.85	0.726
347.06	0.720
347.26	0.721
347.47	0.725
347.68	0.721
347.89	0.718
348.10	0.713
348.31	0.720
348.52	0.720
348.73	0.717
348.93	0.713
349.14	0.716
349.35	0.715
349.56	0.708
349.77	0.705
349.98	0.711
350.19	0.709
350.39	0.704
350.60	0.701
350.81	0.715
351.02	0.714
351.23	0.711
351.44	0.713
351.65	0.717
351.86	0.715
352.06	0.712
352.27	0.712
352.48	0.714
352.69	0.714
352.90	0.709
353.11	0.697
353.31	0.703
353.52	0.699
353.73	0.691
353.94	0.693
354.15	0.699
354.36	0.700
354.57	0.692
354.77	0.693
354.98	0.694
355.19	0.693
355.40	0.692
355.61	0.698
355.82	0.703
356.02	0.702
356.23	0.696
356.44	0.697
356.65	0.701
356.86	0.702
357.07	0.696
357.27	0.699
357.48	0.702
357.69	0.699
357.90	0.685
358.11	0.682
358.32	0.687
358.52	0.690
358.73	0.681
358.94	0.684
359.15	0.689
359.36	0.690
359.56	0.685
359.77	0.683
359.98	0.690
360.19	0.690
360.40	0.686
360.61	0.686
360.81	0.686
361.02	0.686
361.23	0.678
361.44	0.677
361.65	0.679
361.85	0.678
362.06	0.675
362.27	0.676
362.48	0.678
362.69	0.680
362.89	0.674
363.10	0.676
363.31	0.681
363.52	0.684
363.73	0.679
363.93	0.679
364.14	0.682
364.35	0.684
364.56	0.674
364.77	0.677
364.97	0.680
365.18	0.680
365.39	0.675
365.60	0.673
365.81	0.674
366.01	0.674
366.22	0.670
366.43	0.670
366.64	0.673
366.84	0.679
367.05	0.674
367.26	0.674
367.47	0.676
367.68	0.676
367.88	0.672
368.09	0.671
368.30	0.674
368.51	0.674
368.71	0.673
368.92	0.677
369.13	0.675
369.34	0.675
369.55	0.674
369.75	0.675
369.96	0.682
370.17	0.682
370.38	0.678
370.58	0.678
370.79	0.684
371.00	0.682
371.21	0.673
371.41	0.678
371.62	0.683
371.83	0.678
372.04	0.675
372.24	0.669
372.45	0.672
372.66	0.673
372.87	0.669
373.07	0.665
373.28	0.667
373.49	0.670
373.70	0.661
373.90	0.661
374.11	0.670
374.32	0.669
374.53	0.667
374.73	0.666
374.94	0.669
375.15	0.670
375.36	0.667
375.56	0.674
375.77	0.674
375.98	0.675
376.19	0.671
376.39	0.665
376.60	0.670
376.81	0.670
377.02	0.667
377.22	0.667
377.43	0.667
377.64	0.668
377.84	0.660
378.05	0.664
378.26	0.670
378.47	0.669
378.67	0.666
378.88	0.663
379.09	0.664
379.30	0.665
379.50	0.662
379.71	0.664
379.92	0.667
380.12	0.666
380.33	0.657
380.54	0.653
380.75	0.661
380.95	0.661
381.16	0.658
381.37	0.658
381.57	0.661
381.78	0.661
381.99	0.659
382.20	0.659
382.40	0.662
382.61	0.663
382.82	0.660
383.02	0.653
383.23	0.657
383.44	0.657
383.64	0.654
383.85	0.656
384.06	0.659
384.27	0.657
384.47	0.655
384.68	0.655
384.89	0.660
385.09	0.660
385.30	0.659
385.51	0.658
385.71	0.661
385.92	0.662
386.13	0.660
386.33	0.662
386.54	0.663
386.75	0.662
386.95	0.658
387.16	0.654
387.37	0.656
387.58	0.656
387.78	0.653
387.99	0.651
388.20	0.654
388.40	0.652
388.61	0.648
388.82	0.650
389.02	0.653
389.23	0.653
389.44	0.651
389.64	0.651
389.85	0.661
390.06	0.661
390.26	0.661
390.47	0.659
390.68	0.661
390.88	0.660
391.09	0.655
391.30	0.654
391.50	0.655
391.71	0.655
391.92	0.652
392.12	0.645
392.33	0.647
392.53	0.646
392.74	0.646
392.95	0.645
393.15	0.648
393.36	0.649
393.57	0.646
393.77	0.649
393.98	0.651
394.19	0.650
394.39	0.649
394.60	0.650
394.81	0.652
395.01	0.650
395.22	0.648
395.43	0.649
395.63	0.653
395.84	0.654
396.04	0.649
396.25	0.651
396.46	0.654
396.66	0.652
396.87	0.648
397.08	0.646
397.28	0.648
397.49	0.649
397.69	0.645
397.90	0.640
398.11	0.642
398.31	0.642
398.52	0.639
398.73	0.639
398.93	0.639
399.14	0.638
399.34	0.636
399.55	0.637
399.76	0.637
399.96	0.639
400.17	0.637
400.37	0.635
400.58	0.642
400.79	0.643
400.99	0.641
401.20	0.646
401.41	0.649
401.61	0.650
401.82	0.654
402.02	0.654
402.23	0.655
402.44	0.654
402.64	0.653
402.85	0.647
403.05	0.647
403.26	0.645
403.47	0.639
403.67	0.638
403.88	0.639
404.08	0.633
404.29	0.631
404.50	0.630
404.70	0.631
404.91	0.630
405.11	0.627
405.32	0.627
405.52	0.628
405.73	0.628
405.94	0.626
406.14	0.628
406.35	0.630
406.55	0.630
406.76	0.628
406.97	0.629
407.17	0.631
407.38	0.631
407.58	0.628
407.79	0.631
407.99	0.633
408.20	0.633
408.41	0.629
408.61	0.626
408.82	0.628
409.02	0.628
409.23	0.626
409.43	0.625
409.64	0.627
409.84	0.628
410.05	0.624
410.26	0.622
410.46	0.622
410.67	0.622
410.87	0.623
411.08	0.624
411.28	0.626
411.49	0.627
411.69	0.625
411.90	0.625
412.11	0.626
412.31	0.627
412.52	0.625
412.72	0.627
412.93	0.629
413.13	0.627
413.34	0.623
413.54	0.624
413.75	0.626
413.95	0.626
414.16	0.623
414.37	0.626
414.57	0.627
414.78	0.630
414.98	0.627
415.19	0.629
415.39	0.627
415.60	0.629
415.80	0.628
416.01	0.627
416.21	0.629
416.42	0.629
416.62	0.624
416.83	0.625
417.03	0.625
417.24	0.624
417.44	0.622
417.65	0.621
417.86	0.622
418.06	0.621
418.27	0.619
418.47	0.620
418.68	0.621
418.88	0.622
419.09	0.619
419.29	0.620
419.50	0.621
419.70	0.621
419.91	0.619
420.11	0.617
420.32	0.620
420.52	0.619
420.73	0.618
420.93	0.619
421.14	0.620
421.34	0.620
421.55	0.616
421.75	0.616
421.96	0.618
422.16	0.618
422.37	0.617
422.57	0.615
422.78	0.616
422.98	0.613
423.19	0.611
423.39	0.610
423.60	0.614
423.80	0.615
424.01	0.614
424.21	0.616
424.42	0.617
424.62	0.618
424.83	0.616
425.03	0.617
425.23	0.620
425.44	0.620
425.64	0.620
425.85	0.619
426.05	0.621
426.26	0.622
426.46	0.618
426.67	0.617
426.87	0.622
427.08	0.623
427.28	0.620
427.49	0.621
427.69	0.622
427.90	0.621
428.10	0.618
428.31	0.617
428.51	0.619
428.71	0.619
428.92	0.620
429.12	0.618
429.33	0.618
429.53	0.622
429.74	0.625
429.94	0.626
430.15	0.625
430.35	0.626
430.56	0.623
430.76	0.623
430.96	0.624
431.17	0.622
431.37	0.619
431.58	0.617
431.78	0.616
431.99	0.609
432.19	0.611
432.40	0.613
432.60	0.614
432.80	0.616
433.01	0.614
433.21	0.614
433.42	0.616
433.62	0.617
433.83	0.616
434.03	0.618
434.23	0.621
434.44	0.620
434.64	0.618
434.85	0.623
435.05	0.624
435.26	0.623
435.46	0.621
435.66	0.622
435.87	0.621
436.07	0.622
436.28	0.618
436.48	0.615
436.69	0.615
436.89	0.615
437.09	0.609
437.30	0.608
437.50	0.609
437.71	0.620
437.91	0.619
438.11	0.621
438.32	0.625
438.52	0.626
438.73	0.625
438.93	0.623
439.13	0.624
439.34	0.627
439.54	0.625
439.75	0.625
439.95	0.616
440.15	0.620
440.36	0.619
440.56	0.617
440.77	0.618
440.97	0.618
441.17	0.617
441.38	0.617
441.58	0.615
441.79	0.615
441.99	0.613
442.19	0.613
442.40	0.612
442.60	0.612
442.81	0.609
443.01	0.610
443.21	0.611
443.42	0.610
443.62	0.609
443.82	0.609
444.03	0.612
444.23	0.612
444.44	0.612
444.64	0.611
444.84	0.612
445.05	0.612
445.25	0.609
445.45	0.610
445.66	0.613
445.86	0.612
446.06	0.613
446.27	0.613
446.47	0.617
446.68	0.614
446.88	0.613
447.08	0.613
447.29	0.616
447.49	0.616
447.69	0.615
447.90	0.614
448.10	0.618
448.30	0.616
448.51	0.617
448.71	0.615
448.91	0.618
449.12	0.617
449.32	0.618
449.52	0.617
449.73	0.621
449.93	0.621
450.14	0.620
450.34	0.619
450.54	0.622
450.75	0.619
450.95	0.618
451.15	0.617
451.36	0.620
451.56	0.617
451.76	0.616
451.97	0.613
452.17	0.614
452.37	0.612
452.58	0.609
452.78	0.609
452.98	0.612
453.19	0.612
453.39	0.612
453.59	0.611
453.79	0.613
454.00	0.613
454.20	0.612
454.40	0.612
454.61	0.615
454.81	0.615
455.01	0.614
455.22	0.614
455.42	0.616
455.62	0.614
455.83	0.613
456.03	0.617
456.23	0.618
456.44	0.619
456.64	0.618
456.84	0.618
457.04	0.620
457.25	0.619
457.45	0.616
457.65	0.615
457.86	0.617
458.06	0.615
458.26	0.611
458.47	0.610
458.67	0.612
458.87	0.612
459.07	0.609
459.28	0.611
459.48	0.614
459.68	0.613
459.89	0.613
460.09	0.611
460.29	0.613
460.49	0.614
460.70	0.612
460.90	0.612
461.10	0.613
461.31	0.613
461.51	0.610
461.71	0.611
461.91	0.613
462.12	0.613
462.32	0.612
462.52	0.612
462.72	0.616
462.93	0.616
463.13	0.615
463.33	0.616
463.53	0.617
463.74	0.616
463.94	0.612
464.14	0.612
464.35	0.613
464.55	0.614
464.75	0.612
464.95	0.610
465.16	0.612
465.36	0.611
465.56	0.610
465.76	0.610
465.97	0.611
466.17	0.612
466.37	0.610
466.57	0.611
466.78	0.613
466.98	0.613
467.18	0.610
467.38	0.610
467.59	0.612
467.79	0.613
467.99	0.612
468.19	0.613
468.39	0.617
468.60	0.617
468.80	0.615
469.00	0.616
469.20	0.618
469.41	0.618
469.61	0.617
469.81	0.617
470.01	0.617
470.22	0.618
470.42	0.616
470.62	0.613
470.82	0.615
471.02	0.614
471.23	0.612
471.43	0.612
471.63	0.615
471.83	0.614
472.04	0.611
472.24	0.610
472.44	0.616
472.64	0.615
472.84	0.613
473.05	0.613
473.25	0.616
473.45	0.615
473.65	0.613
473.85	0.614
474.06	0.616
474.26	0.616
474.46	0.617
474.66	0.613
474.86	0.615
475.07	0.615
475.27	0.613
475.47	0.610
475.67	0.611
475.87	0.613
476.08	0.609
476.28	0.610
476.48	0.612
476.68	0.610
476.88	0.609
477.09	0.610
477.29	0.612
477.49	0.612
477.69	0.611
477.89	0.612
478.09	0.612
478.30	0.614
478.50	0.611
478.70	0.610
478.90	0.611
479.10	0.613
479.31	0.613
479.51	0.612
479.71	0.614
479.91	0.613
480.11	0.612
480.31	0.612
480.52	0.611
480.72	0.611
480.92	0.610
481.12	0.609
481.32	0.607
481.52	0.605
481.72	0.605
481.93	0.608
482.13	0.608
482.33	0.608
482.53	0.606
482.73	0.606
482.93	0.607
483.14	0.607
483.34	0.606
483.54	0.607
483.74	0.607
483.94	0.606
484.14	0.602
484.34	0.602
484.55	0.603
484.75	0.603
484.95	0.602
485.15	0.602
485.35	0.602
485.55	0.601
485.75	0.599
485.96	0.600
486.16	0.602
486.36	0.601
486.56	0.599
486.76	0.600
486.96	0.600
487.16	0.600
487.36	0.598
487.57	0.598
487.77	0.599
487.97	0.600
488.17	0.598
488.37	0.597
488.57	0.598
488.77	0.598
488.97	0.596
489.18	0.596
489.38	0.599
489.58	0.599
489.78	0.598
489.98	0.598
490.18	0.598
490.38	0.598
490.58	0.597
490.78	0.598
490.98	0.600
491.19	0.601
491.39	0.600
491.59	0.598
491.79	0.602
491.99	0.602
492.19	0.601
492.39	0.604
492.59	0.604
492.79	0.606
492.99	0.605
493.20	0.605
493.40	0.606
493.60	0.607
493.80	0.605
494.00	0.603
494.20	0.603
494.40	0.603
494.60	0.601
494.80	0.605
495.00	0.604
495.20	0.603
495.40	0.602
495.61	0.604
495.81	0.604
496.01	0.608
496.21	0.608
496.41	0.607
496.61	0.609
496.81	0.608
497.01	0.603
497.21	0.602
497.41	0.603
497.61	0.603
497.81	0.600
498.01	0.600
498.21	0.598
498.41	0.596
498.61	0.596
498.82	0.598
499.02	0.600
499.22	0.601
499.42	0.600
499.62	0.601
499.82	0.603
500.02	0.604
500.22	0.603
500.42	0.605
500.62	0.606
500.82	0.606
501.02	0.604
501.22	0.604
501.42	0.604
501.62	0.607
501.82	0.606
502.02	0.606
502.22	0.606
502.42	0.607
502.62	0.604
502.82	0.605
503.02	0.605
503.22	0.605
503.42	0.603
503.63	0.603
503.83	0.601
504.03	0.600
504.23	0.598
504.43	0.599
504.63	0.600
504.83	0.600
505.03	0.599
505.23	0.601
505.43	0.603
505.63	0.604
505.83	0.603
506.03	0.605
506.23	0.608
506.43	0.608
506.63	0.607
506.83	0.606
507.03	0.608
507.23	0.609
507.43	0.606
507.63	0.607
507.83	0.607
508.03	0.608
508.23	0.606
508.43	0.605
508.63	0.607
508.83	0.607
509.03	0.607
509.23	0.606
509.43	0.608
509.63	0.608
509.83	0.606
510.03	0.609
510.23	0.611
510.43	0.611
510.63	0.612
510.83	0.611
511.03	0.613
511.23	0.611
511.43	0.610
511.63	0.612
511.83	0.614
512.03	0.614
512.22	0.611
512.42	0.610
512.62	0.611
512.82	0.611
513.02	0.609
513.22	0.609
513.42	0.612
513.62	0.615
513.82	0.612
514.02	0.612
514.22	0.614
514.42	0.614
514.62	0.613
514.82	0.614
515.02	0.617
515.22	0.620
515.42	0.618
515.62	0.620
515.82	0.619
516.02	0.620
516.22	0.619
516.42	0.620
516.62	0.622
516.82	0.623
517.01	0.621
517.21	0.620
517.41	0.624
517.61	0.624
517.81	0.620
518.01	0.620
518.21	0.620
518.41	0.619
518.61	0.618
518.81	0.618
519.01	0.620
519.21	0.620
519.41	0.618
519.61	0.613
519.81	0.617
520.00	0.618
520.20	0.618
520.40	0.620
520.60	0.622
520.80	0.621
521.00	0.621
521.20	0.622
521.40	0.627
521.60	0.627
521.80	0.626
522.00	0.626
522.20	0.628
522.39	0.628
522.59	0.625
522.79	0.627
522.99	0.629
523.19	0.627
523.39	0.625
523.59	0.624
523.79	0.627
523.99	0.629
524.19	0.628
524.38	0.627
524.58	0.628
524.78	0.629
524.98	0.627
525.18	0.630
525.38	0.631
525.58	0.632
525.78	0.629
525.98	0.627
526.18	0.628
526.37	0.627
526.57	0.628
526.77	0.628
526.97	0.629
527.17	0.628
527.37	0.624
527.57	0.626
527.77	0.628
527.96	0.629
528.16	0.627
528.36	0.628
528.56	0.630
528.76	0.628
528.96	0.626
529.16	0.628
529.36	0.631
529.55	0.631
529.75	0.627
529.95	0.627
530.15	0.630
530.35	0.632
530.55	0.630
530.75	0.631
530.94	0.633
531.14	0.634
531.34	0.632
531.54	0.630
531.74	0.633
531.94	0.636
532.13	0.634
532.33	0.635
532.53	0.635
532.73	0.634
532.93	0.632
533.13	0.633
533.33	0.633
533.52	0.633
533.72	0.636
533.92	0.635
534.12	0.633
534.32	0.634
534.52	0.632
534.71	0.633
534.91	0.637
535.11	0.638
535.31	0.636
535.51	0.638
535.71	0.640
535.90	0.637
536.10	0.638
536.30	0.640
536.50	0.641
536.70	0.641
536.89	0.638
537.09	0.638
537.29	0.640
537.49	0.641
537.69	0.639
537.89	0.640
538.08	0.640
538.28	0.638
538.48	0.638
538.68	0.640
538.88	0.642
539.07	0.643
539.27	0.640
539.47	0.639
539.67	0.640
539.87	0.641
540.06	0.638
540.26	0.639
540.46	0.642
540.66	0.640
540.86	0.636
541.05	0.636
541.25	0.638
541.45	0.638
541.65	0.636
541.84	0.638
542.04	0.639
542.24	0.640
542.44	0.638
542.64	0.638
542.83	0.641
543.03	0.642
543.23	0.639
543.43	0.641
543.62	0.642
543.82	0.643
544.02	0.641
544.22	0.640
544.42	0.644
544.61	0.644
544.81	0.642
545.01	0.640
545.21	0.643
545.40	0.643
545.60	0.641
545.80	0.644
546.00	0.645
546.19	0.645
546.39	0.644
546.59	0.642
546.79	0.644
546.98	0.645
547.18	0.644
547.38	0.644
547.58	0.648
547.77	0.648
547.97	0.644
548.17	0.646
548.37	0.647
548.56	0.646
548.76	0.645
548.96	0.647
549.16	0.649
549.35	0.649
549.55	0.646
549.75	0.647
549.95	0.650
550.14	0.651
550.34	0.648
550.54	0.652
550.73	0.657
550.93	0.657
551.13	0.653
551.33	0.651
551.52	0.653
551.72	0.654
551.92	0.651
552.12	0.651
552.31	0.652
552.51	0.652
552.71	0.646
552.90	0.646
553.10	0.648
553.30	0.649
553.50	0.648
553.69	0.650
553.89	0.652
554.09	0.652
554.28	0.649
554.48	0.651
554.68	0.654
554.87	0.654
555.07	0.650
555.27	0.650
555.47	0.652
555.66	0.652
555.86	0.650
556.06	0.652
556.25	0.654
556.45	0.662
556.65	0.660
556.84	0.663
557.04	0.666
557.24	0.668
557.43	0.667
557.63	0.669
557.83	0.672
558.02	0.672
558.22	0.674
558.42	0.675
558.61	0.669
558.81	0.669
559.01	0.665
559.21	0.664
559.40	0.666
559.60	0.666
559.80	0.662
559.99	0.663
560.19	0.666
560.39	0.661
560.58	0.657
560.78	0.657
560.97	0.661
561.17	0.660
561.37	0.657
561.56	0.657
561.76	0.659
561.96	0.660
562.15	0.657
562.35	0.659
562.55	0.661
562.74	0.662
562.94	0.660
563.14	0.658
563.33	0.660
563.53	0.661
563.73	0.658
563.92	0.660
564.12	0.662
564.31	0.664
564.51	0.662
564.71	0.664
564.90	0.667
565.10	0.668
565.30	0.670
565.49	0.670
565.69	0.673
565.89	0.673
566.08	0.669
566.28	0.670
566.47	0.673
566.67	0.670
566.87	0.666
567.06	0.667
567.26	0.673
567.46	0.668
567.65	0.666
567.85	0.667
568.04	0.671
568.24	0.670
568.44	0.666
568.63	0.665
568.83	0.668
569.02	0.667
569.22	0.662
569.42	0.658
569.61	0.662
569.81	0.660
570.00	0.658
570.20	0.660
570.40	0.661
570.59	0.662
570.79	0.659
570.98	0.657
571.18	0.659
571.38	0.658
571.57	0.655
571.77	0.653
571.96	0.657
572.16	0.655
572.35	0.649
572.55	0.650
572.75	0.649
572.94	0.649
573.14	0.647
573.33	0.647
573.53	0.649
573.73	0.648
573.92	0.646
574.12	0.644
574.31	0.647
574.51	0.648
574.70	0.644
574.90	0.645
575.09	0.648
575.29	0.648
575.49	0.646
575.68	0.646
575.88	0.649
576.07	0.650
576.27	0.648
576.46	0.647
576.66	0.647
576.86	0.647
577.05	0.644
577.25	0.643
577.44	0.644
577.64	0.644
577.83	0.641
578.03	0.642
578.22	0.641
578.42	0.640
578.61	0.637
578.81	0.638
579.00	0.639
579.20	0.639
579.40	0.638
579.59	0.637
579.79	0.638
579.98	0.637
580.18	0.637
580.37	0.638
580.57	0.641
580.76	0.646
580.96	0.644
581.15	0.644
581.35	0.646
581.54	0.646
581.74	0.645
581.93	0.646
582.13	0.648
582.32	0.645
582.52	0.643
582.71	0.642
582.91	0.639
583.10	0.639
583.30	0.638
583.49	0.637
583.69	0.642
583.88	0.643
584.08	0.641
584.27	0.643
584.47	0.647
584.66	0.648
584.86	0.646
585.05	0.648
585.25	0.650
585.44	0.649
585.64	0.647
585.83	0.644
586.03	0.646
586.22	0.644
586.42	0.641
586.61	0.643
586.81	0.645
587.00	0.646
587.20	0.643
587.39	0.645
587.59	0.647
587.78	0.648
587.98	0.648
588.17	0.648
588.37	0.651
588.56	0.653
588.76	0.649
588.95	0.649
589.15	0.653
589.34	0.656
589.54	0.653
589.73	0.654
589.92	0.657
590.12	0.656
590.31	0.653
590.51	0.658
590.70	0.660
590.90	0.660
591.09	0.657
591.29	0.655
591.48	0.655
591.68	0.657
591.87	0.654
592.06	0.654
592.26	0.657
592.45	0.657
592.65	0.650
592.84	0.650
593.04	0.653
593.23	0.655
593.43	0.653
593.62	0.653
593.81	0.654
594.01	0.654
594.20	0.651
594.40	0.650
594.59	0.653
594.79	0.655
594.98	0.653
595.17	0.653
595.37	0.653
595.56	0.655
595.76	0.653
595.95	0.654
596.14	0.657
596.34	0.658
596.53	0.655
596.73	0.656
596.92	0.656
597.12	0.659
597.31	0.657
597.50	0.657
597.70	0.659
597.89	0.658
598.09	0.655
598.28	0.656
598.47	0.659
598.67	0.658
598.86	0.655
599.06	0.657
599.25	0.658
599.44	0.657
599.64	0.654
599.83	0.652
600.03	0.656
600.22	0.657
600.41	0.657
600.61	0.655
600.80	0.658
601.00	0.659
601.19	0.655
601.38	0.653
601.58	0.656
601.77	0.657
601.96	0.659
602.16	0.658
602.35	0.667
602.55	0.665
602.74	0.665
602.93	0.666
603.13	0.671
603.32	0.672
603.51	0.670
603.71	0.672
603.90	0.674
604.09	0.674
604.29	0.671
604.48	0.665
604.68	0.667
604.87	0.665
605.06	0.661
605.26	0.658
605.45	0.659
605.64	0.659
605.84	0.654
606.03	0.654
606.22	0.653
606.42	0.653
606.61	0.649
606.80	0.649
607.00	0.651
607.19	0.652
607.38	0.651
607.58	0.653
607.77	0.656
607.96	0.656
608.16	0.655
608.35	0.660
608.54	0.664
608.74	0.667
608.93	0.672
609.12	0.675
609.32	0.677
609.51	0.680
609.70	0.678
609.90	0.680
610.09	0.684
610.28	0.689
610.48	0.681
610.67	0.682
610.86	0.683
611.06	0.677
611.25	0.674
611.44	0.675
611.64	0.675
611.83	0.678
612.02	0.673
612.21	0.672
612.41	0.671
612.60	0.671
612.79	0.666
612.99	0.667
613.18	0.670
613.37	0.667
613.57	0.664
613.76	0.666
613.95	0.665
614.14	0.665
614.34	0.663
614.53	0.664
614.72	0.667
614.92	0.667
615.11	0.664
615.30	0.661
615.49	0.664
615.69	0.666
615.88	0.663
616.07	0.664
616.26	0.667
616.46	0.668
616.65	0.664
616.84	0.663
617.04	0.666
617.23	0.669
617.42	0.668
617.61	0.672
617.81	0.675
618.00	0.676
618.19	0.673
618.38	0.677
618.58	0.681
618.77	0.682
618.96	0.681
619.15	0.683
619.35	0.685
619.54	0.687
619.73	0.681
619.92	0.682
620.12	0.687
620.31	0.687
620.50	0.681
620.69	0.682
620.89	0.686
621.08	0.686
621.27	0.685
621.46	0.685
621.66	0.690
621.85	0.690
622.04	0.685
622.23	0.685
622.43	0.687
622.62	0.687
622.81	0.685
623.00	0.685
623.19	0.690
623.39	0.688
623.58	0.685
623.77	0.683
623.96	0.687
624.16	0.688
624.35	0.683
624.54	0.685
624.73	0.690
624.92	0.688
625.12	0.685
625.31	0.685
625.50	0.689
625.69	0.690
625.88	0.685
626.08	0.684
626.27	0.687
626.46	0.687
626.65	0.683
626.84	0.683
627.04	0.689
627.23	0.688
627.42	0.683
627.61	0.685
627.80	0.690
628.00	0.690
628.19	0.689
628.38	0.693
628.57	0.696
628.76	0.696
628.96	0.692
629.15	0.694
629.34	0.698
629.53	0.698
629.72	0.692
629.91	0.692
630.11	0.699
630.30	0.699
630.49	0.701
630.68	0.702
630.87	0.706
631.06	0.708
631.26	0.702
631.45	0.704
631.64	0.713
631.83	0.715
632.02	0.711
632.21	0.709
632.41	0.717
632.60	0.711
632.79	0.708
632.98	0.709
633.17	0.711
633.36	0.713
633.55	0.708
633.75	0.704
633.94	0.707
634.13	0.707
634.32	0.704
634.51	0.698
634.70	0.702
634.89	0.702
635.09	0.698
635.28	0.698
635.47	0.700
635.66	0.704
635.85	0.699
636.04	0.701
636.23	0.707
636.43	0.708
636.62	0.706
636.81	0.704
637.00	0.708
637.19	0.711
637.38	0.706
637.57	0.705
637.76	0.708
637.95	0.709
638.15	0.704
638.34	0.701
638.53	0.706
638.72	0.708
638.91	0.704
639.10	0.701
639.29	0.702
639.48	0.703
639.67	0.703
639.87	0.700
640.06	0.707
640.25	0.706
640.44	0.707
640.63	0.706
640.82	0.709
641.01	0.709
641.20	0.709
641.39	0.710
641.58	0.714
641.78	0.713
641.97	0.709
642.16	0.723
642.35	0.725
642.54	0.723
642.73	0.717
642.92	0.717
643.11	0.721
643.30	0.721
643.49	0.716
643.68	0.718
643.87	0.720
644.06	0.721
644.25	0.701
644.45	0.704
644.64	0.707
644.83	0.708
645.02	0.704
645.21	0.703
645.40	0.706
645.59	0.706
645.78	0.699
645.97	0.700
646.16	0.702
646.35	0.700
646.54	0.696
646.73	0.696
646.92	0.698
647.11	0.697
647.30	0.692
647.49	0.693
647.68	0.694
647.88	0.693
648.07	0.684
648.26	0.687
648.45	0.690
648.64	0.687
648.83	0.682
649.02	0.685
649.21	0.697
649.40	0.696
649.59	0.690
649.78	0.691
649.97	0.706
650.16	0.706
650.35	0.699
650.54	0.702
650.73	0.711
650.92	0.708
651.11	0.700
651.30	0.697
651.49	0.702
651.68	0.703
651.87	0.699
652.06	0.689
652.25	0.692
652.44	0.693
652.63	0.686
652.82	0.683
653.01	0.683
653.20	0.680
653.39	0.666
653.58	0.663
653.77	0.663
653.96	0.658
654.15	0.649
654.34	0.648
654.53	0.645
654.72	0.641
654.91	0.633
655.10	0.630
655.29	0.630
655.48	0.628
655.67	0.623
655.86	0.621
656.05	0.621
656.24	0.621
656.43	0.616
656.62	0.615
656.81	0.617
657.00	0.617
657.19	0.616
657.38	0.616
657.57	0.618
657.76	0.621
657.95	0.619
658.14	0.624
658.33	0.628
658.51	0.634
658.70	0.634
658.89	0.635
659.08	0.642
659.27	0.648
659.46	0.647
659.65	0.652
659.84	0.654
660.03	0.657
660.22	0.657
660.41	0.660
660.60	0.660
660.79	0.662
660.98	0.667
661.17	0.666
661.36	0.666
661.55	0.666
661.74	0.663
661.92	0.668
662.11	0.672
662.30	0.670
662.49	0.663
662.68	0.662
662.87	0.666
663.06	0.659
663.25	0.660
663.44	0.660
663.63	0.663
663.82	0.661
664.01	0.654
664.20	0.652
664.38	0.655
664.57	0.654
664.76	0.653
664.95	0.654
665.14	0.661
665.33	0.656
665.52	0.662
665.71	0.666
665.90	0.667
666.09	0.668
666.28	0.666
666.46	0.664
666.65	0.667
666.84	0.665
667.03	0.658
667.22	0.655
667.41	0.659
667.60	0.649
667.79	0.641
667.98	0.642
668.16	0.644
668.35	0.643
668.54	0.638
668.73	0.639
668.92	0.640
669.11	0.639
669.30	0.633
669.49	0.629
669.67	0.631
669.86	0.633
670.05	0.630
670.24	0.628
670.43	0.625
670.62	0.624
670.81	0.619
671.00	0.620
671.18	0.621
671.37	0.620
671.56	0.617
671.75	0.616
671.94	0.614
672.13	0.612
672.32	0.607
672.50	0.608
672.69	0.609
672.88	0.609
673.07	0.604
673.26	0.606
673.45	0.608
673.63	0.608
673.82	0.604
674.01	0.605
674.20	0.605
674.39	0.604
674.58	0.603
674.76	0.602
674.95	0.601
675.14	0.601
675.33	0.596
675.52	0.593
675.71	0.594
675.89	0.593
676.08	0.589
676.27	0.588
676.46	0.589
676.65	0.588
676.84	0.588
677.02	0.590
677.21	0.593
677.40	0.592
677.59	0.589
677.78	0.590
677.96	0.593
678.15	0.592
678.34	0.590
678.53	0.590
678.72	0.591
678.90	0.587
679.09	0.582
679.28	0.579
679.47	0.580
679.66	0.580
679.84	0.575
680.03	0.574
680.22	0.574
680.41	0.576
680.60	0.572
680.78	0.572
680.97	0.576
681.16	0.577
681.35	0.575
681.53	0.574
681.72	0.575
681.91	0.578
682.10	0.575
682.29	0.577
682.47	0.574
682.66	0.574
682.85	0.572
683.04	0.569
683.22	0.569
683.41	0.570
683.60	0.569
683.79	0.570
683.97	0.569
684.16	0.567
684.35	0.563
684.54	0.564
684.72	0.565
684.91	0.566
685.10	0.564
685.29	0.566
685.47	0.563
685.66	0.563
685.85	0.559
686.04	0.558
686.22	0.561
686.41	0.564
686.60	0.561
686.79	0.564
686.97	0.566
687.16	0.567
687.35	0.563
687.54	0.566
687.72	0.571
687.91	0.571
688.10	0.572
688.29	0.572
688.47	0.570
688.66	0.569
688.85	0.564
689.03	0.561
689.22	0.566
689.41	0.567
689.60	0.562
689.78	0.559
689.97	0.560
690.16	0.557
690.34	0.553
690.53	0.553
690.72	0.555
690.91	0.553
691.09	0.551
691.28	0.545
691.47	0.544
691.65	0.543
691.84	0.539
692.03	0.538
692.21	0.537
692.40	0.537
692.59	0.534
692.77	0.534
692.96	0.536
693.15	0.537
693.34	0.534
693.52	0.534
693.71	0.535
693.90	0.537
694.08	0.537
694.27	0.538
694.46	0.548
694.64	0.549
694.83	0.547
695.02	0.546
695.20	0.546
695.39	0.546
695.58	0.545
695.76	0.546
695.95	0.546
696.14	0.546
696.32	0.543
696.51	0.533
696.70	0.533
696.88	0.534
697.07	0.532
697.26	0.533
697.44	0.534
697.63	0.533
697.81	0.531
698.00	0.529
698.19	0.529
698.37	0.529
698.56	0.528
698.75	0.529
698.93	0.529
699.12	0.529
699.31	0.527
699.49	0.527
699.68	0.529
699.87	0.531
700.05	0.531
700.24	0.530
700.42	0.532
700.61	0.531
700.80	0.528
700.98	0.528
701.17	0.530
701.36	0.529
701.54	0.528
701.73	0.529
701.91	0.527
702.10	0.527
702.29	0.525
702.47	0.524
702.66	0.526
702.84	0.528
703.03	0.526
703.22	0.528
703.40	0.529
703.59	0.531
703.77	0.529
703.96	0.529
704.15	0.531
704.33	0.531
704.52	0.529
704.70	0.528
704.89	0.529
705.08	0.527
705.26	0.522
705.45	0.521
705.63	0.521
705.82	0.518
706.00	0.516
706.19	0.515
706.38	0.515
706.56	0.515
706.75	0.512
706.93	0.511
707.12	0.513
707.30	0.514
707.49	0.510
707.68	0.508
707.86	0.509
708.05	0.509
708.23	0.506
708.42	0.507
708.60	0.510
708.79	0.510
708.98	0.509
709.16	0.508
709.35	0.511
709.53	0.515
709.72	0.513
709.90	0.515
710.09	0.517
710.27	0.519
710.46	0.522
710.64	0.520
710.83	0.521
711.02	0.522
711.20	0.521
711.39	0.519
711.57	0.518
711.76	0.518
711.94	0.515
712.13	0.517
712.31	0.517
712.50	0.512
712.68	0.509
712.87	0.510
713.05	0.510
713.24	0.510
713.42	0.508
713.61	0.509
713.79	0.511
713.98	0.511
714.16	0.511
714.35	0.511
714.54	0.513
714.72	0.513
714.91	0.510
715.09	0.517
715.28	0.521
715.46	0.522
715.65	0.518
715.83	0.518
716.02	0.521
716.20	0.516
716.39	0.515
716.57	0.516
716.76	0.519
716.94	0.519
717.12	0.510
717.31	0.511
717.49	0.515
717.68	0.517
717.86	0.516
718.05	0.518
718.23	0.522
718.42	0.524
718.60	0.525
718.79	0.532
718.97	0.536
719.16	0.537
719.34	0.533
719.53	0.533
719.71	0.533
719.90	0.535
720.08	0.530
720.27	0.531
720.45	0.532
720.63	0.531
720.82	0.524
721.00	0.527
721.19	0.532
721.37	0.532
721.56	0.531
721.74	0.535
721.93	0.544
722.11	0.551
722.30	0.548
722.48	0.553
722.66	0.554
722.85	0.554
723.03	0.553
723.22	0.549
723.40	0.553
723.59	0.552
723.77	0.554
723.95	0.548
724.14	0.551
724.32	0.553
724.51	0.552
724.69	0.553
724.88	0.554
725.06	0.552
725.24	0.554
725.43	0.555
725.61	0.559
725.80	0.553
725.98	0.549
726.16	0.546
726.35	0.553
726.53	0.551
726.72	0.548
726.90	0.560
727.09	0.560
727.27	0.565
727.45	0.560
727.64	0.569
727.82	0.579
728.01	0.583
728.19	0.579
728.37	0.584
728.56	0.590
728.74	0.596
728.92	0.581
729.11	0.585
729.29	0.584
729.48	0.587
729.66	0.575
729.84	0.574
730.03	0.579
730.21	0.580
730.40	0.568
730.58	0.569
730.76	0.571
730.95	0.573
731.13	0.572
731.31	0.586
731.50	0.596
731.68	0.599
731.86	0.594
732.05	0.610
732.23	0.615
732.42	0.619
732.60	0.621
732.78	0.627
732.97	0.649
733.15	0.655
733.33	0.640
733.52	0.648
733.70	0.662
733.88	0.669
734.07	0.652
734.25	0.680
734.43	0.690
734.62	0.693
734.80	0.686
734.98	0.676
735.17	0.684
735.35	0.691
735.53	0.677
735.72	0.681
735.90	0.708
736.08	0.727
736.27	0.700
736.45	0.709
736.63	0.725
736.82	0.736
737.00	0.733
737.18	0.747
737.37	0.781
737.55	0.804
737.73	0.793
737.92	0.796
738.10	0.797
738.28	0.816
738.46	0.803
738.65	0.814
738.83	0.837
739.01	0.891
739.20	0.878
739.38	0.867
739.56	0.863
739.75	0.872
739.93	0.829
740.11	0.855
740.29	0.861
740.48	0.866
740.66	0.838
740.84	0.838
741.03	0.809
741.21	0.820
741.39	0.792
741.57	0.803
741.76	0.827
741.94	0.836
742.12	0.790
742.31	0.798
742.49	0.824
742.67	0.849
742.85	0.858
743.04	0.858
743.22	0.874
743.40	0.931
743.58	0.906
743.77	0.922
743.95	0.966
744.13	1.029
744.31	1.000
744.50	0.998
744.68	1.008
744.86	0.975
745.04	0.988
745.23	1.058
745.41	1.051
745.59	1.064
745.77	1.017
745.96	0.999
746.14	1.014
746.32	1.007
746.50	0.991
746.69	0.976
746.87	1.004
747.05	0.983
747.23	0.896
747.42	0.882
747.60	0.918
747.78	0.918
747.96	0.949
748.14	0.900
748.33	0.940
748.51	0.935
748.69	0.918
748.87	0.948
749.06	0.956
749.24	0.957
749.42	0.930
749.60	0.910
749.78	0.932
749.97	0.881
750.15	0.868
750.33	0.871
750.51	0.907
750.69	0.916
750.88	0.909
751.06	0.920
751.24	0.958
751.42	0.948
751.60	0.928
751.79	1.007
751.97	1.070
752.15	1.077
752.33	1.024
752.51	1.094
752.69	1.123
752.88	1.082
753.06	1.122
753.24	1.085
753.42	1.138
753.60	1.356
753.78	1.160
753.97	1.171
754.15	1.202
754.33	1.244
754.51	1.076
754.69	1.056
754.87	1.097
755.06	1.020
755.24	1.012
755.42	1.014
755.60	0.917
755.78	0.921
755.96	0.862
756.15	0.863
756.33	0.871
756.51	0.890
756.69	0.868
756.87	0.834
757.05	0.854
757.23	0.836
757.42	0.799
757.60	0.795
757.78	0.790
757.96	0.787
758.14	0.764
758.32	0.751
758.50	0.769
758.69	0.768
758.87	0.756
759.05	0.762
759.23	0.780
759.41	0.786
759.59	0.774
759.77	0.798
759.95	0.831
760.13	0.885
760.32	0.882
760.50	0.880
760.68	0.914
760.86	0.917
761.04	0.881
761.22	0.880
761.40	0.936
761.58	0.941
761.76	0.903
761.95	0.882
762.13	0.838
762.31	0.837
762.49	0.797
762.67	0.815
762.85	0.836
763.03	0.832
763.21	0.809
763.39	0.790
763.57	0.796
763.75	0.790
763.94	0.773
764.12	0.771
764.30	0.803
764.48	0.809
764.66	0.764
764.84	0.760
765.02	0.802
765.20	0.810
765.38	0.784
765.56	0.791
765.74	0.840
765.92	0.838
766.10	0.845
766.28	0.836
766.46	0.871
766.65	0.872
766.83	0.854
767.01	0.841
767.19	0.856
767.37	0.857
767.55	0.836
767.73	0.810
767.91	0.821
768.09	0.806
768.27	0.787
768.45	0.775
768.63	0.783
768.81	0.787
768.99	0.754
769.17	0.781
769.35	0.800
769.53	0.800
769.71	0.778
769.89	0.786
770.07	0.799
770.25	0.782
770.43	0.758
770.61	0.784
770.79	0.790
770.97	0.801
771.15	0.759
771.33	0.764
771.51	0.768
771.69	0.779
771.87	0.785
772.05	0.791
772.24	0.807
772.42	0.815
772.60	0.790
772.78	0.858
772.96	0.894
773.14	0.889
773.32	0.858
773.49	0.865
773.67	0.868
773.85	0.846
774.03	0.828
774.21	0.863
774.39	0.883
774.57	0.910
774.75	0.823
774.93	0.819
775.11	0.850
775.29	0.855
775.47	0.855
775.65	0.869
775.83	0.892
776.01	0.916
776.19	0.854
776.37	0.857
776.55	0.855
776.73	0.852
776.91	0.838
777.09	0.818
777.27	0.822
777.45	0.812
777.63	0.784
777.81	0.779
777.99	0.769
778.17	0.770
778.35	0.744
778.53	0.737
778.71	0.747
778.89	0.736
779.07	0.723
779.24	0.728
779.42	0.729
779.60	0.747
779.78	0.739
779.96	0.744
780.14	0.754
780.32	0.775
780.50	0.753
780.68	0.751
780.86	0.746
781.04	0.764
781.22	0.766
781.40	0.779
781.58	0.774
781.75	0.766
781.93	0.748
782.11	0.751
782.29	0.740
782.47	0.739
782.65	0.723
782.83	0.753
783.01	0.752
783.19	0.742
783.37	0.724
783.55	0.727
783.72	0.750
783.90	0.761
784.08	0.747
784.26	0.760
784.44	0.782
784.62	0.785
784.80	0.745
784.98	0.749
785.16	0.760
785.33	0.776
785.51	0.755
785.69	0.739
785.87	0.739
786.05	0.749
786.23	0.740
786.41	0.739
786.59	0.746
786.77	0.746
786.94	0.731
787.12	0.733
787.30	0.740
787.48	0.736
787.66	0.721
787.84	0.722
788.02	0.716
788.19	0.714
788.37	0.695
788.55	0.699
788.73	0.701
788.91	0.695
789.09	0.675
789.27	0.662
789.44	0.677
789.62	0.685
789.80	0.691
789.98	0.719
790.16	0.706
790.34	0.705
790.51	0.688
790.69	0.711
790.87	0.721
791.05	0.718
791.23	0.707
791.41	0.708
791.58	0.720
791.76	0.697
791.94	0.661
792.12	0.672
792.30	0.679
792.48	0.676
792.65	0.665
792.83	0.672
793.01	0.682
793.19	0.683
793.37	0.665
793.54	0.659
793.72	0.674
793.90	0.674
794.08	0.660
794.26	0.659
794.43	0.672
794.61	0.655
794.79	0.641
794.97	0.642
795.15	0.652
795.32	0.656
795.50	0.644
795.68	0.639
795.86	0.646
796.04	0.648
796.21	0.640
796.39	0.637
796.57	0.656
796.75	0.664
796.92	0.661
797.10	0.663
797.28	0.666
797.46	0.669
797.64	0.668
797.81	0.677
797.99	0.684
798.17	0.688
798.35	0.678
798.52	0.681
798.70	0.679
798.88	0.689
799.06	0.688
799.23	0.693
799.41	0.703
799.59	0.694
799.77	0.677
799.94	0.688
800.12	0.701
800.30	0.720
800.48	0.717
800.65	0.717
800.83	0.708
801.01	0.698
801.19	0.695
801.36	0.692
801.54	0.700
801.72	0.712
801.90	0.694
802.07	0.687
802.25	0.674
802.43	0.656
802.60	0.648
802.78	0.656
802.96	0.664
803.14	0.657
803.31	0.652
803.49	0.651
803.67	0.648
803.84	0.652
804.02	0.640
804.20	0.644
804.38	0.653
804.55	0.652
804.73	0.635
804.91	0.635
805.08	0.650
805.26	0.646
805.44	0.706
805.61	0.709
805.79	0.712
805.97	0.713
806.15	0.701
806.32	0.692
806.50	0.701
806.68	0.700
806.85	0.689
807.03	0.679
807.21	0.700
807.38	0.636
807.56	0.623
807.74	0.633
807.91	0.644
808.09	0.645
808.27	0.664
808.44	0.692
808.62	0.706
808.80	0.708
808.97	0.699
809.15	0.692
809.33	0.714
809.50	0.724
809.68	0.704
809.86	0.710
810.03	0.748
810.21	0.726
810.39	0.704
810.56	0.710
810.74	0.736
810.91	0.819
811.09	0.804
811.27	0.827
811.44	0.836
811.62	0.840
811.80	0.816
811.97	0.783
812.15	0.783
812.33	0.776
812.50	0.758
812.68	0.746
812.85	0.687
813.03	0.688
813.21	0.652
813.38	0.645
813.56	0.649
813.74	0.662
813.91	0.668
814.09	0.702
814.26	0.699
814.44	0.701
814.62	0.689
814.79	0.692
814.97	0.702
815.14	0.707
815.32	0.709
815.50	0.729
815.67	0.735
815.85	0.725
816.02	0.709
816.20	0.717
816.38	0.736
816.55	0.742
816.73	0.740
816.90	0.749
817.08	0.785
817.26	0.793
817.43	0.768
817.61	0.797
817.78	0.821
817.96	0.797
818.13	0.782
818.31	0.785
818.49	0.805
818.66	0.791
818.84	0.772
819.01	0.749
819.19	0.758
819.36	0.759
819.54	0.720
819.71	0.769
819.89	0.791
820.07	0.805
820.24	0.792
820.42	0.791
820.59	0.817
820.77	0.844
820.94	0.832
821.12	0.851
821.29	0.876
821.47	0.878
821.64	0.800
821.82	0.815
822.00	0.816
822.17	0.812
822.35	0.801
822.52	0.806
822.70	0.798
822.87	0.807
823.05	0.778
823.22	0.788
823.40	0.823
823.57	0.851
823.75	0.821
823.92	0.848
824.10	0.874
824.27	0.921
824.45	0.897
824.62	0.965
824.80	0.992
824.97	1.016
825.15	0.994
825.32	1.011
825.50	1.019
825.67	1.041
825.85	1.005
826.02	1.041
826.20	1.083
826.37	1.267
826.55	1.151
826.72	1.465
826.90	1.669
827.07	1.882
827.25	1.664
827.42	2.783
827.60	-0.000
827.77	-0.000
827.95	-0.000
828.12	-0.000
828.30	-0.000
828.47	-0.000
828.65	1.745
828.82	2.007
829.00	-0.000
829.17	-0.000
829.34	-0.000
829.52	-0.000
829.69	-0.000
829.87	-0.000
830.04	-0.000
830.22	-0.000
830.39	-0.000
830.57	-0.000
830.74	-0.000
830.92	-0.000
831.09	-0.000
831.26	-0.000
831.44	-0.000
831.61	-0.000
831.79	-0.000
831.96	-0.000
832.14	-0.000
832.31	-0.000
832.49	-0.000
832.66	-0.000
832.83	-0.000
833.01	-0.000
833.18	-0.000
833.36	-0.000
833.53	-0.000
833.70	-0.000
833.88	-0.000
834.05	-0.000
834.23	-0.000
834.40	-0.000
834.58	-0.000
834.75	-0.000
834.92	-0.000
835.10	-0.000
835.27	-0.000
835.45	-0.000
835.62	-0.000
835.79	-0.000
835.97	-0.000
836.14	-0.000
836.32	-0.000
836.49	-0.000
836.66	-0.000
836.84	-0.000
837.01	-0.000
837.18	-0.000
837.36	-0.000
837.53	-0.000
837.71	-0.000
837.88	-0.000
838.05	-0.000
838.23	-0.000
838.40	-0.000
838.58	-0.000
838.75	-0.000
838.92	-0.000
839.10	-0.000
839.27	-0.000
839.44	-0.000
839.62	-0.000
839.79	-0.000
839.96	-0.000
840.14	-0.000
840.31	-0.000
840.48	-0.000
840.66	-0.000
840.83	-0.000
841.01	-0.000
841.18	-0.000
841.35	-0.000
841.53	-0.000
841.70	-0.000
841.87	-0.000
842.05	-0.000
842.22	-0.000
842.39	-0.000
842.57	-0.000
842.74	-0.000
842.91	-0.000
843.09	-0.000
843.26	-0.000
843.43	-0.000
843.60	-0.000
843.78	-0.000
843.95	-0.000
844.12	-0.000
844.30	-0.000
844.47	-0.000
844.64	-0.000
844.82	-0.000
844.99	-0.000
845.16	-0.000
845.34	-0.000
845.51	-0.000
845.68	-0.000
845.85	-0.000
846.03	-0.000
846.20	-0.000
846.37	-0.000
846.55	-0.000
846.72	-0.000
846.89	-0.000
847.06	-0.000
847.24	-0.000
847.41	-0.000
847.58	-0.000
847.76	-0.000
847.93	-0.000
848.10	-0.000
848.27	-0.000
848.45	-0.000
848.62	-0.000
848.79	-0.000
848.97	-0.000
849.14	-0.000
849.31	-0.000
849.48	-0.000
849.66	-0.000
849.83	-0.000
850.00	-0.000
850.17	-0.000
850.35	-0.000
850.52	-0.000
850.69	-0.000
850.86	-0.000
851.04	-0.000
851.21	-0.000
851.38	-0.000
851.55	-0.000
851.72	-0.000
851.90	-0.000
852.07	-0.000
852.24	-0.000
852.41	-0.000
852.59	-0.000
852.76	-0.000
852.93	-0.000
853.10	-0.000
853.28	-0.000
853.45	-0.000
853.62	-0.000
853.79	-0.000
853.96	-0.000
854.14	-0.000
854.31	-0.000
854.48	-0.000
854.65	-0.000
854.82	-0.000
855.00	-0.000
855.17	-0.000
855.34	-0.000
855.51	-0.000
855.68	-0.000
855.86	-0.000
856.03	-0.000
856.20	-0.000
856.37	-0.000
856.54	-0.000
856.72	-0.000
856.89	-0.000
857.06	-0.000
857.23	-0.000
857.40	-0.000
857.57	-0.000
857.75	-0.000
857.92	-0.000
858.09	-0.000
858.26	-0.000
858.43	-0.000
858.60	-0.000
858.78	-0.000
858.95	-0.000
859.12	-0.000
859.29	-0.000
859.46	-0.000
859.63	-0.000
859.81	-0.000
859.98	-0.000
860.15	-0.000
860.32	-0.000
860.49	-0.000
860.66	-0.000
860.83	-0.000
861.01	-0.000
861.18	-0.000
861.35	-0.000
861.52	-0.000
861.69	-0.000
861.86	-0.000
862.03	-0.000
862.21	-0.000
862.38	-0.000
862.55	-0.000
862.72	-0.000
862.89	-0.000
863.06	-0.000
863.23	-0.000
863.40	-0.000
863.58	-0.000
863.75	-0.000
863.92	-0.000
864.09	-0.000
864.26	-0.000
864.43	-0.000
864.60	-0.000
864.77	-0.000
864.94	-0.000
865.11	-0.000
865.29	-0.000
865.46	-0.000
865.63	-0.000
865.80	-0.000
865.97	-0.000
866.14	-0.000
866.31	-0.000
866.48	-0.000
866.65	-0.000
866.82	-0.000
866.99	-0.000
867.16	-0.000
867.34	-0.000
867.51	-0.000
867.68	-0.000
867.85	-0.000
868.02	-0.000
868.19	-0.000
868.36	-0.000
868.53	-0.000
868.70	-0.000
868.87	-0.000
869.04	-0.000
869.21	-0.000
869.38	-0.000
869.55	-0.000
869.72	-0.000
869.89	-0.000
870.06	-0.000
870.24	-0.000
870.41	-0.000
870.58	-0.000
870.75	-0.000
870.92	-0.000
871.09	-0.000
871.26	-0.000
871.43	-0.000
871.60	-0.000
871.77	-0.000
871.94	-0.000
872.11	-0.000
872.28	-0.000
872.45	-0.000
872.62	-0.000
872.79	-0.000
872.96	-0.000
873.13	-0.000
873.30	-0.000
873.47	-0.000
873.64	-0.000
873.81	-0.000
873.98	-0.000
874.15	-0.000
874.32	-0.000
874.49	-0.000
874.66	-0.000
874.83	-0.000
875.00	-0.000
875.17	-0.000
875.34	-0.000
875.51	-0.000
875.68	-0.000
875.85	-0.000
876.02	-0.000
876.19	-0.000
876.36	-0.000
876.53	-0.000
876.70	-0.000
876.87	-0.000
877.04	-0.000
877.21	-0.000
877.38	-0.000
877.55	-0.000
877.72	-0.000
877.89	-0.000
878.06	-0.000
878.23	-0.000
878.39	-0.000
878.56	-0.000
878.73	-0.000
878.90	-0.000
879.07	-0.000
879.24	-0.000
879.41	-0.000
879.58	-0.000
879.75	-0.000
879.92	-0.000
880.09	-0.000
880.26	-0.000
880.43	-0.000
880.60	-0.000
880.77	-0.000
880.94	-0.000
881.11	-0.000
881.27	-0.000
881.44	-0.000
881.61	-0.000
881.78	-0.000
881.95	-0.000
882.12	-0.000
882.29	-0.000
882.46	-0.000
882.63	-0.000
882.80	-0.000
882.97	-0.000
883.14	-0.000
883.30	-0.000
883.47	-0.000
883.64	-0.000
883.81	-0.000
883.98	-0.000
884.15	-0.000
884.32	-0.000
884.49	-0.000
884.66	-0.000
884.82	-0.000
884.99	-0.000
885.16	-0.000
885.33	-0.000
885.50	-0.000
885.67	-0.000
885.84	-0.000
886.01	-0.000
886.17	-0.000
886.34	-0.000
886.51	-0.000
886.68	-0.000
886.85	-0.000
887.02	-0.000
887.19	-0.000
887.36	-0.000
887.52	-0.000
887.69	-0.000
887.86	-0.000
888.03	-0.000
888.20	-0.000
888.37	-0.000
888.54	-0.000
888.70	-0.000
888.87	-0.000
889.04	-0.000
889.21	-0.000
889.38	-0.000
889.55	-0.000
889.71	-0.000
889.88	-0.000
890.05	-0.000
890.22	-0.000
890.39	-0.000
>>>>>End Processed Spectral Data<<<<<
