SpectraSuite Data File
++++++++++++++++++++++++++++++++++++
Date: Fri Jun 19 13:25:42 CEST 2015
User: introlabs
Dark Spectrum Present: Yes
Reference Spectrum Present: Yes
Number of Sampled Component Spectra: 1
Spectrometers: USB4H08886
Integration Time (usec): 745692 (USB4H08886)
Spectra Averaged: 5 (USB4H08886)
Boxcar Smoothing: 5 (USB4H08886)
Correct for Electrical Dark: Yes (USB4H08886)
Strobe/Lamp Enabled: No (USB4H08886)
Correct for Detector Non-linearity: Yes (USB4H08886)
Correct for Stray Light: Yes (USB4H08886)
Number of Pixels in Processed Spectrum: 3648
>>>>>Begin Processed Spectral Data<<<<<
178.14	-0.000
178.36	-0.000
178.57	-0.000
178.79	-0.000
179.01	-0.000
179.22	-0.000
179.44	-0.000
179.65	-0.000
179.87	-0.000
180.08	-0.000
180.30	-0.000
180.52	-0.000
180.73	-0.000
180.95	-0.000
181.16	-0.000
181.38	-0.000
181.59	-0.000
181.81	-0.000
182.03	-0.000
182.24	-0.000
182.46	-0.000
182.67	-0.000
182.89	-0.000
183.10	-0.000
183.32	-0.000
183.54	-0.000
183.75	-0.000
183.97	-0.000
184.18	-0.000
184.40	-0.000
184.61	-0.000
184.83	-0.000
185.04	-0.000
185.26	-0.000
185.48	-0.000
185.69	-0.000
185.91	-0.000
186.12	-0.000
186.34	-0.000
186.55	-0.000
186.77	-0.000
186.98	-0.000
187.20	-0.000
187.42	-0.000
187.63	-0.000
187.85	-0.000
188.06	-0.000
188.28	-0.000
188.49	-0.000
188.71	-0.000
188.92	-0.000
189.14	-0.000
189.36	-0.000
189.57	-0.000
189.79	-0.000
190.00	-0.000
190.22	-0.000
190.43	-0.000
190.65	-0.000
190.86	-0.000
191.08	-0.000
191.29	-0.000
191.51	-0.000
191.72	-0.000
191.94	-0.000
192.16	-0.000
192.37	-0.000
192.59	-0.000
192.80	-0.000
193.02	-0.000
193.23	-0.000
193.45	-0.000
193.66	-0.000
193.88	-0.000
194.09	-0.000
194.31	-0.000
194.52	-0.000
194.74	-0.000
194.95	-0.000
195.17	-0.000
195.38	-0.000
195.60	-0.000
195.81	-0.000
196.03	-0.000
196.25	-0.000
196.46	-0.000
196.68	-0.000
196.89	-0.000
197.11	-0.000
197.32	-0.000
197.54	-0.000
197.75	-0.000
197.97	-0.000
198.18	-0.000
198.40	-0.000
198.61	-0.000
198.83	-0.000
199.04	-0.000
199.26	-0.000
199.47	-0.000
199.69	-0.000
199.90	-0.000
200.12	-0.000
200.33	-0.000
200.55	-0.000
200.76	-0.000
200.98	-0.000
201.19	-0.000
201.41	-0.000
201.62	-0.000
201.84	-0.000
202.05	-0.000
202.27	-0.000
202.48	-0.000
202.70	-0.000
202.91	-0.000
203.13	-0.000
203.34	-0.000
203.56	-0.000
203.77	-0.000
203.99	-0.000
204.20	-0.000
204.42	-0.000
204.63	-0.000
204.85	-0.000
205.06	-0.000
205.28	-0.000
205.49	-0.000
205.71	-0.000
205.92	-0.000
206.14	-0.000
206.35	-0.000
206.56	-0.000
206.78	-0.000
206.99	-0.000
207.21	-0.000
207.42	-0.000
207.64	-0.000
207.85	-0.000
208.07	-0.000
208.28	-0.000
208.50	-0.000
208.71	-0.000
208.93	-0.000
209.14	-0.000
209.36	-0.000
209.57	-0.000
209.79	-0.000
210.00	-0.000
210.22	-0.000
210.43	-0.000
210.64	-0.000
210.86	-0.000
211.07	-0.000
211.29	-0.000
211.50	-0.000
211.72	-0.000
211.93	-0.000
212.15	-0.000
212.36	-0.000
212.58	-0.000
212.79	-0.000
213.01	-0.000
213.22	-0.000
213.43	-0.000
213.65	-0.000
213.86	-0.000
214.08	-0.000
214.29	-0.000
214.51	-0.000
214.72	-0.000
214.94	-0.000
215.15	-0.000
215.36	-0.000
215.58	-0.000
215.79	-0.000
216.01	-0.000
216.22	-0.000
216.44	-0.000
216.65	-0.000
216.87	-0.000
217.08	-0.000
217.29	-0.000
217.51	-0.000
217.72	-0.000
217.94	-0.000
218.15	-0.000
218.37	-0.000
218.58	-0.000
218.80	-0.000
219.01	-0.000
219.22	-0.000
219.44	-0.000
219.65	-0.000
219.87	-0.000
220.08	-0.000
220.30	-0.000
220.51	-0.000
220.72	-0.000
220.94	-0.000
221.15	-0.000
221.37	-0.000
221.58	-0.000
221.79	-0.000
222.01	-0.000
222.22	-0.000
222.44	-0.000
222.65	-0.000
222.87	-0.000
223.08	-0.000
223.29	-0.000
223.51	-0.000
223.72	-0.000
223.94	-0.000
224.15	-0.000
224.36	-0.000
224.58	-0.000
224.79	-0.000
225.01	-0.000
225.22	-0.000
225.44	-0.000
225.65	-0.000
225.86	-0.000
226.08	-0.000
226.29	-0.000
226.51	-0.000
226.72	-0.000
226.93	-0.000
227.15	-0.000
227.36	-0.000
227.58	-0.000
227.79	-0.000
228.00	-0.000
228.22	-0.000
228.43	-0.000
228.65	-0.000
228.86	-0.000
229.07	-0.000
229.29	-0.000
229.50	-0.000
229.72	-0.000
229.93	-0.000
230.14	-0.000
230.36	-0.000
230.57	-0.000
230.78	-0.000
231.00	-0.000
231.21	-0.000
231.43	-0.000
231.64	-0.000
231.85	-0.000
232.07	-0.000
232.28	-0.000
232.50	-0.000
232.71	-0.000
232.92	-0.000
233.14	-0.000
233.35	-0.000
233.56	-0.000
233.78	-0.000
233.99	-0.000
234.21	-0.000
234.42	-0.000
234.63	-0.000
234.85	-0.000
235.06	-0.000
235.27	-0.000
235.49	-0.000
235.70	-0.000
235.91	-0.000
236.13	-0.000
236.34	-0.000
236.56	-0.000
236.77	-0.000
236.98	-0.000
237.20	-0.000
237.41	-0.000
237.62	-0.000
237.84	-0.000
238.05	-0.000
238.26	-0.000
238.48	-0.000
238.69	-0.000
238.91	-0.000
239.12	-0.000
239.33	-0.000
239.55	-0.000
239.76	-0.000
239.97	-0.000
240.19	-0.000
240.40	-0.000
240.61	-0.000
240.83	-0.000
241.04	-0.000
241.25	-0.000
241.47	-0.000
241.68	-0.000
241.89	-0.000
242.11	-0.000
242.32	-0.000
242.53	-0.000
242.75	-0.000
242.96	-0.000
243.17	-0.000
243.39	-0.000
243.60	-0.000
243.81	-0.000
244.03	-0.000
244.24	-0.000
244.45	-0.000
244.67	-0.000
244.88	-0.000
245.09	-0.000
245.31	-0.000
245.52	-0.000
245.73	-0.000
245.95	-0.000
246.16	-0.000
246.37	-0.000
246.59	-0.000
246.80	-0.000
247.01	-0.000
247.23	-0.000
247.44	-0.000
247.65	-0.000
247.87	-0.000
248.08	-0.000
248.29	-0.000
248.51	-0.000
248.72	-0.000
248.93	-0.000
249.15	-0.000
249.36	-0.000
249.57	-0.000
249.78	-0.000
250.00	-0.000
250.21	-0.000
250.42	-0.000
250.64	-0.000
250.85	-0.000
251.06	-0.000
251.28	-0.000
251.49	-0.000
251.70	-0.000
251.92	-0.000
252.13	-0.000
252.34	-0.000
252.55	-0.000
252.77	-0.000
252.98	-0.000
253.19	-0.000
253.41	-0.000
253.62	-0.000
253.83	-0.000
254.05	-0.000
254.26	-0.000
254.47	-0.000
254.68	-0.000
254.90	-0.000
255.11	-0.000
255.32	-0.000
255.54	-0.000
255.75	-0.000
255.96	-0.000
256.17	-0.000
256.39	-0.000
256.60	-0.000
256.81	-0.000
257.03	-0.000
257.24	-0.000
257.45	-0.000
257.66	-0.000
257.88	-0.000
258.09	-0.000
258.30	-0.000
258.51	-0.000
258.73	-0.000
258.94	-0.000
259.15	-0.000
259.37	-0.000
259.58	-0.000
259.79	-0.000
260.00	-0.000
260.22	-0.000
260.43	-0.000
260.64	-0.000
260.85	-0.000
261.07	-0.000
261.28	-0.000
261.49	-0.000
261.71	-0.000
261.92	-0.000
262.13	-0.000
262.34	-0.000
262.56	-0.000
262.77	-0.000
262.98	-0.000
263.19	-0.000
263.41	-0.000
263.62	-0.000
263.83	-0.000
264.04	-0.000
264.26	-0.000
264.47	-0.000
264.68	-0.000
264.89	-0.000
265.11	-0.000
265.32	-0.000
265.53	-0.000
265.74	-0.000
265.96	-0.000
266.17	-0.000
266.38	-0.000
266.59	-0.000
266.81	-0.000
267.02	-0.000
267.23	-0.000
267.44	-0.000
267.65	-0.000
267.87	-0.000
268.08	-0.000
268.29	-0.000
268.50	-0.000
268.72	-0.000
268.93	-0.000
269.14	-0.000
269.35	-0.000
269.57	-0.000
269.78	-0.000
269.99	-0.000
270.20	-0.000
270.41	-0.000
270.63	-0.000
270.84	-0.000
271.05	-0.000
271.26	-0.000
271.48	-0.000
271.69	-0.000
271.90	-0.000
272.11	-0.000
272.32	-0.000
272.54	-0.000
272.75	-0.000
272.96	-0.000
273.17	-0.000
273.39	-0.000
273.60	-0.000
273.81	-0.000
274.02	-0.000
274.23	-0.000
274.45	-0.000
274.66	-0.000
274.87	-0.000
275.08	-0.000
275.29	-0.000
275.51	-0.000
275.72	-0.000
275.93	-0.000
276.14	-0.000
276.35	-0.000
276.57	-0.000
276.78	-0.000
276.99	-0.000
277.20	-0.000
277.41	-0.000
277.63	-0.000
277.84	-0.000
278.05	-0.000
278.26	-0.000
278.47	-0.000
278.69	-0.000
278.90	-0.000
279.11	-0.000
279.32	-0.000
279.53	-0.000
279.74	-0.000
279.96	-0.000
280.17	-0.000
280.38	-0.000
280.59	-0.000
280.80	-0.000
281.02	-0.000
281.23	-0.000
281.44	-0.000
281.65	-0.000
281.86	-0.000
282.07	-0.000
282.29	-0.000
282.50	-0.000
282.71	-0.000
282.92	-0.000
283.13	-0.000
283.35	-0.000
283.56	-0.000
283.77	-0.000
283.98	-0.000
284.19	-0.000
284.40	-0.000
284.62	-0.000
284.83	-0.000
285.04	-0.000
285.25	-0.000
285.46	-0.000
285.67	-0.000
285.88	-0.000
286.10	-0.000
286.31	-0.000
286.52	-0.000
286.73	-0.000
286.94	-0.000
287.15	-0.000
287.37	-0.000
287.58	-0.000
287.79	-0.000
288.00	-0.000
288.21	-0.000
288.42	-0.000
288.63	-0.000
288.85	-0.000
289.06	-0.000
289.27	-0.000
289.48	-0.000
289.69	-0.000
289.90	-0.000
290.11	-0.000
290.33	-0.000
290.54	-0.000
290.75	-0.000
290.96	-0.000
291.17	-0.000
291.38	-0.000
291.59	-0.000
291.81	-0.000
292.02	-0.000
292.23	-0.000
292.44	-0.000
292.65	-0.000
292.86	-0.000
293.07	-0.000
293.28	-0.000
293.50	-0.000
293.71	-0.000
293.92	-0.000
294.13	-0.000
294.34	-0.000
294.55	-0.000
294.76	-0.000
294.97	-0.000
295.19	-0.000
295.40	-0.000
295.61	-0.000
295.82	-0.000
296.03	-0.000
296.24	-0.000
296.45	-0.000
296.66	-0.000
296.87	-0.000
297.09	-0.000
297.30	-0.000
297.51	2.690
297.72	2.377
297.93	3.497
298.14	2.731
298.35	2.372
298.56	2.237
298.77	-0.000
298.99	2.988
299.20	2.580
299.41	2.399
299.62	2.209
299.83	2.149
300.04	1.948
300.25	1.922
300.46	2.038
300.67	1.964
300.88	1.834
301.10	1.819
301.31	1.979
301.52	1.845
301.73	1.736
301.94	1.738
302.15	1.782
302.36	1.693
302.57	1.599
302.78	1.605
302.99	1.675
303.20	1.708
303.41	1.561
303.63	1.524
303.84	1.539
304.05	1.529
304.26	1.443
304.47	1.450
304.68	1.458
304.89	1.441
305.10	1.384
305.31	1.365
305.52	1.419
305.73	1.410
305.94	1.362
306.15	1.351
306.37	1.380
306.58	1.390
306.79	1.344
307.00	1.371
307.21	1.424
307.42	1.411
307.63	1.364
307.84	1.324
308.05	1.366
308.26	1.366
308.47	1.336
308.68	1.328
308.89	1.328
309.10	1.325
309.31	1.276
309.52	1.263
309.73	1.282
309.95	1.276
310.16	1.241
310.37	1.231
310.58	1.250
310.79	1.246
311.00	1.243
311.21	1.240
311.42	1.242
311.63	1.235
311.84	1.213
312.05	1.210
312.26	1.238
312.47	1.252
312.68	1.222
312.89	1.202
313.10	1.211
313.31	1.180
313.52	1.183
313.73	1.185
313.94	1.192
314.15	1.171
314.36	1.148
314.57	1.138
314.78	1.122
314.99	1.115
315.21	1.103
315.42	1.107
315.63	1.121
315.84	1.096
316.05	1.080
316.26	1.089
316.47	1.110
316.68	1.105
316.89	1.083
317.10	1.105
317.31	1.116
317.52	1.116
317.73	1.093
317.94	1.093
318.15	1.141
318.36	1.140
318.57	1.117
318.78	1.104
318.99	1.144
319.20	1.141
319.41	1.104
319.62	1.104
319.83	1.118
320.04	1.113
320.25	1.094
320.46	1.057
320.67	1.060
320.88	1.055
321.09	1.038
321.30	1.022
321.51	1.038
321.72	1.035
321.93	1.016
322.14	1.008
322.35	1.036
322.56	1.040
322.77	1.027
322.98	1.039
323.19	1.047
323.40	1.054
323.61	1.029
323.82	1.023
324.03	1.030
324.24	1.028
324.45	1.013
324.66	0.992
324.87	0.989
325.08	0.989
325.29	0.968
325.50	0.962
325.71	0.968
325.92	0.978
326.13	0.963
326.34	0.961
326.55	0.971
326.76	0.969
326.97	0.958
327.18	0.952
327.39	0.980
327.60	0.982
327.80	0.983
328.01	0.979
328.22	0.979
328.43	0.983
328.64	0.972
328.85	0.974
329.06	0.977
329.27	0.977
329.48	0.970
329.69	0.949
329.90	0.960
330.11	0.953
330.32	0.947
330.53	0.940
330.74	0.939
330.95	0.936
331.16	0.921
331.37	0.929
331.58	0.928
331.79	0.927
332.00	0.919
332.21	0.911
332.42	0.915
332.63	0.905
332.83	0.900
333.04	0.902
333.25	0.916
333.46	0.914
333.67	0.899
333.88	0.903
334.09	0.915
334.30	0.909
334.51	0.900
334.72	0.895
334.93	0.899
335.14	0.898
335.35	0.890
335.56	0.885
335.77	0.896
335.98	0.895
336.18	0.887
336.39	0.878
336.60	0.884
336.81	0.881
337.02	0.880
337.23	0.884
337.44	0.887
337.65	0.888
337.86	0.876
338.07	0.870
338.28	0.875
338.49	0.873
338.70	0.866
338.91	0.872
339.11	0.880
339.32	0.876
339.53	0.864
339.74	0.861
339.95	0.858
340.16	0.856
340.37	0.848
340.58	0.847
340.79	0.851
341.00	0.851
341.21	0.839
341.41	0.841
341.62	0.842
341.83	0.844
342.04	0.838
342.25	0.850
342.46	0.855
342.67	0.854
342.88	0.845
343.09	0.843
343.30	0.850
343.50	0.853
343.71	0.842
343.92	0.841
344.13	0.844
344.34	0.845
344.55	0.828
344.76	0.828
344.97	0.833
345.18	0.832
345.38	0.829
345.59	0.823
345.80	0.823
346.01	0.821
346.22	0.816
346.43	0.811
346.64	0.820
346.85	0.819
347.06	0.811
347.26	0.810
347.47	0.816
347.68	0.811
347.89	0.807
348.10	0.802
348.31	0.810
348.52	0.809
348.73	0.806
348.93	0.801
349.14	0.804
349.35	0.804
349.56	0.798
349.77	0.793
349.98	0.800
350.19	0.796
350.39	0.792
350.60	0.788
350.81	0.805
351.02	0.804
351.23	0.800
351.44	0.803
351.65	0.806
351.86	0.803
352.06	0.801
352.27	0.802
352.48	0.804
352.69	0.804
352.90	0.798
353.11	0.783
353.31	0.790
353.52	0.786
353.73	0.777
353.94	0.779
354.15	0.785
354.36	0.785
354.57	0.776
354.77	0.778
354.98	0.778
355.19	0.777
355.40	0.777
355.61	0.782
355.82	0.787
356.02	0.786
356.23	0.779
356.44	0.782
356.65	0.785
356.86	0.785
357.07	0.778
357.27	0.782
357.48	0.786
357.69	0.781
357.90	0.765
358.11	0.761
358.32	0.766
358.52	0.769
358.73	0.758
358.94	0.761
359.15	0.766
359.36	0.766
359.56	0.761
359.77	0.758
359.98	0.765
360.19	0.766
360.40	0.762
360.61	0.763
360.81	0.762
361.02	0.762
361.23	0.753
361.44	0.751
361.65	0.752
361.85	0.751
362.06	0.748
362.27	0.751
362.48	0.751
362.69	0.754
362.89	0.746
363.10	0.748
363.31	0.753
363.52	0.756
363.73	0.752
363.93	0.753
364.14	0.755
364.35	0.757
364.56	0.746
364.77	0.748
364.97	0.751
365.18	0.753
365.39	0.746
365.60	0.743
365.81	0.744
366.01	0.744
366.22	0.740
366.43	0.738
366.64	0.741
366.84	0.747
367.05	0.743
367.26	0.743
367.47	0.744
367.68	0.745
367.88	0.742
368.09	0.740
368.30	0.742
368.51	0.743
368.71	0.743
368.92	0.747
369.13	0.745
369.34	0.745
369.55	0.743
369.75	0.742
369.96	0.749
370.17	0.750
370.38	0.746
370.58	0.745
370.79	0.751
371.00	0.749
371.21	0.740
371.41	0.746
371.62	0.750
371.83	0.745
372.04	0.743
372.24	0.736
372.45	0.737
372.66	0.737
372.87	0.734
373.07	0.730
373.28	0.730
373.49	0.732
373.70	0.722
373.90	0.721
374.11	0.730
374.32	0.730
374.53	0.728
374.73	0.729
374.94	0.731
375.15	0.731
375.36	0.729
375.56	0.739
375.77	0.739
375.98	0.739
376.19	0.736
376.39	0.730
376.60	0.734
376.81	0.735
377.02	0.733
377.22	0.731
377.43	0.731
377.64	0.731
377.84	0.721
378.05	0.726
378.26	0.732
378.47	0.731
378.67	0.727
378.88	0.724
379.09	0.724
379.30	0.724
379.50	0.722
379.71	0.725
379.92	0.728
380.12	0.728
380.33	0.719
380.54	0.716
380.75	0.723
380.95	0.724
381.16	0.722
381.37	0.722
381.57	0.723
381.78	0.724
381.99	0.723
382.20	0.722
382.40	0.725
382.61	0.724
382.82	0.721
383.02	0.714
383.23	0.717
383.44	0.716
383.64	0.714
383.85	0.717
384.06	0.720
384.27	0.717
384.47	0.716
384.68	0.716
384.89	0.722
385.09	0.721
385.30	0.720
385.51	0.719
385.71	0.723
385.92	0.723
386.13	0.721
386.33	0.723
386.54	0.725
386.75	0.723
386.95	0.719
387.16	0.714
387.37	0.717
387.58	0.717
387.78	0.714
387.99	0.711
388.20	0.714
388.40	0.711
388.61	0.706
388.82	0.709
389.02	0.711
389.23	0.711
389.44	0.710
389.64	0.710
389.85	0.721
390.06	0.721
390.26	0.722
390.47	0.720
390.68	0.723
390.88	0.721
391.09	0.716
391.30	0.716
391.50	0.716
391.71	0.716
391.92	0.713
392.12	0.706
392.33	0.707
392.53	0.706
392.74	0.706
392.95	0.706
393.15	0.708
393.36	0.711
393.57	0.708
393.77	0.711
393.98	0.714
394.19	0.713
394.39	0.712
394.60	0.713
394.81	0.714
395.01	0.712
395.22	0.710
395.43	0.710
395.63	0.714
395.84	0.715
396.04	0.710
396.25	0.712
396.46	0.714
396.66	0.711
396.87	0.709
397.08	0.707
397.28	0.709
397.49	0.710
397.69	0.706
397.90	0.701
398.11	0.703
398.31	0.703
398.52	0.699
398.73	0.700
398.93	0.700
399.14	0.699
399.34	0.698
399.55	0.698
399.76	0.699
399.96	0.700
400.17	0.698
400.37	0.696
400.58	0.703
400.79	0.705
400.99	0.702
401.20	0.707
401.41	0.710
401.61	0.710
401.82	0.715
402.02	0.715
402.23	0.716
402.44	0.715
402.64	0.715
402.85	0.710
403.05	0.708
403.26	0.707
403.47	0.701
403.67	0.700
403.88	0.701
404.08	0.696
404.29	0.693
404.50	0.693
404.70	0.694
404.91	0.693
405.11	0.690
405.32	0.690
405.52	0.691
405.73	0.690
405.94	0.689
406.14	0.691
406.35	0.693
406.55	0.693
406.76	0.690
406.97	0.691
407.17	0.694
407.38	0.694
407.58	0.692
407.79	0.695
407.99	0.698
408.20	0.698
408.41	0.693
408.61	0.692
408.82	0.693
409.02	0.693
409.23	0.691
409.43	0.690
409.64	0.691
409.84	0.691
410.05	0.687
410.26	0.685
410.46	0.685
410.67	0.684
410.87	0.685
411.08	0.687
411.28	0.688
411.49	0.689
411.69	0.686
411.90	0.687
412.11	0.689
412.31	0.689
412.52	0.688
412.72	0.689
412.93	0.690
413.13	0.688
413.34	0.685
413.54	0.686
413.75	0.688
413.95	0.687
414.16	0.684
414.37	0.687
414.57	0.688
414.78	0.691
414.98	0.689
415.19	0.691
415.39	0.689
415.60	0.690
415.80	0.689
416.01	0.687
416.21	0.689
416.42	0.689
416.62	0.684
416.83	0.684
417.03	0.684
417.24	0.684
417.44	0.681
417.65	0.681
417.86	0.681
418.06	0.680
418.27	0.678
418.47	0.679
418.68	0.680
418.88	0.681
419.09	0.679
419.29	0.680
419.50	0.680
419.70	0.681
419.91	0.678
420.11	0.676
420.32	0.679
420.52	0.679
420.73	0.678
420.93	0.678
421.14	0.680
421.34	0.679
421.55	0.675
421.75	0.675
421.96	0.676
422.16	0.676
422.37	0.675
422.57	0.672
422.78	0.673
422.98	0.670
423.19	0.668
423.39	0.667
423.60	0.670
423.80	0.671
424.01	0.670
424.21	0.673
424.42	0.674
424.62	0.673
424.83	0.673
425.03	0.674
425.23	0.676
425.44	0.676
425.64	0.675
425.85	0.674
426.05	0.675
426.26	0.676
426.46	0.672
426.67	0.672
426.87	0.677
427.08	0.677
427.28	0.675
427.49	0.676
427.69	0.677
427.90	0.676
428.10	0.673
428.31	0.673
428.51	0.674
428.71	0.673
428.92	0.674
429.12	0.670
429.33	0.671
429.53	0.675
429.74	0.679
429.94	0.679
430.15	0.679
430.35	0.679
430.56	0.677
430.76	0.677
430.96	0.678
431.17	0.676
431.37	0.673
431.58	0.672
431.78	0.669
431.99	0.662
432.19	0.663
432.40	0.665
432.60	0.666
432.80	0.668
433.01	0.666
433.21	0.666
433.42	0.669
433.62	0.669
433.83	0.669
434.03	0.671
434.23	0.675
434.44	0.674
434.64	0.672
434.85	0.676
435.05	0.677
435.26	0.677
435.46	0.676
435.66	0.675
435.87	0.675
436.07	0.675
436.28	0.671
436.48	0.668
436.69	0.667
436.89	0.668
437.09	0.661
437.30	0.660
437.50	0.661
437.71	0.673
437.91	0.671
438.11	0.673
438.32	0.677
438.52	0.678
438.73	0.677
438.93	0.675
439.13	0.675
439.34	0.679
439.54	0.676
439.75	0.676
439.95	0.666
440.15	0.671
440.36	0.669
440.56	0.667
440.77	0.667
440.97	0.667
441.17	0.666
441.38	0.668
441.58	0.665
441.79	0.665
441.99	0.663
442.19	0.663
442.40	0.661
442.60	0.661
442.81	0.658
443.01	0.659
443.21	0.659
443.42	0.659
443.62	0.657
443.82	0.657
444.03	0.659
444.23	0.659
444.44	0.659
444.64	0.658
444.84	0.659
445.05	0.660
445.25	0.658
445.45	0.658
445.66	0.661
445.86	0.660
446.06	0.661
446.27	0.661
446.47	0.665
446.68	0.662
446.88	0.661
447.08	0.660
447.29	0.662
447.49	0.661
447.69	0.661
447.90	0.659
448.10	0.663
448.30	0.660
448.51	0.661
448.71	0.658
448.91	0.661
449.12	0.660
449.32	0.661
449.52	0.661
449.73	0.665
449.93	0.664
450.14	0.665
450.34	0.664
450.54	0.666
450.75	0.664
450.95	0.663
451.15	0.663
451.36	0.665
451.56	0.662
451.76	0.661
451.97	0.659
452.17	0.659
452.37	0.657
452.58	0.654
452.78	0.653
452.98	0.655
453.19	0.655
453.39	0.655
453.59	0.654
453.79	0.655
454.00	0.655
454.20	0.654
454.40	0.656
454.61	0.658
454.81	0.658
455.01	0.657
455.22	0.658
455.42	0.661
455.62	0.658
455.83	0.658
456.03	0.661
456.23	0.662
456.44	0.663
456.64	0.661
456.84	0.661
457.04	0.662
457.25	0.661
457.45	0.658
457.65	0.656
457.86	0.658
458.06	0.657
458.26	0.651
458.47	0.651
458.67	0.653
458.87	0.654
459.07	0.651
459.28	0.653
459.48	0.655
459.68	0.655
459.89	0.654
460.09	0.652
460.29	0.653
460.49	0.655
460.70	0.654
460.90	0.653
461.10	0.654
461.31	0.653
461.51	0.650
461.71	0.652
461.91	0.654
462.12	0.654
462.32	0.653
462.52	0.654
462.72	0.657
462.93	0.657
463.13	0.656
463.33	0.657
463.53	0.659
463.74	0.659
463.94	0.654
464.14	0.654
464.35	0.656
464.55	0.656
464.75	0.653
464.95	0.651
465.16	0.653
465.36	0.652
465.56	0.651
465.76	0.650
465.97	0.651
466.17	0.652
466.37	0.650
466.57	0.651
466.78	0.652
466.98	0.653
467.18	0.650
467.38	0.649
467.59	0.650
467.79	0.652
467.99	0.651
468.19	0.653
468.39	0.656
468.60	0.656
468.80	0.654
469.00	0.655
469.20	0.656
469.41	0.657
469.61	0.656
469.81	0.656
470.01	0.656
470.22	0.656
470.42	0.654
470.62	0.651
470.82	0.653
471.02	0.653
471.23	0.651
471.43	0.652
471.63	0.654
471.83	0.654
472.04	0.652
472.24	0.651
472.44	0.657
472.64	0.657
472.84	0.655
473.05	0.655
473.25	0.657
473.45	0.656
473.65	0.655
473.85	0.655
474.06	0.656
474.26	0.655
474.46	0.656
474.66	0.652
474.86	0.653
475.07	0.653
475.27	0.651
475.47	0.649
475.67	0.649
475.87	0.651
476.08	0.648
476.28	0.649
476.48	0.651
476.68	0.649
476.88	0.647
477.09	0.648
477.29	0.650
477.49	0.650
477.69	0.649
477.89	0.650
478.09	0.649
478.30	0.651
478.50	0.648
478.70	0.647
478.90	0.648
479.10	0.651
479.31	0.652
479.51	0.650
479.71	0.650
479.91	0.650
480.11	0.649
480.31	0.649
480.52	0.648
480.72	0.648
480.92	0.647
481.12	0.646
481.32	0.643
481.52	0.641
481.72	0.641
481.93	0.645
482.13	0.646
482.33	0.645
482.53	0.643
482.73	0.644
482.93	0.645
483.14	0.644
483.34	0.644
483.54	0.645
483.74	0.644
483.94	0.644
484.14	0.639
484.34	0.639
484.55	0.640
484.75	0.640
484.95	0.638
485.15	0.638
485.35	0.638
485.55	0.638
485.75	0.635
485.96	0.635
486.16	0.637
486.36	0.637
486.56	0.634
486.76	0.634
486.96	0.635
487.16	0.634
487.36	0.632
487.57	0.632
487.77	0.633
487.97	0.634
488.17	0.631
488.37	0.630
488.57	0.631
488.77	0.632
488.97	0.630
489.18	0.629
489.38	0.632
489.58	0.633
489.78	0.632
489.98	0.632
490.18	0.632
490.38	0.633
490.58	0.632
490.78	0.632
490.98	0.634
491.19	0.635
491.39	0.634
491.59	0.633
491.79	0.636
491.99	0.636
492.19	0.636
492.39	0.639
492.59	0.639
492.79	0.641
492.99	0.641
493.20	0.641
493.40	0.641
493.60	0.643
493.80	0.641
494.00	0.639
494.20	0.640
494.40	0.639
494.60	0.636
494.80	0.641
495.00	0.640
495.20	0.639
495.40	0.637
495.61	0.639
495.81	0.638
496.01	0.641
496.21	0.642
496.41	0.642
496.61	0.643
496.81	0.642
497.01	0.636
497.21	0.636
497.41	0.637
497.61	0.636
497.81	0.633
498.01	0.634
498.21	0.632
498.41	0.630
498.61	0.630
498.82	0.631
499.02	0.633
499.22	0.634
499.42	0.633
499.62	0.634
499.82	0.635
500.02	0.636
500.22	0.635
500.42	0.637
500.62	0.637
500.82	0.638
501.02	0.635
501.22	0.636
501.42	0.636
501.62	0.637
501.82	0.636
502.02	0.636
502.22	0.636
502.42	0.638
502.62	0.635
502.82	0.636
503.02	0.637
503.22	0.637
503.42	0.634
503.63	0.635
503.83	0.633
504.03	0.632
504.23	0.630
504.43	0.631
504.63	0.633
504.83	0.632
505.03	0.631
505.23	0.633
505.43	0.635
505.63	0.636
505.83	0.635
506.03	0.637
506.23	0.639
506.43	0.639
506.63	0.638
506.83	0.637
507.03	0.638
507.23	0.639
507.43	0.636
507.63	0.636
507.83	0.637
508.03	0.637
508.23	0.636
508.43	0.635
508.63	0.637
508.83	0.637
509.03	0.638
509.23	0.637
509.43	0.638
509.63	0.639
509.83	0.637
510.03	0.639
510.23	0.642
510.43	0.642
510.63	0.642
510.83	0.642
511.03	0.643
511.23	0.641
511.43	0.640
511.63	0.642
511.83	0.644
512.03	0.644
512.22	0.642
512.42	0.641
512.62	0.642
512.82	0.641
513.02	0.641
513.22	0.641
513.42	0.643
513.62	0.646
513.82	0.643
514.02	0.643
514.22	0.644
514.42	0.644
514.62	0.644
514.82	0.644
515.02	0.647
515.22	0.650
515.42	0.649
515.62	0.651
515.82	0.650
516.02	0.652
516.22	0.651
516.42	0.653
516.62	0.655
516.82	0.656
517.01	0.654
517.21	0.653
517.41	0.657
517.61	0.657
517.81	0.653
518.01	0.652
518.21	0.652
518.41	0.651
518.61	0.649
518.81	0.649
519.01	0.651
519.21	0.652
519.41	0.650
519.61	0.645
519.81	0.647
520.00	0.648
520.20	0.648
520.40	0.650
520.60	0.651
520.80	0.651
521.00	0.651
521.20	0.652
521.40	0.657
521.60	0.658
521.80	0.657
522.00	0.657
522.20	0.660
522.39	0.660
522.59	0.657
522.79	0.658
522.99	0.660
523.19	0.658
523.39	0.656
523.59	0.654
523.79	0.657
523.99	0.659
524.19	0.657
524.38	0.655
524.58	0.657
524.78	0.657
524.98	0.656
525.18	0.658
525.38	0.660
525.58	0.660
525.78	0.658
525.98	0.656
526.18	0.657
526.37	0.657
526.57	0.658
526.77	0.658
526.97	0.659
527.17	0.659
527.37	0.654
527.57	0.657
527.77	0.659
527.96	0.659
528.16	0.658
528.36	0.658
528.56	0.660
528.76	0.658
528.96	0.656
529.16	0.658
529.36	0.661
529.55	0.661
529.75	0.658
529.95	0.657
530.15	0.659
530.35	0.662
530.55	0.659
530.75	0.660
530.94	0.661
531.14	0.662
531.34	0.659
531.54	0.657
531.74	0.661
531.94	0.664
532.13	0.663
532.33	0.664
532.53	0.663
532.73	0.663
532.93	0.661
533.13	0.662
533.33	0.662
533.52	0.662
533.72	0.666
533.92	0.664
534.12	0.661
534.32	0.661
534.52	0.659
534.71	0.661
534.91	0.664
535.11	0.666
535.31	0.664
535.51	0.666
535.71	0.668
535.90	0.665
536.10	0.667
536.30	0.669
536.50	0.670
536.70	0.671
536.89	0.668
537.09	0.668
537.29	0.669
537.49	0.670
537.69	0.667
537.89	0.667
538.08	0.667
538.28	0.665
538.48	0.665
538.68	0.667
538.88	0.668
539.07	0.668
539.27	0.666
539.47	0.665
539.67	0.665
539.87	0.666
540.06	0.664
540.26	0.665
540.46	0.668
540.66	0.665
540.86	0.663
541.05	0.663
541.25	0.665
541.45	0.666
541.65	0.664
541.84	0.666
542.04	0.668
542.24	0.668
542.44	0.667
542.64	0.669
542.83	0.671
543.03	0.671
543.23	0.669
543.43	0.669
543.62	0.671
543.82	0.671
544.02	0.670
544.22	0.670
544.42	0.674
544.61	0.674
544.81	0.670
545.01	0.669
545.21	0.672
545.40	0.673
545.60	0.671
545.80	0.674
546.00	0.675
546.19	0.674
546.39	0.672
546.59	0.670
546.79	0.671
546.98	0.672
547.18	0.671
547.38	0.671
547.58	0.674
547.77	0.675
547.97	0.670
548.17	0.672
548.37	0.673
548.56	0.673
548.76	0.672
548.96	0.674
549.16	0.677
549.35	0.676
549.55	0.673
549.75	0.674
549.95	0.677
550.14	0.678
550.34	0.675
550.54	0.680
550.73	0.685
550.93	0.685
551.13	0.682
551.33	0.681
551.52	0.683
551.72	0.683
551.92	0.681
552.12	0.681
552.31	0.682
552.51	0.682
552.71	0.677
552.90	0.676
553.10	0.678
553.30	0.677
553.50	0.677
553.69	0.678
553.89	0.679
554.09	0.679
554.28	0.675
554.48	0.677
554.68	0.679
554.87	0.680
555.07	0.676
555.27	0.676
555.47	0.678
555.66	0.679
555.86	0.676
556.06	0.679
556.25	0.680
556.45	0.688
556.65	0.686
556.84	0.689
557.04	0.693
557.24	0.694
557.43	0.693
557.63	0.697
557.83	0.698
558.02	0.699
558.22	0.703
558.42	0.704
558.61	0.697
558.81	0.697
559.01	0.693
559.21	0.693
559.40	0.694
559.60	0.695
559.80	0.691
559.99	0.692
560.19	0.694
560.39	0.688
560.58	0.685
560.78	0.685
560.97	0.688
561.17	0.687
561.37	0.685
561.56	0.685
561.76	0.687
561.96	0.686
562.15	0.684
562.35	0.686
562.55	0.687
562.74	0.687
562.94	0.686
563.14	0.684
563.33	0.686
563.53	0.686
563.73	0.683
563.92	0.685
564.12	0.687
564.31	0.689
564.51	0.687
564.71	0.689
564.90	0.692
565.10	0.693
565.30	0.695
565.49	0.695
565.69	0.698
565.89	0.698
566.08	0.695
566.28	0.696
566.47	0.698
566.67	0.696
566.87	0.693
567.06	0.695
567.26	0.701
567.46	0.697
567.65	0.696
567.85	0.698
568.04	0.700
568.24	0.699
568.44	0.696
568.63	0.694
568.83	0.696
569.02	0.694
569.22	0.690
569.42	0.686
569.61	0.688
569.81	0.687
570.00	0.685
570.20	0.686
570.40	0.688
570.59	0.688
570.79	0.685
570.98	0.683
571.18	0.685
571.38	0.685
571.57	0.682
571.77	0.680
571.96	0.683
572.16	0.680
572.35	0.675
572.55	0.676
572.75	0.674
572.94	0.674
573.14	0.673
573.33	0.673
573.53	0.673
573.73	0.672
573.92	0.670
574.12	0.668
574.31	0.672
574.51	0.672
574.70	0.669
574.90	0.670
575.09	0.673
575.29	0.673
575.49	0.670
575.68	0.671
575.88	0.673
576.07	0.674
576.27	0.671
576.46	0.670
576.66	0.669
576.86	0.669
577.05	0.667
577.25	0.665
577.44	0.667
577.64	0.667
577.83	0.665
578.03	0.666
578.22	0.665
578.42	0.664
578.61	0.663
578.81	0.663
579.00	0.664
579.20	0.663
579.40	0.662
579.59	0.660
579.79	0.661
579.98	0.660
580.18	0.659
580.37	0.660
580.57	0.662
580.76	0.667
580.96	0.665
581.15	0.666
581.35	0.668
581.54	0.668
581.74	0.668
581.93	0.669
582.13	0.671
582.32	0.668
582.52	0.666
582.71	0.666
582.91	0.662
583.10	0.662
583.30	0.660
583.49	0.659
583.69	0.663
583.88	0.664
584.08	0.662
584.27	0.665
584.47	0.668
584.66	0.668
584.86	0.667
585.05	0.669
585.25	0.672
585.44	0.671
585.64	0.669
585.83	0.667
586.03	0.668
586.22	0.666
586.42	0.662
586.61	0.664
586.81	0.667
587.00	0.667
587.20	0.664
587.39	0.665
587.59	0.667
587.78	0.669
587.98	0.669
588.17	0.670
588.37	0.672
588.56	0.675
588.76	0.670
588.95	0.670
589.15	0.674
589.34	0.677
589.54	0.676
589.73	0.677
589.92	0.679
590.12	0.680
590.31	0.677
590.51	0.682
590.70	0.684
590.90	0.684
591.09	0.682
591.29	0.681
591.48	0.680
591.68	0.681
591.87	0.679
592.06	0.679
592.26	0.682
592.45	0.681
592.65	0.674
592.84	0.674
593.04	0.678
593.23	0.679
593.43	0.676
593.62	0.676
593.81	0.676
594.01	0.675
594.20	0.672
594.40	0.671
594.59	0.674
594.79	0.675
594.98	0.674
595.17	0.673
595.37	0.673
595.56	0.676
595.76	0.675
595.95	0.677
596.14	0.680
596.34	0.681
596.53	0.679
596.73	0.680
596.92	0.681
597.12	0.684
597.31	0.683
597.50	0.683
597.70	0.685
597.89	0.684
598.09	0.681
598.28	0.682
598.47	0.685
598.67	0.683
598.86	0.679
599.06	0.681
599.25	0.682
599.44	0.679
599.64	0.677
599.83	0.675
600.03	0.678
600.22	0.678
600.41	0.678
600.61	0.676
600.80	0.679
601.00	0.680
601.19	0.675
601.38	0.673
601.58	0.676
601.77	0.677
601.96	0.679
602.16	0.679
602.35	0.689
602.55	0.686
602.74	0.687
602.93	0.688
603.13	0.694
603.32	0.695
603.51	0.695
603.71	0.699
603.90	0.701
604.09	0.702
604.29	0.698
604.48	0.692
604.68	0.694
604.87	0.692
605.06	0.688
605.26	0.685
605.45	0.686
605.64	0.685
605.84	0.680
606.03	0.678
606.22	0.678
606.42	0.677
606.61	0.673
606.80	0.673
607.00	0.676
607.19	0.676
607.38	0.675
607.58	0.676
607.77	0.678
607.96	0.679
608.16	0.677
608.35	0.682
608.54	0.685
608.74	0.688
608.93	0.693
609.12	0.696
609.32	0.699
609.51	0.702
609.70	0.701
609.90	0.704
610.09	0.708
610.28	0.714
610.48	0.707
610.67	0.709
610.86	0.710
611.06	0.704
611.25	0.702
611.44	0.702
611.64	0.702
611.83	0.705
612.02	0.701
612.21	0.700
612.41	0.699
612.60	0.698
612.79	0.693
612.99	0.693
613.18	0.695
613.37	0.692
613.57	0.690
613.76	0.691
613.95	0.689
614.14	0.689
614.34	0.686
614.53	0.687
614.72	0.690
614.92	0.691
615.11	0.687
615.30	0.684
615.49	0.686
615.69	0.689
615.88	0.685
616.07	0.686
616.26	0.689
616.46	0.689
616.65	0.686
616.84	0.686
617.04	0.688
617.23	0.692
617.42	0.692
617.61	0.695
617.81	0.696
618.00	0.697
618.19	0.696
618.38	0.700
618.58	0.705
618.77	0.705
618.96	0.704
619.15	0.706
619.35	0.707
619.54	0.708
619.73	0.704
619.92	0.706
620.12	0.711
620.31	0.711
620.50	0.705
620.69	0.705
620.89	0.710
621.08	0.709
621.27	0.709
621.46	0.708
621.66	0.712
621.85	0.712
622.04	0.708
622.23	0.709
622.43	0.709
622.62	0.709
622.81	0.707
623.00	0.706
623.19	0.710
623.39	0.709
623.58	0.706
623.77	0.705
623.96	0.708
624.16	0.708
624.35	0.703
624.54	0.706
624.73	0.711
624.92	0.709
625.12	0.706
625.31	0.707
625.50	0.710
625.69	0.710
625.88	0.706
626.08	0.707
626.27	0.708
626.46	0.709
626.65	0.705
626.84	0.705
627.04	0.711
627.23	0.711
627.42	0.706
627.61	0.708
627.80	0.711
628.00	0.712
628.19	0.709
628.38	0.713
628.57	0.716
628.76	0.716
628.96	0.712
629.15	0.712
629.34	0.716
629.53	0.716
629.72	0.709
629.91	0.710
630.11	0.715
630.30	0.714
630.49	0.716
630.68	0.717
630.87	0.721
631.06	0.723
631.26	0.718
631.45	0.720
631.64	0.729
631.83	0.731
632.02	0.729
632.21	0.728
632.41	0.737
632.60	0.732
632.79	0.730
632.98	0.730
633.17	0.732
633.36	0.734
633.55	0.730
633.75	0.725
633.94	0.728
634.13	0.728
634.32	0.724
634.51	0.717
634.70	0.719
634.89	0.718
635.09	0.715
635.28	0.714
635.47	0.715
635.66	0.718
635.85	0.714
636.04	0.715
636.23	0.721
636.43	0.723
636.62	0.722
636.81	0.721
637.00	0.724
637.19	0.727
637.38	0.725
637.57	0.725
637.76	0.728
637.95	0.729
638.15	0.725
638.34	0.721
638.53	0.725
638.72	0.726
638.91	0.723
639.10	0.721
639.29	0.723
639.48	0.724
639.67	0.723
639.87	0.721
640.06	0.726
640.25	0.726
640.44	0.726
640.63	0.726
640.82	0.730
641.01	0.730
641.20	0.728
641.39	0.729
641.58	0.732
641.78	0.730
641.97	0.725
642.16	0.740
642.35	0.742
642.54	0.740
642.73	0.733
642.92	0.731
643.11	0.735
643.30	0.736
643.49	0.730
643.68	0.733
643.87	0.736
644.06	0.736
644.25	0.715
644.45	0.717
644.64	0.719
644.83	0.721
645.02	0.717
645.21	0.716
645.40	0.719
645.59	0.719
645.78	0.712
645.97	0.715
646.16	0.717
646.35	0.716
646.54	0.714
646.73	0.715
646.92	0.717
647.11	0.715
647.30	0.710
647.49	0.712
647.68	0.711
647.88	0.708
648.07	0.700
648.26	0.703
648.45	0.705
648.64	0.701
648.83	0.698
649.02	0.701
649.21	0.712
649.40	0.712
649.59	0.707
649.78	0.708
649.97	0.723
650.16	0.724
650.35	0.717
650.54	0.719
650.73	0.729
650.92	0.726
651.11	0.718
651.30	0.715
651.49	0.720
651.68	0.720
651.87	0.717
652.06	0.707
652.25	0.710
652.44	0.712
652.63	0.708
652.82	0.706
653.01	0.707
653.20	0.704
653.39	0.693
653.58	0.691
653.77	0.691
653.96	0.686
654.15	0.677
654.34	0.676
654.53	0.671
654.72	0.666
654.91	0.656
655.10	0.652
655.29	0.650
655.48	0.648
655.67	0.642
655.86	0.638
656.05	0.637
656.24	0.637
656.43	0.631
656.62	0.630
656.81	0.630
657.00	0.629
657.19	0.626
657.38	0.626
657.57	0.627
657.76	0.629
657.95	0.628
658.14	0.632
658.33	0.635
658.51	0.640
658.70	0.641
658.89	0.643
659.08	0.651
659.27	0.660
659.46	0.659
659.65	0.665
659.84	0.670
660.03	0.673
660.22	0.674
660.41	0.678
660.60	0.679
660.79	0.680
660.98	0.686
661.17	0.685
661.36	0.684
661.55	0.685
661.74	0.683
661.92	0.685
662.11	0.687
662.30	0.685
662.49	0.677
662.68	0.677
662.87	0.681
663.06	0.674
663.25	0.675
663.44	0.676
663.63	0.677
663.82	0.676
664.01	0.670
664.20	0.669
664.38	0.670
664.57	0.672
664.76	0.670
664.95	0.671
665.14	0.676
665.33	0.671
665.52	0.677
665.71	0.681
665.90	0.681
666.09	0.682
666.28	0.679
666.46	0.678
666.65	0.679
666.84	0.677
667.03	0.672
667.22	0.670
667.41	0.674
667.60	0.663
667.79	0.656
667.98	0.657
668.16	0.658
668.35	0.659
668.54	0.655
668.73	0.655
668.92	0.657
669.11	0.655
669.30	0.648
669.49	0.644
669.67	0.647
669.86	0.651
670.05	0.648
670.24	0.646
670.43	0.643
670.62	0.642
670.81	0.636
671.00	0.638
671.18	0.638
671.37	0.638
671.56	0.635
671.75	0.634
671.94	0.630
672.13	0.628
672.32	0.623
672.50	0.622
672.69	0.622
672.88	0.623
673.07	0.617
673.26	0.619
673.45	0.621
673.63	0.621
673.82	0.618
674.01	0.619
674.20	0.619
674.39	0.618
674.58	0.618
674.76	0.618
674.95	0.617
675.14	0.618
675.33	0.613
675.52	0.611
675.71	0.611
675.89	0.610
676.08	0.606
676.27	0.606
676.46	0.607
676.65	0.606
676.84	0.605
677.02	0.607
677.21	0.609
677.40	0.608
677.59	0.605
677.78	0.606
677.96	0.609
678.15	0.608
678.34	0.606
678.53	0.607
678.72	0.608
678.90	0.604
679.09	0.599
679.28	0.596
679.47	0.596
679.66	0.596
679.84	0.592
680.03	0.589
680.22	0.588
680.41	0.589
680.60	0.585
680.78	0.585
680.97	0.587
681.16	0.588
681.35	0.587
681.53	0.586
681.72	0.588
681.91	0.590
682.10	0.588
682.29	0.591
682.47	0.589
682.66	0.589
682.85	0.587
683.04	0.584
683.22	0.584
683.41	0.586
683.60	0.584
683.79	0.585
683.97	0.584
684.16	0.583
684.35	0.579
684.54	0.580
684.72	0.580
684.91	0.582
685.10	0.580
685.29	0.581
685.47	0.579
685.66	0.578
685.85	0.574
686.04	0.574
686.22	0.577
686.41	0.579
686.60	0.576
686.79	0.579
686.97	0.580
687.16	0.582
687.35	0.578
687.54	0.582
687.72	0.586
687.91	0.586
688.10	0.587
688.29	0.587
688.47	0.585
688.66	0.585
688.85	0.580
689.03	0.578
689.22	0.582
689.41	0.583
689.60	0.578
689.78	0.576
689.97	0.576
690.16	0.573
690.34	0.570
690.53	0.570
690.72	0.570
690.91	0.568
691.09	0.566
691.28	0.560
691.47	0.558
691.65	0.557
691.84	0.553
692.03	0.552
692.21	0.550
692.40	0.550
692.59	0.547
692.77	0.546
692.96	0.548
693.15	0.548
693.34	0.546
693.52	0.546
693.71	0.547
693.90	0.548
694.08	0.549
694.27	0.550
694.46	0.560
694.64	0.561
694.83	0.560
695.02	0.559
695.20	0.559
695.39	0.559
695.58	0.559
695.76	0.560
695.95	0.559
696.14	0.558
696.32	0.555
696.51	0.546
696.70	0.546
696.88	0.548
697.07	0.546
697.26	0.547
697.44	0.548
697.63	0.546
697.81	0.544
698.00	0.544
698.19	0.543
698.37	0.544
698.56	0.543
698.75	0.542
698.93	0.542
699.12	0.542
699.31	0.541
699.49	0.541
699.68	0.542
699.87	0.545
700.05	0.545
700.24	0.544
700.42	0.545
700.61	0.544
700.80	0.542
700.98	0.541
701.17	0.543
701.36	0.542
701.54	0.541
701.73	0.542
701.91	0.540
702.10	0.538
702.29	0.536
702.47	0.536
702.66	0.538
702.84	0.539
703.03	0.538
703.22	0.540
703.40	0.540
703.59	0.541
703.77	0.541
703.96	0.541
704.15	0.543
704.33	0.543
704.52	0.542
704.70	0.541
704.89	0.542
705.08	0.540
705.26	0.535
705.45	0.535
705.63	0.535
705.82	0.531
706.00	0.530
706.19	0.529
706.38	0.529
706.56	0.528
706.75	0.526
706.93	0.525
707.12	0.527
707.30	0.528
707.49	0.526
707.68	0.523
707.86	0.523
708.05	0.524
708.23	0.521
708.42	0.522
708.60	0.525
708.79	0.525
708.98	0.523
709.16	0.521
709.35	0.523
709.53	0.527
709.72	0.527
709.90	0.528
710.09	0.530
710.27	0.532
710.46	0.535
710.64	0.534
710.83	0.536
711.02	0.538
711.20	0.536
711.39	0.534
711.57	0.532
711.76	0.532
711.94	0.529
712.13	0.530
712.31	0.529
712.50	0.525
712.68	0.523
712.87	0.523
713.05	0.524
713.24	0.525
713.42	0.524
713.61	0.524
713.79	0.525
713.98	0.525
714.16	0.526
714.35	0.526
714.54	0.528
714.72	0.527
714.91	0.525
715.09	0.532
715.28	0.535
715.46	0.535
715.65	0.532
715.83	0.533
716.02	0.535
716.20	0.532
716.39	0.531
716.57	0.533
716.76	0.535
716.94	0.536
717.12	0.528
717.31	0.529
717.49	0.532
717.68	0.534
717.86	0.533
718.05	0.535
718.23	0.538
718.42	0.539
718.60	0.539
718.79	0.547
718.97	0.550
719.16	0.549
719.34	0.547
719.53	0.547
719.71	0.547
719.90	0.549
720.08	0.546
720.27	0.547
720.45	0.547
720.63	0.546
720.82	0.540
721.00	0.542
721.19	0.546
721.37	0.545
721.56	0.545
721.74	0.548
721.93	0.557
722.11	0.564
722.30	0.563
722.48	0.568
722.66	0.570
722.85	0.570
723.03	0.571
723.22	0.569
723.40	0.572
723.59	0.571
723.77	0.575
723.95	0.568
724.14	0.570
724.32	0.571
724.51	0.571
724.69	0.572
724.88	0.573
725.06	0.570
725.24	0.572
725.43	0.574
725.61	0.578
725.80	0.571
725.98	0.569
726.16	0.564
726.35	0.570
726.53	0.568
726.72	0.567
726.90	0.578
727.09	0.580
727.27	0.586
727.45	0.583
727.64	0.592
727.82	0.602
728.01	0.606
728.19	0.604
728.37	0.610
728.56	0.615
728.74	0.621
728.92	0.608
729.11	0.611
729.29	0.610
729.48	0.612
729.66	0.601
729.84	0.599
730.03	0.604
730.21	0.606
730.40	0.595
730.58	0.598
730.76	0.598
730.95	0.600
731.13	0.600
731.31	0.614
731.50	0.624
731.68	0.627
731.86	0.624
732.05	0.638
732.23	0.642
732.42	0.647
732.60	0.648
732.78	0.653
732.97	0.674
733.15	0.679
733.33	0.667
733.52	0.676
733.70	0.689
733.88	0.699
734.07	0.682
734.25	0.710
734.43	0.719
734.62	0.722
734.80	0.717
734.98	0.705
735.17	0.713
735.35	0.720
735.53	0.707
735.72	0.711
735.90	0.735
736.08	0.758
736.27	0.732
736.45	0.743
736.63	0.758
736.82	0.770
737.00	0.774
737.18	0.787
737.37	0.821
737.55	0.846
737.73	0.841
737.92	0.845
738.10	0.844
738.28	0.870
738.46	0.855
738.65	0.868
738.83	0.895
739.01	0.954
739.20	0.942
739.38	0.924
739.56	0.918
739.75	0.922
739.93	0.881
740.11	0.909
740.29	0.908
740.48	0.916
740.66	0.892
740.84	0.884
741.03	0.846
741.21	0.858
741.39	0.838
741.57	0.853
741.76	0.872
741.94	0.880
742.12	0.839
742.31	0.846
742.49	0.872
742.67	0.901
742.85	0.920
743.04	0.925
743.22	0.941
743.40	1.000
743.58	0.974
743.77	0.994
743.95	1.040
744.13	1.102
744.31	1.075
744.50	1.062
744.68	1.060
744.86	1.023
745.04	1.042
745.23	1.117
745.41	1.103
745.59	1.111
745.77	1.065
745.96	1.049
746.14	1.061
746.32	1.061
746.50	1.049
746.69	1.033
746.87	1.050
747.05	1.024
747.23	0.938
747.42	0.920
747.60	0.956
747.78	0.964
747.96	1.001
748.14	0.947
748.33	0.984
748.51	0.976
748.69	0.963
748.87	1.002
749.06	1.000
749.24	0.998
749.42	0.974
749.60	0.949
749.78	0.958
749.97	0.904
750.15	0.897
750.33	0.896
750.51	0.935
750.69	0.940
750.88	0.935
751.06	0.948
751.24	0.977
751.42	0.969
751.60	0.953
751.79	1.034
751.97	1.097
752.15	1.102
752.33	1.058
752.51	1.135
752.69	1.161
752.88	1.120
753.06	1.177
753.24	1.150
753.42	1.212
753.60	1.488
753.78	1.256
753.97	1.277
754.15	1.308
754.33	1.345
754.51	1.162
754.69	1.139
754.87	1.186
755.06	1.088
755.24	1.078
755.42	1.077
755.60	0.959
755.78	0.968
755.96	0.903
756.15	0.900
756.33	0.909
756.51	0.928
756.69	0.912
756.87	0.875
757.05	0.899
757.23	0.882
757.42	0.844
757.60	0.840
757.78	0.829
757.96	0.828
758.14	0.808
758.32	0.792
758.50	0.806
758.69	0.802
758.87	0.792
759.05	0.795
759.23	0.807
759.41	0.810
759.59	0.802
759.77	0.828
759.95	0.857
760.13	0.918
760.32	0.912
760.50	0.909
760.68	0.941
760.86	0.944
761.04	0.913
761.22	0.917
761.40	0.973
761.58	0.980
761.76	0.940
761.95	0.921
762.13	0.868
762.31	0.870
762.49	0.829
762.67	0.849
762.85	0.866
763.03	0.857
763.21	0.834
763.39	0.812
763.57	0.816
763.75	0.811
763.94	0.793
764.12	0.797
764.30	0.826
764.48	0.832
764.66	0.790
764.84	0.784
765.02	0.828
765.20	0.841
765.38	0.821
765.56	0.824
765.74	0.873
765.92	0.873
766.10	0.878
766.28	0.869
766.46	0.903
766.65	0.904
766.83	0.889
767.01	0.870
767.19	0.877
767.37	0.877
767.55	0.859
767.73	0.834
767.91	0.840
768.09	0.828
768.27	0.814
768.45	0.802
768.63	0.809
768.81	0.811
768.99	0.782
769.17	0.809
769.35	0.826
769.53	0.826
769.71	0.804
769.89	0.817
770.07	0.823
770.25	0.805
770.43	0.783
770.61	0.809
770.79	0.818
770.97	0.829
771.15	0.791
771.33	0.791
771.51	0.795
771.69	0.808
771.87	0.811
772.05	0.818
772.24	0.829
772.42	0.837
772.60	0.811
772.78	0.876
772.96	0.907
773.14	0.900
773.32	0.879
773.49	0.890
773.67	0.888
773.85	0.864
774.03	0.848
774.21	0.884
774.39	0.899
774.57	0.926
774.75	0.844
774.93	0.838
775.11	0.870
775.29	0.875
775.47	0.874
775.65	0.885
775.83	0.911
776.01	0.938
776.19	0.882
776.37	0.881
776.55	0.881
776.73	0.879
776.91	0.872
777.09	0.851
777.27	0.849
777.45	0.835
777.63	0.811
777.81	0.804
777.99	0.789
778.17	0.787
778.35	0.763
778.53	0.751
778.71	0.757
778.89	0.744
779.07	0.731
779.24	0.735
779.42	0.739
779.60	0.759
779.78	0.754
779.96	0.760
780.14	0.770
780.32	0.793
780.50	0.774
780.68	0.774
780.86	0.766
781.04	0.786
781.22	0.791
781.40	0.801
781.58	0.792
781.75	0.782
781.93	0.764
782.11	0.762
782.29	0.751
782.47	0.747
782.65	0.733
782.83	0.762
783.01	0.755
783.19	0.748
783.37	0.731
783.55	0.735
783.72	0.757
783.90	0.767
784.08	0.759
784.26	0.771
784.44	0.793
784.62	0.796
784.80	0.760
784.98	0.763
785.16	0.772
785.33	0.787
785.51	0.768
785.69	0.754
785.87	0.756
786.05	0.770
786.23	0.764
786.41	0.763
786.59	0.772
786.77	0.772
786.94	0.761
787.12	0.761
787.30	0.765
787.48	0.762
787.66	0.749
787.84	0.747
788.02	0.736
788.19	0.734
788.37	0.717
788.55	0.718
788.73	0.720
788.91	0.714
789.09	0.697
789.27	0.685
789.44	0.697
789.62	0.702
789.80	0.713
789.98	0.741
790.16	0.727
790.34	0.724
790.51	0.710
790.69	0.732
790.87	0.738
791.05	0.735
791.23	0.726
791.41	0.727
791.58	0.737
791.76	0.711
791.94	0.677
792.12	0.687
792.30	0.690
792.48	0.686
792.65	0.676
792.83	0.686
793.01	0.696
793.19	0.696
793.37	0.680
793.54	0.675
793.72	0.690
793.90	0.688
794.08	0.676
794.26	0.676
794.43	0.688
794.61	0.671
794.79	0.657
794.97	0.655
795.15	0.659
795.32	0.664
795.50	0.652
795.68	0.646
795.86	0.652
796.04	0.653
796.21	0.646
796.39	0.644
796.57	0.660
796.75	0.667
796.92	0.667
797.10	0.674
797.28	0.676
797.46	0.681
797.64	0.683
797.81	0.690
797.99	0.696
798.17	0.703
798.35	0.695
798.52	0.697
798.70	0.695
798.88	0.704
799.06	0.702
799.23	0.705
799.41	0.713
799.59	0.705
799.77	0.693
799.94	0.700
800.12	0.709
800.30	0.728
800.48	0.726
800.65	0.728
800.83	0.718
801.01	0.710
801.19	0.709
801.36	0.706
801.54	0.709
801.72	0.721
801.90	0.706
802.07	0.702
802.25	0.687
802.43	0.671
802.60	0.666
802.78	0.675
802.96	0.682
803.14	0.675
803.31	0.672
803.49	0.673
803.67	0.669
803.84	0.674
804.02	0.663
804.20	0.665
804.38	0.669
804.55	0.666
804.73	0.645
804.91	0.644
805.08	0.657
805.26	0.651
805.44	0.718
805.61	0.721
805.79	0.722
805.97	0.721
806.15	0.714
806.32	0.710
806.50	0.719
806.68	0.723
806.85	0.715
807.03	0.706
807.21	0.727
807.38	0.653
807.56	0.642
807.74	0.654
807.91	0.662
808.09	0.661
808.27	0.681
808.44	0.708
808.62	0.720
808.80	0.720
808.97	0.713
809.15	0.708
809.33	0.730
809.50	0.737
809.68	0.718
809.86	0.728
810.03	0.767
810.21	0.744
810.39	0.722
810.56	0.727
810.74	0.754
810.91	0.836
811.09	0.820
811.27	0.841
811.44	0.849
811.62	0.853
811.80	0.832
811.97	0.797
812.15	0.798
812.33	0.791
812.50	0.775
812.68	0.763
812.85	0.703
813.03	0.706
813.21	0.671
813.38	0.664
813.56	0.667
813.74	0.677
813.91	0.684
814.09	0.715
814.26	0.711
814.44	0.715
814.62	0.703
814.79	0.707
814.97	0.714
815.14	0.720
815.32	0.721
815.50	0.739
815.67	0.743
815.85	0.734
816.02	0.719
816.20	0.727
816.38	0.743
816.55	0.748
816.73	0.744
816.90	0.753
817.08	0.787
817.26	0.796
817.43	0.774
817.61	0.798
817.78	0.821
817.96	0.803
818.13	0.791
818.31	0.795
818.49	0.810
818.66	0.803
818.84	0.788
819.01	0.765
819.19	0.772
819.36	0.774
819.54	0.745
819.71	0.792
819.89	0.808
820.07	0.822
820.24	0.811
820.42	0.816
820.59	0.837
820.77	0.861
820.94	0.850
821.12	0.872
821.29	0.893
821.47	0.895
821.64	0.820
821.82	0.837
822.00	0.836
822.17	0.835
822.35	0.822
822.52	0.828
822.70	0.816
822.87	0.827
823.05	0.800
823.22	0.814
823.40	0.848
823.57	0.874
823.75	0.850
823.92	0.882
824.10	0.912
824.27	0.966
824.45	0.948
824.62	1.032
824.80	1.055
824.97	1.081
825.15	1.061
825.32	1.076
825.50	1.088
825.67	1.096
825.85	1.065
826.02	1.095
826.20	1.132
826.37	1.344
826.55	1.208
826.72	1.609
826.90	1.896
827.07	2.295
827.25	1.912
827.42	-0.000
827.60	-0.000
827.77	-0.000
827.95	-0.000
828.12	-0.000
828.30	-0.000
828.47	-0.000
828.65	1.929
828.82	2.539
829.00	-0.000
829.17	-0.000
829.34	-0.000
829.52	-0.000
829.69	-0.000
829.87	-0.000
830.04	-0.000
830.22	-0.000
830.39	-0.000
830.57	-0.000
830.74	-0.000
830.92	-0.000
831.09	-0.000
831.26	-0.000
831.44	-0.000
831.61	-0.000
831.79	-0.000
831.96	-0.000
832.14	-0.000
832.31	-0.000
832.49	-0.000
832.66	-0.000
832.83	-0.000
833.01	-0.000
833.18	-0.000
833.36	-0.000
833.53	-0.000
833.70	-0.000
833.88	-0.000
834.05	-0.000
834.23	-0.000
834.40	-0.000
834.58	-0.000
834.75	-0.000
834.92	-0.000
835.10	-0.000
835.27	-0.000
835.45	-0.000
835.62	-0.000
835.79	-0.000
835.97	-0.000
836.14	-0.000
836.32	-0.000
836.49	-0.000
836.66	-0.000
836.84	-0.000
837.01	-0.000
837.18	-0.000
837.36	-0.000
837.53	-0.000
837.71	-0.000
837.88	-0.000
838.05	-0.000
838.23	-0.000
838.40	-0.000
838.58	-0.000
838.75	-0.000
838.92	-0.000
839.10	-0.000
839.27	-0.000
839.44	-0.000
839.62	-0.000
839.79	-0.000
839.96	-0.000
840.14	-0.000
840.31	-0.000
840.48	-0.000
840.66	-0.000
840.83	-0.000
841.01	-0.000
841.18	-0.000
841.35	-0.000
841.53	-0.000
841.70	-0.000
841.87	-0.000
842.05	-0.000
842.22	-0.000
842.39	-0.000
842.57	-0.000
842.74	-0.000
842.91	-0.000
843.09	-0.000
843.26	-0.000
843.43	-0.000
843.60	-0.000
843.78	-0.000
843.95	-0.000
844.12	-0.000
844.30	-0.000
844.47	-0.000
844.64	-0.000
844.82	-0.000
844.99	-0.000
845.16	-0.000
845.34	-0.000
845.51	-0.000
845.68	-0.000
845.85	-0.000
846.03	-0.000
846.20	-0.000
846.37	-0.000
846.55	-0.000
846.72	-0.000
846.89	-0.000
847.06	-0.000
847.24	-0.000
847.41	-0.000
847.58	-0.000
847.76	-0.000
847.93	-0.000
848.10	-0.000
848.27	-0.000
848.45	-0.000
848.62	-0.000
848.79	-0.000
848.97	-0.000
849.14	-0.000
849.31	-0.000
849.48	-0.000
849.66	-0.000
849.83	-0.000
850.00	-0.000
850.17	-0.000
850.35	-0.000
850.52	-0.000
850.69	-0.000
850.86	-0.000
851.04	-0.000
851.21	-0.000
851.38	-0.000
851.55	-0.000
851.72	-0.000
851.90	-0.000
852.07	-0.000
852.24	-0.000
852.41	-0.000
852.59	-0.000
852.76	-0.000
852.93	-0.000
853.10	-0.000
853.28	-0.000
853.45	-0.000
853.62	-0.000
853.79	-0.000
853.96	-0.000
854.14	-0.000
854.31	-0.000
854.48	-0.000
854.65	-0.000
854.82	-0.000
855.00	-0.000
855.17	-0.000
855.34	-0.000
855.51	-0.000
855.68	-0.000
855.86	-0.000
856.03	-0.000
856.20	-0.000
856.37	-0.000
856.54	-0.000
856.72	-0.000
856.89	-0.000
857.06	-0.000
857.23	-0.000
857.40	-0.000
857.57	-0.000
857.75	-0.000
857.92	-0.000
858.09	-0.000
858.26	-0.000
858.43	-0.000
858.60	-0.000
858.78	-0.000
858.95	-0.000
859.12	-0.000
859.29	-0.000
859.46	-0.000
859.63	-0.000
859.81	-0.000
859.98	-0.000
860.15	-0.000
860.32	-0.000
860.49	-0.000
860.66	-0.000
860.83	-0.000
861.01	-0.000
861.18	-0.000
861.35	-0.000
861.52	-0.000
861.69	-0.000
861.86	-0.000
862.03	-0.000
862.21	-0.000
862.38	-0.000
862.55	-0.000
862.72	-0.000
862.89	-0.000
863.06	-0.000
863.23	-0.000
863.40	-0.000
863.58	-0.000
863.75	-0.000
863.92	-0.000
864.09	-0.000
864.26	-0.000
864.43	-0.000
864.60	-0.000
864.77	-0.000
864.94	-0.000
865.11	-0.000
865.29	-0.000
865.46	-0.000
865.63	-0.000
865.80	-0.000
865.97	-0.000
866.14	-0.000
866.31	-0.000
866.48	-0.000
866.65	-0.000
866.82	-0.000
866.99	-0.000
867.16	-0.000
867.34	-0.000
867.51	-0.000
867.68	-0.000
867.85	-0.000
868.02	-0.000
868.19	-0.000
868.36	-0.000
868.53	-0.000
868.70	-0.000
868.87	-0.000
869.04	-0.000
869.21	-0.000
869.38	-0.000
869.55	-0.000
869.72	-0.000
869.89	-0.000
870.06	-0.000
870.24	-0.000
870.41	-0.000
870.58	-0.000
870.75	-0.000
870.92	-0.000
871.09	-0.000
871.26	-0.000
871.43	-0.000
871.60	-0.000
871.77	-0.000
871.94	-0.000
872.11	-0.000
872.28	-0.000
872.45	-0.000
872.62	-0.000
872.79	-0.000
872.96	-0.000
873.13	-0.000
873.30	-0.000
873.47	-0.000
873.64	-0.000
873.81	-0.000
873.98	-0.000
874.15	-0.000
874.32	-0.000
874.49	-0.000
874.66	-0.000
874.83	-0.000
875.00	-0.000
875.17	-0.000
875.34	-0.000
875.51	-0.000
875.68	-0.000
875.85	-0.000
876.02	-0.000
876.19	-0.000
876.36	-0.000
876.53	-0.000
876.70	-0.000
876.87	-0.000
877.04	-0.000
877.21	-0.000
877.38	-0.000
877.55	-0.000
877.72	-0.000
877.89	-0.000
878.06	-0.000
878.23	-0.000
878.39	-0.000
878.56	-0.000
878.73	-0.000
878.90	-0.000
879.07	-0.000
879.24	-0.000
879.41	-0.000
879.58	-0.000
879.75	-0.000
879.92	-0.000
880.09	-0.000
880.26	-0.000
880.43	-0.000
880.60	-0.000
880.77	-0.000
880.94	-0.000
881.11	-0.000
881.27	-0.000
881.44	-0.000
881.61	-0.000
881.78	-0.000
881.95	-0.000
882.12	-0.000
882.29	-0.000
882.46	-0.000
882.63	-0.000
882.80	-0.000
882.97	-0.000
883.14	-0.000
883.30	-0.000
883.47	-0.000
883.64	-0.000
883.81	-0.000
883.98	-0.000
884.15	-0.000
884.32	-0.000
884.49	-0.000
884.66	-0.000
884.82	-0.000
884.99	-0.000
885.16	-0.000
885.33	-0.000
885.50	-0.000
885.67	-0.000
885.84	-0.000
886.01	-0.000
886.17	-0.000
886.34	-0.000
886.51	-0.000
886.68	-0.000
886.85	-0.000
887.02	-0.000
887.19	-0.000
887.36	-0.000
887.52	-0.000
887.69	-0.000
887.86	-0.000
888.03	-0.000
888.20	-0.000
888.37	-0.000
888.54	-0.000
888.70	-0.000
888.87	-0.000
889.04	-0.000
889.21	-0.000
889.38	-0.000
889.55	-0.000
889.71	-0.000
889.88	-0.000
890.05	-0.000
890.22	-0.000
890.39	-0.000
>>>>>End Processed Spectral Data<<<<<
