SpectraSuite Data File
++++++++++++++++++++++++++++++++++++
Date: Fri Jun 19 13:42:12 CEST 2015
User: introlabs
Dark Spectrum Present: Yes
Reference Spectrum Present: Yes
Number of Sampled Component Spectra: 1
Spectrometers: USB4H08886
Integration Time (usec): 745692 (USB4H08886)
Spectra Averaged: 5 (USB4H08886)
Boxcar Smoothing: 5 (USB4H08886)
Correct for Electrical Dark: Yes (USB4H08886)
Strobe/Lamp Enabled: No (USB4H08886)
Correct for Detector Non-linearity: Yes (USB4H08886)
Correct for Stray Light: Yes (USB4H08886)
Number of Pixels in Processed Spectrum: 3648
>>>>>Begin Processed Spectral Data<<<<<
178.14	-0.000
178.36	-0.000
178.57	-0.000
178.79	-0.000
179.01	-0.000
179.22	-0.000
179.44	-0.000
179.65	-0.000
179.87	-0.000
180.08	-0.000
180.30	-0.000
180.52	-0.000
180.73	-0.000
180.95	-0.000
181.16	-0.000
181.38	-0.000
181.59	-0.000
181.81	-0.000
182.03	-0.000
182.24	-0.000
182.46	-0.000
182.67	-0.000
182.89	-0.000
183.10	-0.000
183.32	-0.000
183.54	-0.000
183.75	-0.000
183.97	-0.000
184.18	-0.000
184.40	-0.000
184.61	-0.000
184.83	-0.000
185.04	-0.000
185.26	-0.000
185.48	-0.000
185.69	-0.000
185.91	-0.000
186.12	-0.000
186.34	-0.000
186.55	-0.000
186.77	-0.000
186.98	-0.000
187.20	-0.000
187.42	-0.000
187.63	-0.000
187.85	-0.000
188.06	-0.000
188.28	-0.000
188.49	-0.000
188.71	-0.000
188.92	-0.000
189.14	-0.000
189.36	-0.000
189.57	-0.000
189.79	-0.000
190.00	-0.000
190.22	-0.000
190.43	-0.000
190.65	-0.000
190.86	-0.000
191.08	-0.000
191.29	-0.000
191.51	-0.000
191.72	-0.000
191.94	-0.000
192.16	-0.000
192.37	-0.000
192.59	-0.000
192.80	-0.000
193.02	-0.000
193.23	-0.000
193.45	-0.000
193.66	-0.000
193.88	-0.000
194.09	-0.000
194.31	-0.000
194.52	-0.000
194.74	-0.000
194.95	-0.000
195.17	-0.000
195.38	-0.000
195.60	-0.000
195.81	-0.000
196.03	-0.000
196.25	-0.000
196.46	-0.000
196.68	-0.000
196.89	-0.000
197.11	-0.000
197.32	-0.000
197.54	-0.000
197.75	-0.000
197.97	-0.000
198.18	-0.000
198.40	-0.000
198.61	-0.000
198.83	-0.000
199.04	-0.000
199.26	-0.000
199.47	-0.000
199.69	-0.000
199.90	-0.000
200.12	-0.000
200.33	-0.000
200.55	-0.000
200.76	-0.000
200.98	-0.000
201.19	-0.000
201.41	-0.000
201.62	-0.000
201.84	-0.000
202.05	-0.000
202.27	-0.000
202.48	-0.000
202.70	-0.000
202.91	-0.000
203.13	-0.000
203.34	-0.000
203.56	-0.000
203.77	-0.000
203.99	-0.000
204.20	-0.000
204.42	-0.000
204.63	-0.000
204.85	-0.000
205.06	-0.000
205.28	-0.000
205.49	-0.000
205.71	-0.000
205.92	-0.000
206.14	-0.000
206.35	-0.000
206.56	-0.000
206.78	-0.000
206.99	-0.000
207.21	-0.000
207.42	-0.000
207.64	-0.000
207.85	-0.000
208.07	-0.000
208.28	-0.000
208.50	-0.000
208.71	-0.000
208.93	-0.000
209.14	-0.000
209.36	-0.000
209.57	-0.000
209.79	-0.000
210.00	-0.000
210.22	-0.000
210.43	-0.000
210.64	-0.000
210.86	-0.000
211.07	-0.000
211.29	-0.000
211.50	-0.000
211.72	-0.000
211.93	-0.000
212.15	-0.000
212.36	-0.000
212.58	-0.000
212.79	-0.000
213.01	-0.000
213.22	-0.000
213.43	-0.000
213.65	-0.000
213.86	-0.000
214.08	-0.000
214.29	-0.000
214.51	-0.000
214.72	-0.000
214.94	-0.000
215.15	-0.000
215.36	-0.000
215.58	-0.000
215.79	-0.000
216.01	-0.000
216.22	-0.000
216.44	-0.000
216.65	-0.000
216.87	-0.000
217.08	-0.000
217.29	-0.000
217.51	-0.000
217.72	-0.000
217.94	-0.000
218.15	-0.000
218.37	-0.000
218.58	-0.000
218.80	-0.000
219.01	-0.000
219.22	-0.000
219.44	-0.000
219.65	-0.000
219.87	-0.000
220.08	-0.000
220.30	-0.000
220.51	-0.000
220.72	-0.000
220.94	-0.000
221.15	-0.000
221.37	-0.000
221.58	-0.000
221.79	-0.000
222.01	-0.000
222.22	-0.000
222.44	-0.000
222.65	-0.000
222.87	-0.000
223.08	-0.000
223.29	-0.000
223.51	-0.000
223.72	-0.000
223.94	-0.000
224.15	-0.000
224.36	-0.000
224.58	-0.000
224.79	-0.000
225.01	-0.000
225.22	-0.000
225.44	-0.000
225.65	-0.000
225.86	-0.000
226.08	-0.000
226.29	-0.000
226.51	-0.000
226.72	-0.000
226.93	-0.000
227.15	-0.000
227.36	-0.000
227.58	-0.000
227.79	-0.000
228.00	-0.000
228.22	-0.000
228.43	-0.000
228.65	-0.000
228.86	-0.000
229.07	-0.000
229.29	-0.000
229.50	-0.000
229.72	-0.000
229.93	-0.000
230.14	-0.000
230.36	-0.000
230.57	-0.000
230.78	-0.000
231.00	-0.000
231.21	-0.000
231.43	-0.000
231.64	-0.000
231.85	-0.000
232.07	-0.000
232.28	-0.000
232.50	-0.000
232.71	-0.000
232.92	-0.000
233.14	-0.000
233.35	-0.000
233.56	-0.000
233.78	-0.000
233.99	-0.000
234.21	-0.000
234.42	-0.000
234.63	-0.000
234.85	-0.000
235.06	-0.000
235.27	-0.000
235.49	-0.000
235.70	-0.000
235.91	-0.000
236.13	-0.000
236.34	-0.000
236.56	-0.000
236.77	-0.000
236.98	-0.000
237.20	-0.000
237.41	-0.000
237.62	-0.000
237.84	-0.000
238.05	-0.000
238.26	-0.000
238.48	-0.000
238.69	-0.000
238.91	-0.000
239.12	-0.000
239.33	-0.000
239.55	-0.000
239.76	-0.000
239.97	-0.000
240.19	-0.000
240.40	-0.000
240.61	-0.000
240.83	-0.000
241.04	-0.000
241.25	-0.000
241.47	-0.000
241.68	-0.000
241.89	-0.000
242.11	-0.000
242.32	-0.000
242.53	-0.000
242.75	-0.000
242.96	-0.000
243.17	-0.000
243.39	-0.000
243.60	-0.000
243.81	-0.000
244.03	-0.000
244.24	-0.000
244.45	-0.000
244.67	-0.000
244.88	-0.000
245.09	-0.000
245.31	-0.000
245.52	-0.000
245.73	-0.000
245.95	-0.000
246.16	-0.000
246.37	-0.000
246.59	-0.000
246.80	-0.000
247.01	-0.000
247.23	-0.000
247.44	-0.000
247.65	-0.000
247.87	-0.000
248.08	-0.000
248.29	-0.000
248.51	-0.000
248.72	-0.000
248.93	-0.000
249.15	-0.000
249.36	-0.000
249.57	-0.000
249.78	-0.000
250.00	-0.000
250.21	-0.000
250.42	-0.000
250.64	-0.000
250.85	-0.000
251.06	-0.000
251.28	-0.000
251.49	-0.000
251.70	-0.000
251.92	-0.000
252.13	-0.000
252.34	-0.000
252.55	-0.000
252.77	-0.000
252.98	-0.000
253.19	-0.000
253.41	-0.000
253.62	-0.000
253.83	-0.000
254.05	-0.000
254.26	-0.000
254.47	-0.000
254.68	-0.000
254.90	-0.000
255.11	-0.000
255.32	-0.000
255.54	-0.000
255.75	-0.000
255.96	-0.000
256.17	-0.000
256.39	-0.000
256.60	-0.000
256.81	-0.000
257.03	-0.000
257.24	-0.000
257.45	-0.000
257.66	-0.000
257.88	-0.000
258.09	-0.000
258.30	-0.000
258.51	-0.000
258.73	-0.000
258.94	-0.000
259.15	-0.000
259.37	-0.000
259.58	-0.000
259.79	-0.000
260.00	-0.000
260.22	-0.000
260.43	-0.000
260.64	-0.000
260.85	-0.000
261.07	-0.000
261.28	-0.000
261.49	-0.000
261.71	-0.000
261.92	-0.000
262.13	-0.000
262.34	-0.000
262.56	-0.000
262.77	-0.000
262.98	-0.000
263.19	-0.000
263.41	-0.000
263.62	-0.000
263.83	-0.000
264.04	-0.000
264.26	-0.000
264.47	-0.000
264.68	-0.000
264.89	-0.000
265.11	-0.000
265.32	-0.000
265.53	-0.000
265.74	-0.000
265.96	-0.000
266.17	-0.000
266.38	-0.000
266.59	-0.000
266.81	-0.000
267.02	-0.000
267.23	-0.000
267.44	-0.000
267.65	-0.000
267.87	-0.000
268.08	-0.000
268.29	-0.000
268.50	-0.000
268.72	-0.000
268.93	-0.000
269.14	-0.000
269.35	-0.000
269.57	-0.000
269.78	-0.000
269.99	-0.000
270.20	-0.000
270.41	-0.000
270.63	-0.000
270.84	-0.000
271.05	-0.000
271.26	-0.000
271.48	-0.000
271.69	-0.000
271.90	-0.000
272.11	-0.000
272.32	-0.000
272.54	-0.000
272.75	-0.000
272.96	-0.000
273.17	-0.000
273.39	-0.000
273.60	-0.000
273.81	-0.000
274.02	-0.000
274.23	-0.000
274.45	-0.000
274.66	-0.000
274.87	-0.000
275.08	-0.000
275.29	-0.000
275.51	-0.000
275.72	-0.000
275.93	-0.000
276.14	-0.000
276.35	-0.000
276.57	-0.000
276.78	-0.000
276.99	-0.000
277.20	-0.000
277.41	-0.000
277.63	-0.000
277.84	-0.000
278.05	-0.000
278.26	-0.000
278.47	-0.000
278.69	-0.000
278.90	-0.000
279.11	-0.000
279.32	-0.000
279.53	-0.000
279.74	-0.000
279.96	-0.000
280.17	-0.000
280.38	-0.000
280.59	-0.000
280.80	-0.000
281.02	-0.000
281.23	-0.000
281.44	-0.000
281.65	-0.000
281.86	-0.000
282.07	-0.000
282.29	-0.000
282.50	-0.000
282.71	-0.000
282.92	-0.000
283.13	-0.000
283.35	-0.000
283.56	-0.000
283.77	-0.000
283.98	-0.000
284.19	-0.000
284.40	-0.000
284.62	-0.000
284.83	-0.000
285.04	-0.000
285.25	-0.000
285.46	-0.000
285.67	-0.000
285.88	-0.000
286.10	-0.000
286.31	-0.000
286.52	-0.000
286.73	-0.000
286.94	-0.000
287.15	-0.000
287.37	-0.000
287.58	-0.000
287.79	-0.000
288.00	-0.000
288.21	-0.000
288.42	-0.000
288.63	-0.000
288.85	-0.000
289.06	-0.000
289.27	-0.000
289.48	-0.000
289.69	-0.000
289.90	-0.000
290.11	-0.000
290.33	-0.000
290.54	-0.000
290.75	-0.000
290.96	-0.000
291.17	-0.000
291.38	-0.000
291.59	-0.000
291.81	-0.000
292.02	-0.000
292.23	-0.000
292.44	-0.000
292.65	-0.000
292.86	-0.000
293.07	-0.000
293.28	-0.000
293.50	-0.000
293.71	-0.000
293.92	-0.000
294.13	-0.000
294.34	-0.000
294.55	-0.000
294.76	-0.000
294.97	-0.000
295.19	-0.000
295.40	-0.000
295.61	-0.000
295.82	-0.000
296.03	-0.000
296.24	-0.000
296.45	-0.000
296.66	2.855
296.87	3.961
297.09	-0.000
297.30	-0.000
297.51	2.345
297.72	2.213
297.93	2.808
298.14	2.492
298.35	2.232
298.56	2.142
298.77	2.741
298.99	2.570
299.20	2.323
299.41	2.212
299.62	2.061
299.83	2.028
300.04	1.865
300.25	1.833
300.46	1.930
300.67	1.872
300.88	1.756
301.10	1.755
301.31	1.875
301.52	1.766
301.73	1.682
301.94	1.685
302.15	1.723
302.36	1.656
302.57	1.566
302.78	1.577
302.99	1.646
303.20	1.692
303.41	1.553
303.63	1.521
303.84	1.536
304.05	1.524
304.26	1.446
304.47	1.452
304.68	1.453
304.89	1.440
305.10	1.385
305.31	1.367
305.52	1.416
305.73	1.407
305.94	1.360
306.15	1.349
306.37	1.380
306.58	1.384
306.79	1.343
307.00	1.367
307.21	1.410
307.42	1.400
307.63	1.351
307.84	1.313
308.05	1.355
308.26	1.354
308.47	1.326
308.68	1.321
308.89	1.317
309.10	1.315
309.31	1.272
309.52	1.262
309.73	1.281
309.95	1.274
310.16	1.239
310.37	1.227
310.58	1.249
310.79	1.244
311.00	1.235
311.21	1.243
311.42	1.245
311.63	1.239
311.84	1.217
312.05	1.211
312.26	1.239
312.47	1.252
312.68	1.223
312.89	1.201
313.10	1.212
313.31	1.185
313.52	1.184
313.73	1.186
313.94	1.189
314.15	1.169
314.36	1.145
314.57	1.136
314.78	1.121
314.99	1.115
315.21	1.104
315.42	1.108
315.63	1.121
315.84	1.095
316.05	1.078
316.26	1.086
316.47	1.107
316.68	1.103
316.89	1.081
317.10	1.103
317.31	1.110
317.52	1.109
317.73	1.086
317.94	1.086
318.15	1.132
318.36	1.133
318.57	1.114
318.78	1.101
318.99	1.139
319.20	1.138
319.41	1.100
319.62	1.099
319.83	1.114
320.04	1.109
320.25	1.092
320.46	1.058
320.67	1.058
320.88	1.054
321.09	1.038
321.30	1.023
321.51	1.037
321.72	1.035
321.93	1.019
322.14	1.011
322.35	1.040
322.56	1.043
322.77	1.029
322.98	1.041
323.19	1.049
323.40	1.054
323.61	1.031
323.82	1.026
324.03	1.031
324.24	1.030
324.45	1.017
324.66	0.995
324.87	0.992
325.08	0.992
325.29	0.971
325.50	0.963
325.71	0.970
325.92	0.978
326.13	0.964
326.34	0.963
326.55	0.971
326.76	0.968
326.97	0.958
327.18	0.951
327.39	0.978
327.60	0.978
327.80	0.978
328.01	0.976
328.22	0.977
328.43	0.980
328.64	0.968
328.85	0.970
329.06	0.972
329.27	0.971
329.48	0.966
329.69	0.946
329.90	0.956
330.11	0.948
330.32	0.942
330.53	0.933
330.74	0.934
330.95	0.931
331.16	0.918
331.37	0.926
331.58	0.925
331.79	0.924
332.00	0.916
332.21	0.911
332.42	0.916
332.63	0.908
332.83	0.904
333.04	0.907
333.25	0.920
333.46	0.918
333.67	0.903
333.88	0.907
334.09	0.918
334.30	0.915
334.51	0.905
334.72	0.899
334.93	0.902
335.14	0.903
335.35	0.894
335.56	0.890
335.77	0.899
335.98	0.897
336.18	0.889
336.39	0.881
336.60	0.885
336.81	0.884
337.02	0.883
337.23	0.886
337.44	0.888
337.65	0.891
337.86	0.880
338.07	0.875
338.28	0.881
338.49	0.880
338.70	0.874
338.91	0.880
339.11	0.888
339.32	0.885
339.53	0.873
339.74	0.870
339.95	0.865
340.16	0.864
340.37	0.855
340.58	0.854
340.79	0.857
341.00	0.856
341.21	0.845
341.41	0.845
341.62	0.846
341.83	0.847
342.04	0.842
342.25	0.852
342.46	0.857
342.67	0.856
342.88	0.849
343.09	0.849
343.30	0.857
343.50	0.860
343.71	0.850
343.92	0.849
344.13	0.856
344.34	0.855
344.55	0.838
344.76	0.837
344.97	0.841
345.18	0.840
345.38	0.837
345.59	0.830
345.80	0.830
346.01	0.827
346.22	0.822
346.43	0.814
346.64	0.823
346.85	0.823
347.06	0.815
347.26	0.815
347.47	0.819
347.68	0.814
347.89	0.809
348.10	0.805
348.31	0.811
348.52	0.811
348.73	0.809
348.93	0.805
349.14	0.807
349.35	0.807
349.56	0.801
349.77	0.797
349.98	0.804
350.19	0.802
350.39	0.797
350.60	0.793
350.81	0.808
351.02	0.806
351.23	0.801
351.44	0.804
351.65	0.807
351.86	0.805
352.06	0.803
352.27	0.802
352.48	0.803
352.69	0.802
352.90	0.797
353.11	0.784
353.31	0.792
353.52	0.789
353.73	0.780
353.94	0.782
354.15	0.788
354.36	0.788
354.57	0.779
354.77	0.781
354.98	0.781
355.19	0.781
355.40	0.781
355.61	0.786
355.82	0.790
356.02	0.789
356.23	0.782
356.44	0.784
356.65	0.788
356.86	0.788
357.07	0.782
357.27	0.785
357.48	0.787
357.69	0.782
357.90	0.767
358.11	0.764
358.32	0.769
358.52	0.772
358.73	0.761
358.94	0.764
359.15	0.768
359.36	0.769
359.56	0.764
359.77	0.761
359.98	0.769
360.19	0.769
360.40	0.765
360.61	0.765
360.81	0.763
361.02	0.763
361.23	0.754
361.44	0.752
361.65	0.753
361.85	0.752
362.06	0.751
362.27	0.753
362.48	0.753
362.69	0.754
362.89	0.749
363.10	0.752
363.31	0.757
363.52	0.760
363.73	0.756
363.93	0.756
364.14	0.759
364.35	0.759
364.56	0.748
364.77	0.750
364.97	0.753
365.18	0.753
365.39	0.748
365.60	0.745
365.81	0.746
366.01	0.745
366.22	0.741
366.43	0.741
366.64	0.744
366.84	0.750
367.05	0.747
367.26	0.746
367.47	0.747
367.68	0.747
367.88	0.743
368.09	0.741
368.30	0.744
368.51	0.744
368.71	0.742
368.92	0.746
369.13	0.744
369.34	0.744
369.55	0.743
369.75	0.743
369.96	0.751
370.17	0.751
370.38	0.747
370.58	0.747
370.79	0.753
371.00	0.751
371.21	0.741
371.41	0.746
371.62	0.750
371.83	0.745
372.04	0.742
372.24	0.735
372.45	0.736
372.66	0.736
372.87	0.733
373.07	0.729
373.28	0.730
373.49	0.735
373.70	0.725
373.90	0.724
374.11	0.735
374.32	0.735
374.53	0.734
374.73	0.734
374.94	0.737
375.15	0.736
375.36	0.735
375.56	0.744
375.77	0.743
375.98	0.744
376.19	0.740
376.39	0.733
376.60	0.736
376.81	0.736
377.02	0.733
377.22	0.732
377.43	0.732
377.64	0.732
377.84	0.722
378.05	0.727
378.26	0.733
378.47	0.732
378.67	0.729
378.88	0.726
379.09	0.726
379.30	0.727
379.50	0.725
379.71	0.726
379.92	0.729
380.12	0.728
380.33	0.721
380.54	0.717
380.75	0.724
380.95	0.724
381.16	0.722
381.37	0.723
381.57	0.725
381.78	0.726
381.99	0.726
382.20	0.725
382.40	0.728
382.61	0.728
382.82	0.724
383.02	0.717
383.23	0.721
383.44	0.721
383.64	0.719
383.85	0.721
384.06	0.724
384.27	0.722
384.47	0.720
384.68	0.721
384.89	0.727
385.09	0.726
385.30	0.726
385.51	0.725
385.71	0.727
385.92	0.728
386.13	0.726
386.33	0.727
386.54	0.728
386.75	0.726
386.95	0.723
387.16	0.718
387.37	0.721
387.58	0.720
387.78	0.718
387.99	0.716
388.20	0.718
388.40	0.714
388.61	0.711
388.82	0.713
389.02	0.716
389.23	0.715
389.44	0.713
389.64	0.713
389.85	0.725
390.06	0.724
390.26	0.725
390.47	0.724
390.68	0.727
390.88	0.725
391.09	0.722
391.30	0.720
391.50	0.721
391.71	0.721
391.92	0.718
392.12	0.710
392.33	0.712
392.53	0.711
392.74	0.710
392.95	0.709
393.15	0.712
393.36	0.714
393.57	0.712
393.77	0.715
393.98	0.717
394.19	0.716
394.39	0.716
394.60	0.716
394.81	0.718
395.01	0.717
395.22	0.715
395.43	0.716
395.63	0.720
395.84	0.721
396.04	0.717
396.25	0.718
396.46	0.720
396.66	0.719
396.87	0.716
397.08	0.714
397.28	0.716
397.49	0.717
397.69	0.713
397.90	0.708
398.11	0.709
398.31	0.709
398.52	0.705
398.73	0.707
398.93	0.706
399.14	0.705
399.34	0.703
399.55	0.703
399.76	0.704
399.96	0.705
400.17	0.703
400.37	0.702
400.58	0.708
400.79	0.710
400.99	0.707
401.20	0.712
401.41	0.715
401.61	0.717
401.82	0.721
402.02	0.721
402.23	0.721
402.44	0.722
402.64	0.721
402.85	0.716
403.05	0.715
403.26	0.714
403.47	0.708
403.67	0.707
403.88	0.707
404.08	0.701
404.29	0.699
404.50	0.699
404.70	0.699
404.91	0.698
405.11	0.695
405.32	0.695
405.52	0.696
405.73	0.695
405.94	0.694
406.14	0.696
406.35	0.698
406.55	0.698
406.76	0.696
406.97	0.696
407.17	0.699
407.38	0.698
407.58	0.697
407.79	0.700
407.99	0.702
408.20	0.703
408.41	0.699
408.61	0.697
408.82	0.698
409.02	0.698
409.23	0.695
409.43	0.694
409.64	0.695
409.84	0.695
410.05	0.692
410.26	0.690
410.46	0.690
410.67	0.690
410.87	0.691
411.08	0.693
411.28	0.694
411.49	0.696
411.69	0.693
411.90	0.695
412.11	0.697
412.31	0.697
412.52	0.695
412.72	0.696
412.93	0.696
413.13	0.695
413.34	0.692
413.54	0.693
413.75	0.695
413.95	0.694
414.16	0.691
414.37	0.694
414.57	0.694
414.78	0.696
414.98	0.695
415.19	0.696
415.39	0.694
415.60	0.696
415.80	0.695
416.01	0.694
416.21	0.696
416.42	0.696
416.62	0.691
416.83	0.690
417.03	0.690
417.24	0.690
417.44	0.688
417.65	0.687
417.86	0.688
418.06	0.686
418.27	0.684
418.47	0.685
418.68	0.686
418.88	0.686
419.09	0.684
419.29	0.685
419.50	0.686
419.70	0.685
419.91	0.684
420.11	0.681
420.32	0.684
420.52	0.684
420.73	0.683
420.93	0.684
421.14	0.686
421.34	0.685
421.55	0.681
421.75	0.680
421.96	0.682
422.16	0.682
422.37	0.681
422.57	0.678
422.78	0.679
422.98	0.676
423.19	0.674
423.39	0.673
423.60	0.677
423.80	0.678
424.01	0.677
424.21	0.679
424.42	0.680
424.62	0.680
424.83	0.679
425.03	0.679
425.23	0.682
425.44	0.682
425.64	0.682
425.85	0.681
426.05	0.682
426.26	0.682
426.46	0.678
426.67	0.677
426.87	0.683
427.08	0.683
427.28	0.681
427.49	0.682
427.69	0.683
427.90	0.682
428.10	0.679
428.31	0.678
428.51	0.680
428.71	0.679
428.92	0.680
429.12	0.677
429.33	0.678
429.53	0.681
429.74	0.685
429.94	0.686
430.15	0.685
430.35	0.685
430.56	0.682
430.76	0.681
430.96	0.682
431.17	0.680
431.37	0.677
431.58	0.676
431.78	0.672
431.99	0.665
432.19	0.667
432.40	0.668
432.60	0.670
432.80	0.672
433.01	0.671
433.21	0.672
433.42	0.674
433.62	0.674
433.83	0.674
434.03	0.677
434.23	0.680
434.44	0.679
434.64	0.676
434.85	0.681
435.05	0.682
435.26	0.682
435.46	0.680
435.66	0.679
435.87	0.678
436.07	0.679
436.28	0.674
436.48	0.671
436.69	0.671
436.89	0.671
437.09	0.665
437.30	0.663
437.50	0.664
437.71	0.676
437.91	0.675
438.11	0.677
438.32	0.681
438.52	0.682
438.73	0.681
438.93	0.679
439.13	0.679
439.34	0.683
439.54	0.681
439.75	0.681
439.95	0.671
440.15	0.676
440.36	0.674
440.56	0.672
440.77	0.673
440.97	0.673
441.17	0.672
441.38	0.673
441.58	0.670
441.79	0.671
441.99	0.669
442.19	0.667
442.40	0.665
442.60	0.665
442.81	0.662
443.01	0.663
443.21	0.664
443.42	0.663
443.62	0.661
443.82	0.661
444.03	0.663
444.23	0.663
444.44	0.663
444.64	0.663
444.84	0.664
445.05	0.663
445.25	0.661
445.45	0.661
445.66	0.664
445.86	0.663
446.06	0.664
446.27	0.663
446.47	0.667
446.68	0.665
446.88	0.663
447.08	0.663
447.29	0.665
447.49	0.665
447.69	0.664
447.90	0.662
448.10	0.666
448.30	0.664
448.51	0.665
448.71	0.662
448.91	0.665
449.12	0.664
449.32	0.666
449.52	0.665
449.73	0.668
449.93	0.667
450.14	0.668
450.34	0.667
450.54	0.669
450.75	0.666
450.95	0.666
451.15	0.666
451.36	0.668
451.56	0.665
451.76	0.664
451.97	0.661
452.17	0.662
452.37	0.661
452.58	0.657
452.78	0.657
452.98	0.659
453.19	0.658
453.39	0.658
453.59	0.657
453.79	0.659
454.00	0.659
454.20	0.658
454.40	0.659
454.61	0.661
454.81	0.662
455.01	0.660
455.22	0.661
455.42	0.663
455.62	0.662
455.83	0.661
456.03	0.665
456.23	0.666
456.44	0.666
456.64	0.665
456.84	0.665
457.04	0.665
457.25	0.665
457.45	0.661
457.65	0.660
457.86	0.661
458.06	0.660
458.26	0.655
458.47	0.655
458.67	0.656
458.87	0.657
459.07	0.654
459.28	0.657
459.48	0.659
459.68	0.659
459.89	0.658
460.09	0.657
460.29	0.659
460.49	0.660
460.70	0.659
460.90	0.659
461.10	0.660
461.31	0.659
461.51	0.656
461.71	0.658
461.91	0.659
462.12	0.659
462.32	0.657
462.52	0.659
462.72	0.661
462.93	0.662
463.13	0.660
463.33	0.660
463.53	0.662
463.74	0.661
463.94	0.657
464.14	0.657
464.35	0.658
464.55	0.659
464.75	0.656
464.95	0.655
465.16	0.657
465.36	0.656
465.56	0.655
465.76	0.654
465.97	0.654
466.17	0.655
466.37	0.652
466.57	0.653
466.78	0.654
466.98	0.654
467.18	0.651
467.38	0.650
467.59	0.652
467.79	0.653
467.99	0.653
468.19	0.654
468.39	0.657
468.60	0.657
468.80	0.655
469.00	0.657
469.20	0.658
469.41	0.658
469.61	0.657
469.81	0.658
470.01	0.658
470.22	0.658
470.42	0.656
470.62	0.654
470.82	0.655
471.02	0.655
471.23	0.653
471.43	0.654
471.63	0.656
471.83	0.656
472.04	0.654
472.24	0.653
472.44	0.658
472.64	0.658
472.84	0.656
473.05	0.655
473.25	0.658
473.45	0.657
473.65	0.656
473.85	0.656
474.06	0.657
474.26	0.657
474.46	0.658
474.66	0.654
474.86	0.656
475.07	0.656
475.27	0.654
475.47	0.651
475.67	0.653
475.87	0.654
476.08	0.651
476.28	0.653
476.48	0.654
476.68	0.652
476.88	0.650
477.09	0.651
477.29	0.652
477.49	0.652
477.69	0.652
477.89	0.651
478.09	0.651
478.30	0.653
478.50	0.650
478.70	0.649
478.90	0.650
479.10	0.653
479.31	0.654
479.51	0.652
479.71	0.652
479.91	0.652
480.11	0.651
480.31	0.651
480.52	0.650
480.72	0.650
480.92	0.649
481.12	0.648
481.32	0.645
481.52	0.643
481.72	0.643
481.93	0.647
482.13	0.648
482.33	0.648
482.53	0.645
482.73	0.646
482.93	0.647
483.14	0.647
483.34	0.646
483.54	0.647
483.74	0.646
483.94	0.645
484.14	0.641
484.34	0.641
484.55	0.641
484.75	0.641
484.95	0.639
485.15	0.639
485.35	0.639
485.55	0.639
485.75	0.637
485.96	0.637
486.16	0.639
486.36	0.638
486.56	0.636
486.76	0.636
486.96	0.637
487.16	0.636
487.36	0.634
487.57	0.634
487.77	0.635
487.97	0.635
488.17	0.633
488.37	0.632
488.57	0.632
488.77	0.633
488.97	0.631
489.18	0.631
489.38	0.634
489.58	0.635
489.78	0.634
489.98	0.633
490.18	0.633
490.38	0.635
490.58	0.633
490.78	0.634
490.98	0.636
491.19	0.636
491.39	0.635
491.59	0.634
491.79	0.637
491.99	0.637
492.19	0.637
492.39	0.639
492.59	0.639
492.79	0.641
492.99	0.641
493.20	0.641
493.40	0.641
493.60	0.643
493.80	0.641
494.00	0.639
494.20	0.640
494.40	0.639
494.60	0.638
494.80	0.642
495.00	0.641
495.20	0.640
495.40	0.639
495.61	0.641
495.81	0.640
496.01	0.644
496.21	0.644
496.41	0.644
496.61	0.645
496.81	0.642
497.01	0.637
497.21	0.636
497.41	0.637
497.61	0.637
497.81	0.634
498.01	0.635
498.21	0.633
498.41	0.631
498.61	0.631
498.82	0.632
499.02	0.634
499.22	0.635
499.42	0.634
499.62	0.635
499.82	0.637
500.02	0.638
500.22	0.637
500.42	0.638
500.62	0.639
500.82	0.639
501.02	0.637
501.22	0.637
501.42	0.637
501.62	0.639
501.82	0.638
502.02	0.638
502.22	0.638
502.42	0.640
502.62	0.637
502.82	0.637
503.02	0.638
503.22	0.638
503.42	0.636
503.63	0.636
503.83	0.635
504.03	0.634
504.23	0.632
504.43	0.633
504.63	0.634
504.83	0.634
505.03	0.633
505.23	0.635
505.43	0.637
505.63	0.638
505.83	0.637
506.03	0.639
506.23	0.640
506.43	0.641
506.63	0.639
506.83	0.638
507.03	0.640
507.23	0.641
507.43	0.638
507.63	0.639
507.83	0.639
508.03	0.639
508.23	0.638
508.43	0.637
508.63	0.638
508.83	0.638
509.03	0.639
509.23	0.638
509.43	0.639
509.63	0.640
509.83	0.639
510.03	0.641
510.23	0.643
510.43	0.644
510.63	0.644
510.83	0.644
511.03	0.646
511.23	0.644
511.43	0.643
511.63	0.644
511.83	0.646
512.03	0.646
512.22	0.642
512.42	0.642
512.62	0.642
512.82	0.642
513.02	0.641
513.22	0.640
513.42	0.643
513.62	0.646
513.82	0.644
514.02	0.644
514.22	0.646
514.42	0.648
514.62	0.648
514.82	0.648
515.02	0.651
515.22	0.654
515.42	0.653
515.62	0.655
515.82	0.654
516.02	0.655
516.22	0.655
516.42	0.655
516.62	0.656
516.82	0.657
517.01	0.656
517.21	0.654
517.41	0.658
517.61	0.658
517.81	0.654
518.01	0.653
518.21	0.652
518.41	0.651
518.61	0.650
518.81	0.651
519.01	0.651
519.21	0.651
519.41	0.650
519.61	0.645
519.81	0.647
520.00	0.647
520.20	0.648
520.40	0.651
520.60	0.652
520.80	0.652
521.00	0.652
521.20	0.653
521.40	0.658
521.60	0.659
521.80	0.658
522.00	0.659
522.20	0.661
522.39	0.660
522.59	0.657
522.79	0.658
522.99	0.660
523.19	0.658
523.39	0.656
523.59	0.654
523.79	0.657
523.99	0.659
524.19	0.658
524.38	0.657
524.58	0.659
524.78	0.659
524.98	0.658
525.18	0.660
525.38	0.661
525.58	0.662
525.78	0.659
525.98	0.658
526.18	0.658
526.37	0.657
526.57	0.659
526.77	0.659
526.97	0.660
527.17	0.660
527.37	0.656
527.57	0.659
527.77	0.661
527.96	0.661
528.16	0.660
528.36	0.660
528.56	0.662
528.76	0.660
528.96	0.659
529.16	0.660
529.36	0.664
529.55	0.664
529.75	0.660
529.95	0.660
530.15	0.662
530.35	0.665
530.55	0.662
530.75	0.663
530.94	0.664
531.14	0.664
531.34	0.662
531.54	0.660
531.74	0.663
531.94	0.666
532.13	0.664
532.33	0.666
532.53	0.664
532.73	0.664
532.93	0.662
533.13	0.663
533.33	0.663
533.52	0.664
533.72	0.667
533.92	0.665
534.12	0.663
534.32	0.664
534.52	0.662
534.71	0.664
534.91	0.667
535.11	0.669
535.31	0.667
535.51	0.669
535.71	0.671
535.90	0.668
536.10	0.669
536.30	0.671
536.50	0.671
536.70	0.672
536.89	0.669
537.09	0.669
537.29	0.671
537.49	0.671
537.69	0.669
537.89	0.670
538.08	0.669
538.28	0.667
538.48	0.666
538.68	0.668
538.88	0.670
539.07	0.670
539.27	0.668
539.47	0.667
539.67	0.668
539.87	0.669
540.06	0.666
540.26	0.668
540.46	0.671
540.66	0.669
540.86	0.666
541.05	0.666
541.25	0.668
541.45	0.668
541.65	0.666
541.84	0.667
542.04	0.669
542.24	0.669
542.44	0.668
542.64	0.669
542.83	0.672
543.03	0.672
543.23	0.669
543.43	0.670
543.62	0.672
543.82	0.672
544.02	0.672
544.22	0.671
544.42	0.675
544.61	0.675
544.81	0.671
545.01	0.670
545.21	0.673
545.40	0.673
545.60	0.671
545.80	0.675
546.00	0.675
546.19	0.674
546.39	0.673
546.59	0.670
546.79	0.672
546.98	0.672
547.18	0.671
547.38	0.672
547.58	0.675
547.77	0.675
547.97	0.671
548.17	0.673
548.37	0.673
548.56	0.673
548.76	0.673
548.96	0.675
549.16	0.678
549.35	0.678
549.55	0.675
549.75	0.676
549.95	0.679
550.14	0.679
550.34	0.678
550.54	0.683
550.73	0.687
550.93	0.687
551.13	0.684
551.33	0.682
551.52	0.683
551.72	0.683
551.92	0.681
552.12	0.682
552.31	0.683
552.51	0.683
552.71	0.678
552.90	0.678
553.10	0.679
553.30	0.680
553.50	0.679
553.69	0.680
553.89	0.681
554.09	0.681
554.28	0.677
554.48	0.678
554.68	0.681
554.87	0.681
555.07	0.677
555.27	0.677
555.47	0.678
555.66	0.678
555.86	0.677
556.06	0.679
556.25	0.681
556.45	0.689
556.65	0.687
556.84	0.690
557.04	0.693
557.24	0.695
557.43	0.695
557.63	0.698
557.83	0.701
558.02	0.701
558.22	0.704
558.42	0.704
558.61	0.698
558.81	0.698
559.01	0.693
559.21	0.693
559.40	0.695
559.60	0.695
559.80	0.691
559.99	0.692
560.19	0.694
560.39	0.688
560.58	0.686
560.78	0.686
560.97	0.690
561.17	0.689
561.37	0.686
561.56	0.686
561.76	0.687
561.96	0.687
562.15	0.685
562.35	0.688
562.55	0.689
562.74	0.689
562.94	0.687
563.14	0.685
563.33	0.686
563.53	0.685
563.73	0.683
563.92	0.685
564.12	0.688
564.31	0.690
564.51	0.687
564.71	0.689
564.90	0.693
565.10	0.694
565.30	0.696
565.49	0.696
565.69	0.700
565.89	0.700
566.08	0.696
566.28	0.698
566.47	0.700
566.67	0.698
566.87	0.695
567.06	0.696
567.26	0.703
567.46	0.698
567.65	0.698
567.85	0.699
568.04	0.703
568.24	0.701
568.44	0.698
568.63	0.696
568.83	0.699
569.02	0.697
569.22	0.692
569.42	0.689
569.61	0.691
569.81	0.690
570.00	0.687
570.20	0.689
570.40	0.690
570.59	0.690
570.79	0.688
570.98	0.686
571.18	0.687
571.38	0.687
571.57	0.683
571.77	0.682
571.96	0.685
572.16	0.683
572.35	0.677
572.55	0.678
572.75	0.675
572.94	0.675
573.14	0.674
573.33	0.674
573.53	0.674
573.73	0.674
573.92	0.671
574.12	0.669
574.31	0.672
574.51	0.673
574.70	0.670
574.90	0.672
575.09	0.675
575.29	0.675
575.49	0.672
575.68	0.673
575.88	0.674
576.07	0.676
576.27	0.673
576.46	0.672
576.66	0.671
576.86	0.670
577.05	0.668
577.25	0.666
577.44	0.668
577.64	0.668
577.83	0.666
578.03	0.667
578.22	0.666
578.42	0.665
578.61	0.664
578.81	0.665
579.00	0.665
579.20	0.665
579.40	0.663
579.59	0.662
579.79	0.662
579.98	0.662
580.18	0.661
580.37	0.662
580.57	0.664
580.76	0.668
580.96	0.667
581.15	0.668
581.35	0.670
581.54	0.669
581.74	0.668
581.93	0.670
582.13	0.671
582.32	0.669
582.52	0.667
582.71	0.666
582.91	0.662
583.10	0.662
583.30	0.661
583.49	0.660
583.69	0.664
583.88	0.665
584.08	0.664
584.27	0.667
584.47	0.670
584.66	0.670
584.86	0.669
585.05	0.671
585.25	0.674
585.44	0.674
585.64	0.672
585.83	0.668
586.03	0.669
586.22	0.668
586.42	0.663
586.61	0.665
586.81	0.667
587.00	0.667
587.20	0.664
587.39	0.665
587.59	0.667
587.78	0.668
587.98	0.669
588.17	0.669
588.37	0.672
588.56	0.674
588.76	0.670
588.95	0.671
589.15	0.675
589.34	0.678
589.54	0.676
589.73	0.676
589.92	0.680
590.12	0.680
590.31	0.677
590.51	0.683
590.70	0.684
590.90	0.684
591.09	0.682
591.29	0.680
591.48	0.680
591.68	0.682
591.87	0.680
592.06	0.679
592.26	0.682
592.45	0.681
592.65	0.674
592.84	0.674
593.04	0.677
593.23	0.679
593.43	0.676
593.62	0.675
593.81	0.676
594.01	0.676
594.20	0.673
594.40	0.673
594.59	0.675
594.79	0.676
594.98	0.674
595.17	0.673
595.37	0.674
595.56	0.676
595.76	0.676
595.95	0.677
596.14	0.680
596.34	0.682
596.53	0.680
596.73	0.682
596.92	0.684
597.12	0.687
597.31	0.687
597.50	0.686
597.70	0.688
597.89	0.687
598.09	0.683
598.28	0.684
598.47	0.686
598.67	0.685
598.86	0.681
599.06	0.682
599.25	0.682
599.44	0.680
599.64	0.677
599.83	0.674
600.03	0.678
600.22	0.678
600.41	0.678
600.61	0.676
600.80	0.679
601.00	0.679
601.19	0.675
601.38	0.673
601.58	0.676
601.77	0.677
601.96	0.680
602.16	0.679
602.35	0.688
602.55	0.686
602.74	0.686
602.93	0.688
603.13	0.693
603.32	0.694
603.51	0.694
603.71	0.698
603.90	0.700
604.09	0.700
604.29	0.697
604.48	0.692
604.68	0.694
604.87	0.692
605.06	0.689
605.26	0.685
605.45	0.687
605.64	0.686
605.84	0.680
606.03	0.679
606.22	0.678
606.42	0.678
606.61	0.674
606.80	0.674
607.00	0.677
607.19	0.677
607.38	0.675
607.58	0.676
607.77	0.679
607.96	0.679
608.16	0.678
608.35	0.682
608.54	0.686
608.74	0.688
608.93	0.693
609.12	0.695
609.32	0.699
609.51	0.702
609.70	0.701
609.90	0.703
610.09	0.707
610.28	0.712
610.48	0.705
610.67	0.706
610.86	0.708
611.06	0.703
611.25	0.700
611.44	0.700
611.64	0.700
611.83	0.703
612.02	0.699
612.21	0.698
612.41	0.697
612.60	0.697
612.79	0.693
612.99	0.693
613.18	0.696
613.37	0.694
613.57	0.691
613.76	0.693
613.95	0.690
614.14	0.690
614.34	0.688
614.53	0.688
614.72	0.691
614.92	0.691
615.11	0.688
615.30	0.685
615.49	0.687
615.69	0.688
615.88	0.684
616.07	0.686
616.26	0.688
616.46	0.689
616.65	0.685
616.84	0.685
617.04	0.687
617.23	0.691
617.42	0.691
617.61	0.694
617.81	0.696
618.00	0.698
618.19	0.697
618.38	0.701
618.58	0.705
618.77	0.707
618.96	0.705
619.15	0.707
619.35	0.709
619.54	0.710
619.73	0.706
619.92	0.708
620.12	0.712
620.31	0.712
620.50	0.707
620.69	0.707
620.89	0.710
621.08	0.710
621.27	0.710
621.46	0.709
621.66	0.712
621.85	0.712
622.04	0.708
622.23	0.709
622.43	0.709
622.62	0.709
622.81	0.708
623.00	0.707
623.19	0.711
623.39	0.709
623.58	0.707
623.77	0.706
623.96	0.709
624.16	0.708
624.35	0.703
624.54	0.706
624.73	0.711
624.92	0.708
625.12	0.706
625.31	0.706
625.50	0.709
625.69	0.709
625.88	0.705
626.08	0.705
626.27	0.707
626.46	0.707
626.65	0.704
626.84	0.704
627.04	0.709
627.23	0.710
627.42	0.706
627.61	0.708
627.80	0.710
628.00	0.710
628.19	0.709
628.38	0.714
628.57	0.717
628.76	0.716
628.96	0.712
629.15	0.713
629.34	0.716
629.53	0.716
629.72	0.711
629.91	0.712
630.11	0.717
630.30	0.717
630.49	0.719
630.68	0.718
630.87	0.723
631.06	0.725
631.26	0.719
631.45	0.721
631.64	0.729
631.83	0.732
632.02	0.729
632.21	0.728
632.41	0.735
632.60	0.729
632.79	0.728
632.98	0.728
633.17	0.729
633.36	0.731
633.55	0.726
633.75	0.723
633.94	0.726
634.13	0.726
634.32	0.723
634.51	0.717
634.70	0.720
634.89	0.720
635.09	0.716
635.28	0.717
635.47	0.718
635.66	0.722
635.85	0.717
636.04	0.719
636.23	0.724
636.43	0.727
636.62	0.725
636.81	0.724
637.00	0.727
637.19	0.729
637.38	0.726
637.57	0.726
637.76	0.727
637.95	0.727
638.15	0.723
638.34	0.718
638.53	0.722
638.72	0.724
638.91	0.721
639.10	0.719
639.29	0.720
639.48	0.721
639.67	0.720
639.87	0.719
640.06	0.726
640.25	0.726
640.44	0.726
640.63	0.727
640.82	0.730
641.01	0.729
641.20	0.728
641.39	0.730
641.58	0.731
641.78	0.729
641.97	0.725
642.16	0.739
642.35	0.740
642.54	0.738
642.73	0.731
642.92	0.730
643.11	0.734
643.30	0.734
643.49	0.729
643.68	0.731
643.87	0.733
644.06	0.734
644.25	0.713
644.45	0.716
644.64	0.718
644.83	0.720
645.02	0.716
645.21	0.715
645.40	0.717
645.59	0.717
645.78	0.711
645.97	0.713
646.16	0.714
646.35	0.714
646.54	0.711
646.73	0.712
646.92	0.715
647.11	0.714
647.30	0.709
647.49	0.711
647.68	0.711
647.88	0.710
648.07	0.703
648.26	0.706
648.45	0.708
648.64	0.704
648.83	0.701
649.02	0.703
649.21	0.714
649.40	0.713
649.59	0.708
649.78	0.709
649.97	0.723
650.16	0.723
650.35	0.717
650.54	0.719
650.73	0.728
650.92	0.725
651.11	0.717
651.30	0.713
651.49	0.718
651.68	0.719
651.87	0.716
652.06	0.706
652.25	0.710
652.44	0.713
652.63	0.710
652.82	0.709
653.01	0.709
653.20	0.707
653.39	0.695
653.58	0.693
653.77	0.692
653.96	0.687
654.15	0.678
654.34	0.676
654.53	0.671
654.72	0.665
654.91	0.655
655.10	0.652
655.29	0.650
655.48	0.648
655.67	0.643
655.86	0.640
656.05	0.639
656.24	0.638
656.43	0.633
656.62	0.632
656.81	0.632
657.00	0.630
657.19	0.627
657.38	0.627
657.57	0.626
657.76	0.628
657.95	0.626
658.14	0.630
658.33	0.633
658.51	0.638
658.70	0.639
658.89	0.640
659.08	0.650
659.27	0.658
659.46	0.658
659.65	0.665
659.84	0.669
660.03	0.673
660.22	0.673
660.41	0.677
660.60	0.677
660.79	0.678
660.98	0.684
661.17	0.684
661.36	0.682
661.55	0.683
661.74	0.681
661.92	0.683
662.11	0.686
662.30	0.684
662.49	0.678
662.68	0.676
662.87	0.680
663.06	0.674
663.25	0.674
663.44	0.675
663.63	0.676
663.82	0.675
664.01	0.669
664.20	0.667
664.38	0.669
664.57	0.669
664.76	0.669
664.95	0.669
665.14	0.674
665.33	0.669
665.52	0.676
665.71	0.680
665.90	0.681
666.09	0.682
666.28	0.680
666.46	0.678
666.65	0.680
666.84	0.678
667.03	0.672
667.22	0.671
667.41	0.674
667.60	0.663
667.79	0.656
667.98	0.657
668.16	0.658
668.35	0.658
668.54	0.654
668.73	0.655
668.92	0.656
669.11	0.655
669.30	0.649
669.49	0.645
669.67	0.647
669.86	0.649
670.05	0.647
670.24	0.644
670.43	0.642
670.62	0.641
670.81	0.637
671.00	0.638
671.18	0.637
671.37	0.637
671.56	0.634
671.75	0.634
671.94	0.630
672.13	0.628
672.32	0.624
672.50	0.624
672.69	0.624
672.88	0.624
673.07	0.619
673.26	0.622
673.45	0.622
673.63	0.622
673.82	0.618
674.01	0.619
674.20	0.619
674.39	0.618
674.58	0.618
674.76	0.618
674.95	0.617
675.14	0.616
675.33	0.612
675.52	0.611
675.71	0.611
675.89	0.611
676.08	0.606
676.27	0.606
676.46	0.606
676.65	0.606
676.84	0.604
677.02	0.606
677.21	0.609
677.40	0.608
677.59	0.605
677.78	0.606
677.96	0.608
678.15	0.607
678.34	0.605
678.53	0.606
678.72	0.606
678.90	0.602
679.09	0.598
679.28	0.594
679.47	0.595
679.66	0.595
679.84	0.591
680.03	0.588
680.22	0.587
680.41	0.589
680.60	0.585
680.78	0.585
680.97	0.587
681.16	0.588
681.35	0.587
681.53	0.585
681.72	0.586
681.91	0.589
682.10	0.587
682.29	0.590
682.47	0.588
682.66	0.587
682.85	0.586
683.04	0.584
683.22	0.584
683.41	0.586
683.60	0.584
683.79	0.585
683.97	0.585
684.16	0.584
684.35	0.580
684.54	0.582
684.72	0.582
684.91	0.582
685.10	0.580
685.29	0.582
685.47	0.579
685.66	0.579
685.85	0.575
686.04	0.574
686.22	0.576
686.41	0.579
686.60	0.576
686.79	0.579
686.97	0.580
687.16	0.581
687.35	0.578
687.54	0.582
687.72	0.586
687.91	0.585
688.10	0.586
688.29	0.586
688.47	0.584
688.66	0.583
688.85	0.579
689.03	0.576
689.22	0.580
689.41	0.580
689.60	0.575
689.78	0.572
689.97	0.573
690.16	0.570
690.34	0.567
690.53	0.567
690.72	0.568
690.91	0.567
691.09	0.565
691.28	0.559
691.47	0.557
691.65	0.557
691.84	0.554
692.03	0.553
692.21	0.551
692.40	0.551
692.59	0.548
692.77	0.547
692.96	0.548
693.15	0.548
693.34	0.547
693.52	0.547
693.71	0.547
693.90	0.548
694.08	0.549
694.27	0.550
694.46	0.560
694.64	0.561
694.83	0.560
695.02	0.559
695.20	0.559
695.39	0.558
695.58	0.558
695.76	0.559
695.95	0.558
696.14	0.558
696.32	0.555
696.51	0.546
696.70	0.546
696.88	0.547
697.07	0.545
697.26	0.547
697.44	0.549
697.63	0.547
697.81	0.545
698.00	0.544
698.19	0.544
698.37	0.544
698.56	0.543
698.75	0.544
698.93	0.544
699.12	0.543
699.31	0.542
699.49	0.542
699.68	0.542
699.87	0.545
700.05	0.545
700.24	0.544
700.42	0.546
700.61	0.545
700.80	0.543
700.98	0.543
701.17	0.545
701.36	0.543
701.54	0.543
701.73	0.544
701.91	0.541
702.10	0.541
702.29	0.539
702.47	0.538
702.66	0.539
702.84	0.540
703.03	0.538
703.22	0.539
703.40	0.539
703.59	0.541
703.77	0.540
703.96	0.541
704.15	0.542
704.33	0.542
704.52	0.540
704.70	0.540
704.89	0.540
705.08	0.538
705.26	0.534
705.45	0.534
705.63	0.534
705.82	0.531
706.00	0.530
706.19	0.529
706.38	0.529
706.56	0.529
706.75	0.527
706.93	0.525
707.12	0.527
707.30	0.528
707.49	0.525
707.68	0.523
707.86	0.522
708.05	0.521
708.23	0.519
708.42	0.519
708.60	0.522
708.79	0.521
708.98	0.519
709.16	0.519
709.35	0.521
709.53	0.526
709.72	0.525
709.90	0.527
710.09	0.529
710.27	0.532
710.46	0.535
710.64	0.534
710.83	0.537
711.02	0.539
711.20	0.537
711.39	0.535
711.57	0.532
711.76	0.533
711.94	0.531
712.13	0.531
712.31	0.531
712.50	0.527
712.68	0.524
712.87	0.525
713.05	0.525
713.24	0.526
713.42	0.525
713.61	0.526
713.79	0.527
713.98	0.527
714.16	0.527
714.35	0.527
714.54	0.528
714.72	0.528
714.91	0.525
715.09	0.530
715.28	0.534
715.46	0.534
715.65	0.531
715.83	0.531
716.02	0.535
716.20	0.531
716.39	0.530
716.57	0.532
716.76	0.534
716.94	0.535
717.12	0.528
717.31	0.529
717.49	0.531
717.68	0.533
717.86	0.533
718.05	0.534
718.23	0.537
718.42	0.540
718.60	0.541
718.79	0.549
718.97	0.551
719.16	0.551
719.34	0.548
719.53	0.549
719.71	0.549
719.90	0.552
720.08	0.549
720.27	0.549
720.45	0.548
720.63	0.547
720.82	0.540
721.00	0.543
721.19	0.548
721.37	0.547
721.56	0.548
721.74	0.550
721.93	0.558
722.11	0.565
722.30	0.565
722.48	0.570
722.66	0.571
722.85	0.572
723.03	0.571
723.22	0.569
723.40	0.572
723.59	0.571
723.77	0.575
723.95	0.569
724.14	0.570
724.32	0.572
724.51	0.571
724.69	0.572
724.88	0.571
725.06	0.570
725.24	0.571
725.43	0.572
725.61	0.575
725.80	0.569
725.98	0.567
726.16	0.564
726.35	0.570
726.53	0.569
726.72	0.567
726.90	0.579
727.09	0.579
727.27	0.585
727.45	0.582
727.64	0.591
727.82	0.599
728.01	0.604
728.19	0.601
728.37	0.607
728.56	0.611
728.74	0.619
728.92	0.607
729.11	0.610
729.29	0.609
729.48	0.611
729.66	0.599
729.84	0.600
730.03	0.603
730.21	0.605
730.40	0.595
730.58	0.597
730.76	0.596
730.95	0.599
731.13	0.597
731.31	0.611
731.50	0.622
731.68	0.626
731.86	0.620
732.05	0.636
732.23	0.639
732.42	0.644
732.60	0.646
732.78	0.652
732.97	0.671
733.15	0.679
733.33	0.667
733.52	0.674
733.70	0.685
733.88	0.696
734.07	0.681
734.25	0.711
734.43	0.720
734.62	0.723
734.80	0.718
734.98	0.709
735.17	0.718
735.35	0.724
735.53	0.711
735.72	0.714
735.90	0.738
736.08	0.757
736.27	0.733
736.45	0.743
736.63	0.759
736.82	0.770
737.00	0.768
737.18	0.781
737.37	0.818
737.55	0.843
737.73	0.838
737.92	0.843
738.10	0.840
738.28	0.860
738.46	0.846
738.65	0.862
738.83	0.886
739.01	0.950
739.20	0.938
739.38	0.916
739.56	0.909
739.75	0.917
739.93	0.877
740.11	0.909
740.29	0.909
740.48	0.919
740.66	0.887
740.84	0.882
741.03	0.845
741.21	0.861
741.39	0.843
741.57	0.857
741.76	0.877
741.94	0.884
742.12	0.838
742.31	0.843
742.49	0.866
742.67	0.892
742.85	0.909
743.04	0.914
743.22	0.924
743.40	0.985
743.58	0.964
743.77	0.984
743.95	1.031
744.13	1.101
744.31	1.083
744.50	1.072
744.68	1.078
744.86	1.042
745.04	1.052
745.23	1.134
745.41	1.115
745.59	1.117
745.77	1.071
745.96	1.046
746.14	1.061
746.32	1.059
746.50	1.050
746.69	1.032
746.87	1.049
747.05	1.028
747.23	0.941
747.42	0.924
747.60	0.959
747.78	0.961
747.96	1.000
748.14	0.946
748.33	0.983
748.51	0.978
748.69	0.968
748.87	0.997
749.06	1.001
749.24	0.994
749.42	0.973
749.60	0.952
749.78	0.967
749.97	0.912
750.15	0.902
750.33	0.898
750.51	0.924
750.69	0.926
750.88	0.930
751.06	0.942
751.24	0.980
751.42	0.968
751.60	0.959
751.79	1.043
751.97	1.101
752.15	1.104
752.33	1.062
752.51	1.143
752.69	1.169
752.88	1.126
753.06	1.175
753.24	1.135
753.42	1.189
753.60	1.428
753.78	1.212
753.97	1.239
754.15	1.257
754.33	1.296
754.51	1.133
754.69	1.111
754.87	1.154
755.06	1.065
755.24	1.064
755.42	1.068
755.60	0.951
755.78	0.962
755.96	0.901
756.15	0.906
756.33	0.909
756.51	0.927
756.69	0.911
756.87	0.871
757.05	0.897
757.23	0.878
757.42	0.841
757.60	0.839
757.78	0.828
757.96	0.825
758.14	0.803
758.32	0.789
758.50	0.802
758.69	0.799
758.87	0.791
759.05	0.792
759.23	0.805
759.41	0.806
759.59	0.795
759.77	0.819
759.95	0.848
760.13	0.899
760.32	0.900
760.50	0.899
760.68	0.929
760.86	0.934
761.04	0.905
761.22	0.908
761.40	0.964
761.58	0.973
761.76	0.937
761.95	0.916
762.13	0.868
762.31	0.866
762.49	0.831
762.67	0.849
762.85	0.860
763.03	0.855
763.21	0.836
763.39	0.810
763.57	0.811
763.75	0.804
763.94	0.789
764.12	0.792
764.30	0.819
764.48	0.824
764.66	0.786
764.84	0.783
765.02	0.823
765.20	0.830
765.38	0.811
765.56	0.818
765.74	0.866
765.92	0.867
766.10	0.873
766.28	0.866
766.46	0.898
766.65	0.896
766.83	0.883
767.01	0.866
767.19	0.873
767.37	0.875
767.55	0.860
767.73	0.834
767.91	0.838
768.09	0.824
768.27	0.811
768.45	0.798
768.63	0.802
768.81	0.803
768.99	0.776
769.17	0.801
769.35	0.816
769.53	0.810
769.71	0.792
769.89	0.799
770.07	0.806
770.25	0.788
770.43	0.763
770.61	0.790
770.79	0.800
770.97	0.809
771.15	0.775
771.33	0.778
771.51	0.786
771.69	0.798
771.87	0.804
772.05	0.811
772.24	0.820
772.42	0.833
772.60	0.808
772.78	0.871
772.96	0.902
773.14	0.903
773.32	0.877
773.49	0.885
773.67	0.880
773.85	0.861
774.03	0.846
774.21	0.883
774.39	0.897
774.57	0.925
774.75	0.845
774.93	0.843
775.11	0.865
775.29	0.873
775.47	0.869
775.65	0.881
775.83	0.901
776.01	0.928
776.19	0.872
776.37	0.875
776.55	0.875
776.73	0.869
776.91	0.858
777.09	0.841
777.27	0.843
777.45	0.834
777.63	0.809
777.81	0.807
777.99	0.792
778.17	0.792
778.35	0.765
778.53	0.752
778.71	0.760
778.89	0.746
779.07	0.732
779.24	0.733
779.42	0.733
779.60	0.754
779.78	0.747
779.96	0.751
780.14	0.759
780.32	0.782
780.50	0.763
780.68	0.764
780.86	0.756
781.04	0.775
781.22	0.780
781.40	0.792
781.58	0.781
781.75	0.772
781.93	0.758
782.11	0.760
782.29	0.744
782.47	0.745
782.65	0.731
782.83	0.762
783.01	0.758
783.19	0.753
783.37	0.738
783.55	0.741
783.72	0.762
783.90	0.772
784.08	0.760
784.26	0.775
784.44	0.796
784.62	0.795
784.80	0.760
784.98	0.764
785.16	0.770
785.33	0.786
785.51	0.770
785.69	0.756
785.87	0.756
786.05	0.771
786.23	0.763
786.41	0.761
786.59	0.770
786.77	0.766
786.94	0.752
787.12	0.753
787.30	0.753
787.48	0.750
787.66	0.738
787.84	0.738
788.02	0.727
788.19	0.725
788.37	0.711
788.55	0.712
788.73	0.714
788.91	0.709
789.09	0.691
789.27	0.681
789.44	0.693
789.62	0.696
789.80	0.704
789.98	0.729
790.16	0.716
790.34	0.711
790.51	0.698
790.69	0.717
790.87	0.724
791.05	0.721
791.23	0.712
791.41	0.712
791.58	0.723
791.76	0.703
791.94	0.672
792.12	0.682
792.30	0.685
792.48	0.682
792.65	0.676
792.83	0.683
793.01	0.691
793.19	0.690
793.37	0.675
793.54	0.671
793.72	0.682
793.90	0.682
794.08	0.670
794.26	0.672
794.43	0.683
794.61	0.665
794.79	0.651
794.97	0.650
795.15	0.655
795.32	0.660
795.50	0.648
795.68	0.642
795.86	0.645
796.04	0.645
796.21	0.640
796.39	0.637
796.57	0.653
796.75	0.663
796.92	0.664
797.10	0.669
797.28	0.670
797.46	0.673
797.64	0.674
797.81	0.683
797.99	0.687
798.17	0.691
798.35	0.682
798.52	0.684
798.70	0.681
798.88	0.689
799.06	0.689
799.23	0.693
799.41	0.704
799.59	0.695
799.77	0.684
799.94	0.695
800.12	0.705
800.30	0.726
800.48	0.726
800.65	0.724
800.83	0.715
801.01	0.703
801.19	0.701
801.36	0.696
801.54	0.701
801.72	0.711
801.90	0.695
802.07	0.690
802.25	0.675
802.43	0.658
802.60	0.654
802.78	0.661
802.96	0.669
803.14	0.664
803.31	0.660
803.49	0.660
803.67	0.655
803.84	0.660
804.02	0.652
804.20	0.654
804.38	0.660
804.55	0.660
804.73	0.645
804.91	0.646
805.08	0.658
805.26	0.653
805.44	0.720
805.61	0.725
805.79	0.721
805.97	0.720
806.15	0.709
806.32	0.702
806.50	0.706
806.68	0.704
806.85	0.695
807.03	0.687
807.21	0.705
807.38	0.637
807.56	0.625
807.74	0.637
807.91	0.645
808.09	0.651
808.27	0.670
808.44	0.698
808.62	0.710
808.80	0.711
808.97	0.705
809.15	0.700
809.33	0.718
809.50	0.726
809.68	0.711
809.86	0.718
810.03	0.750
810.21	0.730
810.39	0.712
810.56	0.716
810.74	0.740
810.91	0.819
811.09	0.807
811.27	0.827
811.44	0.833
811.62	0.837
811.80	0.819
811.97	0.786
812.15	0.785
812.33	0.778
812.50	0.763
812.68	0.750
812.85	0.689
813.03	0.692
813.21	0.660
813.38	0.655
813.56	0.657
813.74	0.667
813.91	0.674
814.09	0.705
814.26	0.700
814.44	0.706
814.62	0.695
814.79	0.698
814.97	0.704
815.14	0.710
815.32	0.714
815.50	0.731
815.67	0.732
815.85	0.725
816.02	0.714
816.20	0.721
816.38	0.740
816.55	0.749
816.73	0.749
816.90	0.758
817.08	0.793
817.26	0.799
817.43	0.778
817.61	0.810
817.78	0.833
817.96	0.811
818.13	0.800
818.31	0.795
818.49	0.811
818.66	0.802
818.84	0.789
819.01	0.767
819.19	0.776
819.36	0.779
819.54	0.745
819.71	0.793
819.89	0.809
820.07	0.823
820.24	0.817
820.42	0.817
820.59	0.841
820.77	0.868
820.94	0.857
821.12	0.880
821.29	0.898
821.47	0.902
821.64	0.823
821.82	0.840
822.00	0.840
822.17	0.839
822.35	0.832
822.52	0.835
822.70	0.823
822.87	0.835
823.05	0.809
823.22	0.821
823.40	0.853
823.57	0.884
823.75	0.864
823.92	0.897
824.10	0.920
824.27	0.966
824.45	0.949
824.62	1.026
824.80	1.041
824.97	1.065
825.15	1.047
825.32	1.069
825.50	1.070
825.67	1.082
825.85	1.047
826.02	1.073
826.20	1.110
826.37	1.307
826.55	1.187
826.72	1.550
826.90	1.704
827.07	1.929
827.25	1.720
827.42	-0.000
827.60	-0.000
827.77	-0.000
827.95	-0.000
828.12	-0.000
828.30	-0.000
828.47	-0.000
828.65	1.732
828.82	2.087
829.00	-0.000
829.17	-0.000
829.34	-0.000
829.52	-0.000
829.69	-0.000
829.87	-0.000
830.04	-0.000
830.22	-0.000
830.39	-0.000
830.57	-0.000
830.74	-0.000
830.92	-0.000
831.09	-0.000
831.26	-0.000
831.44	-0.000
831.61	-0.000
831.79	-0.000
831.96	-0.000
832.14	-0.000
832.31	-0.000
832.49	-0.000
832.66	-0.000
832.83	-0.000
833.01	-0.000
833.18	-0.000
833.36	-0.000
833.53	-0.000
833.70	-0.000
833.88	-0.000
834.05	-0.000
834.23	-0.000
834.40	-0.000
834.58	-0.000
834.75	-0.000
834.92	-0.000
835.10	-0.000
835.27	-0.000
835.45	-0.000
835.62	-0.000
835.79	-0.000
835.97	-0.000
836.14	-0.000
836.32	-0.000
836.49	-0.000
836.66	-0.000
836.84	-0.000
837.01	-0.000
837.18	-0.000
837.36	-0.000
837.53	-0.000
837.71	-0.000
837.88	-0.000
838.05	-0.000
838.23	-0.000
838.40	-0.000
838.58	-0.000
838.75	-0.000
838.92	-0.000
839.10	-0.000
839.27	-0.000
839.44	-0.000
839.62	-0.000
839.79	-0.000
839.96	-0.000
840.14	-0.000
840.31	-0.000
840.48	-0.000
840.66	-0.000
840.83	-0.000
841.01	-0.000
841.18	-0.000
841.35	-0.000
841.53	-0.000
841.70	-0.000
841.87	-0.000
842.05	-0.000
842.22	-0.000
842.39	-0.000
842.57	-0.000
842.74	-0.000
842.91	-0.000
843.09	-0.000
843.26	-0.000
843.43	-0.000
843.60	-0.000
843.78	-0.000
843.95	-0.000
844.12	-0.000
844.30	-0.000
844.47	-0.000
844.64	-0.000
844.82	-0.000
844.99	-0.000
845.16	-0.000
845.34	-0.000
845.51	-0.000
845.68	-0.000
845.85	-0.000
846.03	-0.000
846.20	-0.000
846.37	-0.000
846.55	-0.000
846.72	-0.000
846.89	-0.000
847.06	-0.000
847.24	-0.000
847.41	-0.000
847.58	-0.000
847.76	-0.000
847.93	-0.000
848.10	-0.000
848.27	-0.000
848.45	-0.000
848.62	-0.000
848.79	-0.000
848.97	-0.000
849.14	-0.000
849.31	-0.000
849.48	-0.000
849.66	-0.000
849.83	-0.000
850.00	-0.000
850.17	-0.000
850.35	-0.000
850.52	-0.000
850.69	-0.000
850.86	-0.000
851.04	-0.000
851.21	-0.000
851.38	-0.000
851.55	-0.000
851.72	-0.000
851.90	-0.000
852.07	-0.000
852.24	-0.000
852.41	-0.000
852.59	-0.000
852.76	-0.000
852.93	-0.000
853.10	-0.000
853.28	-0.000
853.45	-0.000
853.62	-0.000
853.79	-0.000
853.96	-0.000
854.14	-0.000
854.31	-0.000
854.48	-0.000
854.65	-0.000
854.82	-0.000
855.00	-0.000
855.17	-0.000
855.34	-0.000
855.51	-0.000
855.68	-0.000
855.86	-0.000
856.03	-0.000
856.20	-0.000
856.37	-0.000
856.54	-0.000
856.72	-0.000
856.89	-0.000
857.06	-0.000
857.23	-0.000
857.40	-0.000
857.57	-0.000
857.75	-0.000
857.92	-0.000
858.09	-0.000
858.26	-0.000
858.43	-0.000
858.60	-0.000
858.78	-0.000
858.95	-0.000
859.12	-0.000
859.29	-0.000
859.46	-0.000
859.63	-0.000
859.81	-0.000
859.98	-0.000
860.15	-0.000
860.32	-0.000
860.49	-0.000
860.66	-0.000
860.83	-0.000
861.01	-0.000
861.18	-0.000
861.35	-0.000
861.52	-0.000
861.69	-0.000
861.86	-0.000
862.03	-0.000
862.21	-0.000
862.38	-0.000
862.55	-0.000
862.72	-0.000
862.89	-0.000
863.06	-0.000
863.23	-0.000
863.40	-0.000
863.58	-0.000
863.75	-0.000
863.92	-0.000
864.09	-0.000
864.26	-0.000
864.43	-0.000
864.60	-0.000
864.77	-0.000
864.94	-0.000
865.11	-0.000
865.29	-0.000
865.46	-0.000
865.63	-0.000
865.80	-0.000
865.97	-0.000
866.14	-0.000
866.31	-0.000
866.48	-0.000
866.65	-0.000
866.82	-0.000
866.99	-0.000
867.16	-0.000
867.34	-0.000
867.51	-0.000
867.68	-0.000
867.85	-0.000
868.02	-0.000
868.19	-0.000
868.36	-0.000
868.53	-0.000
868.70	-0.000
868.87	-0.000
869.04	-0.000
869.21	-0.000
869.38	-0.000
869.55	-0.000
869.72	-0.000
869.89	-0.000
870.06	-0.000
870.24	-0.000
870.41	-0.000
870.58	-0.000
870.75	-0.000
870.92	-0.000
871.09	-0.000
871.26	-0.000
871.43	-0.000
871.60	-0.000
871.77	-0.000
871.94	-0.000
872.11	-0.000
872.28	-0.000
872.45	-0.000
872.62	-0.000
872.79	-0.000
872.96	-0.000
873.13	-0.000
873.30	-0.000
873.47	-0.000
873.64	-0.000
873.81	-0.000
873.98	-0.000
874.15	-0.000
874.32	-0.000
874.49	-0.000
874.66	-0.000
874.83	-0.000
875.00	-0.000
875.17	-0.000
875.34	-0.000
875.51	-0.000
875.68	-0.000
875.85	-0.000
876.02	-0.000
876.19	-0.000
876.36	-0.000
876.53	-0.000
876.70	-0.000
876.87	-0.000
877.04	-0.000
877.21	-0.000
877.38	-0.000
877.55	-0.000
877.72	-0.000
877.89	-0.000
878.06	-0.000
878.23	-0.000
878.39	-0.000
878.56	-0.000
878.73	-0.000
878.90	-0.000
879.07	-0.000
879.24	-0.000
879.41	-0.000
879.58	-0.000
879.75	-0.000
879.92	-0.000
880.09	-0.000
880.26	-0.000
880.43	-0.000
880.60	-0.000
880.77	-0.000
880.94	-0.000
881.11	-0.000
881.27	-0.000
881.44	-0.000
881.61	-0.000
881.78	-0.000
881.95	-0.000
882.12	-0.000
882.29	-0.000
882.46	-0.000
882.63	-0.000
882.80	-0.000
882.97	-0.000
883.14	-0.000
883.30	-0.000
883.47	-0.000
883.64	-0.000
883.81	-0.000
883.98	-0.000
884.15	-0.000
884.32	-0.000
884.49	-0.000
884.66	-0.000
884.82	-0.000
884.99	-0.000
885.16	-0.000
885.33	-0.000
885.50	-0.000
885.67	-0.000
885.84	-0.000
886.01	-0.000
886.17	-0.000
886.34	-0.000
886.51	-0.000
886.68	-0.000
886.85	-0.000
887.02	-0.000
887.19	-0.000
887.36	-0.000
887.52	-0.000
887.69	-0.000
887.86	-0.000
888.03	-0.000
888.20	-0.000
888.37	-0.000
888.54	-0.000
888.70	-0.000
888.87	-0.000
889.04	-0.000
889.21	-0.000
889.38	-0.000
889.55	-0.000
889.71	-0.000
889.88	-0.000
890.05	-0.000
890.22	-0.000
890.39	-0.000
>>>>>End Processed Spectral Data<<<<<
