SpectraSuite Data File
++++++++++++++++++++++++++++++++++++
Date: Fri Jun 19 13:06:28 CEST 2015
User: introlabs
Dark Spectrum Present: Yes
Reference Spectrum Present: Yes
Number of Sampled Component Spectra: 1
Spectrometers: USB4H08886
Integration Time (usec): 745692 (USB4H08886)
Spectra Averaged: 5 (USB4H08886)
Boxcar Smoothing: 5 (USB4H08886)
Correct for Electrical Dark: Yes (USB4H08886)
Strobe/Lamp Enabled: No (USB4H08886)
Correct for Detector Non-linearity: Yes (USB4H08886)
Correct for Stray Light: Yes (USB4H08886)
Number of Pixels in Processed Spectrum: 3648
>>>>>Begin Processed Spectral Data<<<<<
178.14	-0.000
178.36	-0.000
178.57	-0.000
178.79	-0.000
179.01	-0.000
179.22	-0.000
179.44	-0.000
179.65	-0.000
179.87	-0.000
180.08	-0.000
180.30	-0.000
180.52	-0.000
180.73	-0.000
180.95	-0.000
181.16	-0.000
181.38	-0.000
181.59	-0.000
181.81	-0.000
182.03	-0.000
182.24	-0.000
182.46	-0.000
182.67	-0.000
182.89	-0.000
183.10	-0.000
183.32	-0.000
183.54	-0.000
183.75	-0.000
183.97	-0.000
184.18	-0.000
184.40	-0.000
184.61	-0.000
184.83	-0.000
185.04	-0.000
185.26	-0.000
185.48	-0.000
185.69	-0.000
185.91	-0.000
186.12	-0.000
186.34	-0.000
186.55	-0.000
186.77	-0.000
186.98	-0.000
187.20	-0.000
187.42	-0.000
187.63	-0.000
187.85	-0.000
188.06	-0.000
188.28	-0.000
188.49	-0.000
188.71	-0.000
188.92	-0.000
189.14	-0.000
189.36	-0.000
189.57	-0.000
189.79	-0.000
190.00	-0.000
190.22	-0.000
190.43	-0.000
190.65	-0.000
190.86	-0.000
191.08	-0.000
191.29	-0.000
191.51	-0.000
191.72	-0.000
191.94	-0.000
192.16	-0.000
192.37	-0.000
192.59	-0.000
192.80	-0.000
193.02	-0.000
193.23	-0.000
193.45	-0.000
193.66	-0.000
193.88	-0.000
194.09	-0.000
194.31	-0.000
194.52	-0.000
194.74	-0.000
194.95	-0.000
195.17	-0.000
195.38	-0.000
195.60	-0.000
195.81	-0.000
196.03	-0.000
196.25	-0.000
196.46	-0.000
196.68	-0.000
196.89	-0.000
197.11	-0.000
197.32	-0.000
197.54	-0.000
197.75	-0.000
197.97	-0.000
198.18	-0.000
198.40	-0.000
198.61	-0.000
198.83	-0.000
199.04	-0.000
199.26	-0.000
199.47	-0.000
199.69	-0.000
199.90	-0.000
200.12	-0.000
200.33	-0.000
200.55	-0.000
200.76	-0.000
200.98	-0.000
201.19	-0.000
201.41	-0.000
201.62	-0.000
201.84	-0.000
202.05	-0.000
202.27	-0.000
202.48	-0.000
202.70	-0.000
202.91	-0.000
203.13	-0.000
203.34	-0.000
203.56	-0.000
203.77	-0.000
203.99	-0.000
204.20	-0.000
204.42	-0.000
204.63	-0.000
204.85	-0.000
205.06	-0.000
205.28	-0.000
205.49	-0.000
205.71	-0.000
205.92	-0.000
206.14	-0.000
206.35	-0.000
206.56	-0.000
206.78	-0.000
206.99	-0.000
207.21	-0.000
207.42	-0.000
207.64	-0.000
207.85	-0.000
208.07	-0.000
208.28	-0.000
208.50	-0.000
208.71	-0.000
208.93	-0.000
209.14	-0.000
209.36	-0.000
209.57	-0.000
209.79	-0.000
210.00	-0.000
210.22	-0.000
210.43	-0.000
210.64	-0.000
210.86	-0.000
211.07	-0.000
211.29	-0.000
211.50	-0.000
211.72	-0.000
211.93	-0.000
212.15	-0.000
212.36	-0.000
212.58	-0.000
212.79	-0.000
213.01	-0.000
213.22	-0.000
213.43	-0.000
213.65	-0.000
213.86	-0.000
214.08	-0.000
214.29	-0.000
214.51	-0.000
214.72	-0.000
214.94	-0.000
215.15	-0.000
215.36	-0.000
215.58	-0.000
215.79	-0.000
216.01	-0.000
216.22	-0.000
216.44	-0.000
216.65	-0.000
216.87	-0.000
217.08	-0.000
217.29	-0.000
217.51	-0.000
217.72	-0.000
217.94	-0.000
218.15	-0.000
218.37	-0.000
218.58	-0.000
218.80	-0.000
219.01	-0.000
219.22	-0.000
219.44	-0.000
219.65	-0.000
219.87	-0.000
220.08	-0.000
220.30	-0.000
220.51	-0.000
220.72	-0.000
220.94	-0.000
221.15	-0.000
221.37	-0.000
221.58	-0.000
221.79	-0.000
222.01	-0.000
222.22	-0.000
222.44	-0.000
222.65	-0.000
222.87	-0.000
223.08	-0.000
223.29	-0.000
223.51	-0.000
223.72	-0.000
223.94	-0.000
224.15	-0.000
224.36	-0.000
224.58	-0.000
224.79	-0.000
225.01	-0.000
225.22	-0.000
225.44	-0.000
225.65	-0.000
225.86	-0.000
226.08	-0.000
226.29	-0.000
226.51	-0.000
226.72	-0.000
226.93	-0.000
227.15	-0.000
227.36	-0.000
227.58	-0.000
227.79	-0.000
228.00	-0.000
228.22	-0.000
228.43	-0.000
228.65	-0.000
228.86	-0.000
229.07	-0.000
229.29	-0.000
229.50	-0.000
229.72	-0.000
229.93	-0.000
230.14	-0.000
230.36	-0.000
230.57	-0.000
230.78	-0.000
231.00	-0.000
231.21	-0.000
231.43	-0.000
231.64	-0.000
231.85	-0.000
232.07	-0.000
232.28	-0.000
232.50	-0.000
232.71	-0.000
232.92	-0.000
233.14	-0.000
233.35	-0.000
233.56	-0.000
233.78	-0.000
233.99	-0.000
234.21	-0.000
234.42	-0.000
234.63	-0.000
234.85	-0.000
235.06	-0.000
235.27	-0.000
235.49	-0.000
235.70	-0.000
235.91	-0.000
236.13	-0.000
236.34	-0.000
236.56	-0.000
236.77	-0.000
236.98	-0.000
237.20	-0.000
237.41	-0.000
237.62	-0.000
237.84	-0.000
238.05	-0.000
238.26	-0.000
238.48	-0.000
238.69	-0.000
238.91	-0.000
239.12	-0.000
239.33	-0.000
239.55	-0.000
239.76	-0.000
239.97	-0.000
240.19	-0.000
240.40	-0.000
240.61	-0.000
240.83	-0.000
241.04	-0.000
241.25	-0.000
241.47	-0.000
241.68	-0.000
241.89	-0.000
242.11	-0.000
242.32	-0.000
242.53	-0.000
242.75	-0.000
242.96	-0.000
243.17	-0.000
243.39	-0.000
243.60	-0.000
243.81	-0.000
244.03	-0.000
244.24	-0.000
244.45	-0.000
244.67	-0.000
244.88	-0.000
245.09	-0.000
245.31	-0.000
245.52	-0.000
245.73	-0.000
245.95	-0.000
246.16	-0.000
246.37	-0.000
246.59	-0.000
246.80	-0.000
247.01	-0.000
247.23	-0.000
247.44	-0.000
247.65	-0.000
247.87	-0.000
248.08	-0.000
248.29	-0.000
248.51	-0.000
248.72	-0.000
248.93	-0.000
249.15	-0.000
249.36	-0.000
249.57	-0.000
249.78	-0.000
250.00	-0.000
250.21	-0.000
250.42	-0.000
250.64	-0.000
250.85	-0.000
251.06	-0.000
251.28	-0.000
251.49	-0.000
251.70	-0.000
251.92	-0.000
252.13	-0.000
252.34	-0.000
252.55	-0.000
252.77	-0.000
252.98	-0.000
253.19	-0.000
253.41	-0.000
253.62	-0.000
253.83	-0.000
254.05	-0.000
254.26	-0.000
254.47	-0.000
254.68	-0.000
254.90	-0.000
255.11	-0.000
255.32	-0.000
255.54	-0.000
255.75	-0.000
255.96	-0.000
256.17	-0.000
256.39	-0.000
256.60	-0.000
256.81	-0.000
257.03	-0.000
257.24	-0.000
257.45	-0.000
257.66	-0.000
257.88	-0.000
258.09	-0.000
258.30	-0.000
258.51	-0.000
258.73	-0.000
258.94	-0.000
259.15	-0.000
259.37	-0.000
259.58	-0.000
259.79	-0.000
260.00	-0.000
260.22	-0.000
260.43	-0.000
260.64	-0.000
260.85	-0.000
261.07	-0.000
261.28	-0.000
261.49	-0.000
261.71	-0.000
261.92	-0.000
262.13	-0.000
262.34	-0.000
262.56	-0.000
262.77	-0.000
262.98	-0.000
263.19	-0.000
263.41	-0.000
263.62	-0.000
263.83	-0.000
264.04	-0.000
264.26	-0.000
264.47	-0.000
264.68	-0.000
264.89	-0.000
265.11	-0.000
265.32	-0.000
265.53	-0.000
265.74	-0.000
265.96	-0.000
266.17	-0.000
266.38	-0.000
266.59	-0.000
266.81	-0.000
267.02	-0.000
267.23	-0.000
267.44	-0.000
267.65	-0.000
267.87	-0.000
268.08	-0.000
268.29	-0.000
268.50	-0.000
268.72	-0.000
268.93	-0.000
269.14	-0.000
269.35	-0.000
269.57	-0.000
269.78	-0.000
269.99	-0.000
270.20	-0.000
270.41	-0.000
270.63	-0.000
270.84	-0.000
271.05	-0.000
271.26	-0.000
271.48	-0.000
271.69	-0.000
271.90	-0.000
272.11	-0.000
272.32	-0.000
272.54	-0.000
272.75	-0.000
272.96	-0.000
273.17	-0.000
273.39	-0.000
273.60	-0.000
273.81	-0.000
274.02	-0.000
274.23	-0.000
274.45	-0.000
274.66	-0.000
274.87	-0.000
275.08	-0.000
275.29	-0.000
275.51	-0.000
275.72	-0.000
275.93	-0.000
276.14	-0.000
276.35	-0.000
276.57	-0.000
276.78	-0.000
276.99	-0.000
277.20	-0.000
277.41	-0.000
277.63	-0.000
277.84	-0.000
278.05	-0.000
278.26	-0.000
278.47	-0.000
278.69	-0.000
278.90	-0.000
279.11	-0.000
279.32	-0.000
279.53	-0.000
279.74	-0.000
279.96	-0.000
280.17	-0.000
280.38	-0.000
280.59	-0.000
280.80	-0.000
281.02	-0.000
281.23	-0.000
281.44	-0.000
281.65	-0.000
281.86	-0.000
282.07	-0.000
282.29	-0.000
282.50	-0.000
282.71	-0.000
282.92	-0.000
283.13	-0.000
283.35	-0.000
283.56	-0.000
283.77	-0.000
283.98	-0.000
284.19	-0.000
284.40	-0.000
284.62	-0.000
284.83	-0.000
285.04	-0.000
285.25	-0.000
285.46	-0.000
285.67	-0.000
285.88	-0.000
286.10	-0.000
286.31	-0.000
286.52	-0.000
286.73	-0.000
286.94	-0.000
287.15	-0.000
287.37	-0.000
287.58	-0.000
287.79	-0.000
288.00	-0.000
288.21	-0.000
288.42	-0.000
288.63	-0.000
288.85	-0.000
289.06	-0.000
289.27	-0.000
289.48	-0.000
289.69	-0.000
289.90	-0.000
290.11	-0.000
290.33	-0.000
290.54	-0.000
290.75	-0.000
290.96	-0.000
291.17	-0.000
291.38	-0.000
291.59	-0.000
291.81	-0.000
292.02	-0.000
292.23	-0.000
292.44	-0.000
292.65	-0.000
292.86	-0.000
293.07	-0.000
293.28	-0.000
293.50	-0.000
293.71	-0.000
293.92	-0.000
294.13	-0.000
294.34	-0.000
294.55	-0.000
294.76	-0.000
294.97	-0.000
295.19	-0.000
295.40	-0.000
295.61	-0.000
295.82	-0.000
296.03	-0.000
296.24	-0.000
296.45	-0.000
296.66	-0.000
296.87	-0.000
297.09	-0.000
297.30	-0.000
297.51	2.829
297.72	2.460
297.93	-0.000
298.14	3.212
298.35	2.491
298.56	2.322
298.77	-0.000
298.99	3.430
299.20	2.584
299.41	2.413
299.62	2.293
299.83	2.258
300.04	2.010
300.25	1.985
300.46	2.135
300.67	2.080
300.88	1.903
301.10	1.892
301.31	2.143
301.52	1.952
301.73	1.804
301.94	1.804
302.15	1.828
302.36	1.733
302.57	1.607
302.78	1.618
302.99	1.682
303.20	1.714
303.41	1.567
303.63	1.531
303.84	1.543
304.05	1.537
304.26	1.444
304.47	1.455
304.68	1.461
304.89	1.452
305.10	1.389
305.31	1.370
305.52	1.427
305.73	1.414
305.94	1.355
306.15	1.346
306.37	1.380
306.58	1.393
306.79	1.353
307.00	1.380
307.21	1.430
307.42	1.416
307.63	1.367
307.84	1.323
308.05	1.373
308.26	1.373
308.47	1.341
308.68	1.331
308.89	1.332
309.10	1.323
309.31	1.273
309.52	1.259
309.73	1.281
309.95	1.277
310.16	1.245
310.37	1.233
310.58	1.257
310.79	1.255
311.00	1.248
311.21	1.252
311.42	1.257
311.63	1.250
311.84	1.224
312.05	1.220
312.26	1.245
312.47	1.256
312.68	1.225
312.89	1.206
313.10	1.216
313.31	1.185
313.52	1.179
313.73	1.181
313.94	1.187
314.15	1.169
314.36	1.145
314.57	1.134
314.78	1.120
314.99	1.113
315.21	1.097
315.42	1.100
315.63	1.116
315.84	1.092
316.05	1.074
316.26	1.080
316.47	1.101
316.68	1.095
316.89	1.075
317.10	1.099
317.31	1.105
317.52	1.108
317.73	1.082
317.94	1.081
318.15	1.130
318.36	1.128
318.57	1.107
318.78	1.094
318.99	1.133
319.20	1.128
319.41	1.088
319.62	1.090
319.83	1.106
320.04	1.103
320.25	1.087
320.46	1.050
320.67	1.058
320.88	1.055
321.09	1.040
321.30	1.024
321.51	1.041
321.72	1.041
321.93	1.020
322.14	1.012
322.35	1.040
322.56	1.042
322.77	1.028
322.98	1.039
323.19	1.048
323.40	1.054
323.61	1.029
323.82	1.023
324.03	1.028
324.24	1.026
324.45	1.010
324.66	0.991
324.87	0.988
325.08	0.987
325.29	0.965
325.50	0.957
325.71	0.963
325.92	0.972
326.13	0.957
326.34	0.957
326.55	0.969
326.76	0.968
326.97	0.955
327.18	0.949
327.39	0.976
327.60	0.977
327.80	0.978
328.01	0.976
328.22	0.976
328.43	0.980
328.64	0.966
328.85	0.969
329.06	0.973
329.27	0.973
329.48	0.966
329.69	0.947
329.90	0.959
330.11	0.950
330.32	0.943
330.53	0.936
330.74	0.938
330.95	0.936
331.16	0.921
331.37	0.929
331.58	0.928
331.79	0.928
332.00	0.917
332.21	0.910
332.42	0.915
332.63	0.907
332.83	0.901
333.04	0.902
333.25	0.915
333.46	0.911
333.67	0.895
333.88	0.899
334.09	0.909
334.30	0.905
334.51	0.895
334.72	0.891
334.93	0.895
335.14	0.895
335.35	0.886
335.56	0.881
335.77	0.891
335.98	0.889
336.18	0.882
336.39	0.875
336.60	0.880
336.81	0.878
337.02	0.875
337.23	0.879
337.44	0.882
337.65	0.885
337.86	0.874
338.07	0.868
338.28	0.874
338.49	0.873
338.70	0.865
338.91	0.872
339.11	0.879
339.32	0.876
339.53	0.864
339.74	0.862
339.95	0.859
340.16	0.858
340.37	0.850
340.58	0.848
340.79	0.853
341.00	0.852
341.21	0.841
341.41	0.842
341.62	0.844
341.83	0.844
342.04	0.838
342.25	0.847
342.46	0.852
342.67	0.851
342.88	0.843
343.09	0.842
343.30	0.851
343.50	0.854
343.71	0.843
343.92	0.841
344.13	0.846
344.34	0.845
344.55	0.828
344.76	0.826
344.97	0.831
345.18	0.830
345.38	0.826
345.59	0.819
345.80	0.819
346.01	0.817
346.22	0.812
346.43	0.807
346.64	0.816
346.85	0.815
347.06	0.808
347.26	0.809
347.47	0.813
347.68	0.808
347.89	0.804
348.10	0.799
348.31	0.806
348.52	0.805
348.73	0.802
348.93	0.798
349.14	0.800
349.35	0.801
349.56	0.795
349.77	0.790
349.98	0.797
350.19	0.794
350.39	0.789
350.60	0.785
350.81	0.802
351.02	0.801
351.23	0.796
351.44	0.800
351.65	0.804
351.86	0.802
352.06	0.799
352.27	0.798
352.48	0.801
352.69	0.801
352.90	0.795
353.11	0.782
353.31	0.789
353.52	0.785
353.73	0.775
353.94	0.777
354.15	0.782
354.36	0.782
354.57	0.774
354.77	0.775
354.98	0.775
355.19	0.775
355.40	0.774
355.61	0.779
355.82	0.783
356.02	0.783
356.23	0.775
356.44	0.778
356.65	0.782
356.86	0.782
357.07	0.776
357.27	0.778
357.48	0.782
357.69	0.777
357.90	0.761
358.11	0.759
358.32	0.762
358.52	0.766
358.73	0.754
358.94	0.756
359.15	0.760
359.36	0.760
359.56	0.755
359.77	0.752
359.98	0.759
360.19	0.760
360.40	0.756
360.61	0.757
360.81	0.756
361.02	0.757
361.23	0.749
361.44	0.748
361.65	0.749
361.85	0.748
362.06	0.746
362.27	0.748
362.48	0.749
362.69	0.752
362.89	0.745
363.10	0.746
363.31	0.751
363.52	0.754
363.73	0.749
363.93	0.749
364.14	0.752
364.35	0.753
364.56	0.741
364.77	0.744
364.97	0.746
365.18	0.747
365.39	0.742
365.60	0.738
365.81	0.740
366.01	0.739
366.22	0.736
366.43	0.736
366.64	0.738
366.84	0.744
367.05	0.739
367.26	0.738
367.47	0.740
367.68	0.740
367.88	0.737
368.09	0.735
368.30	0.738
368.51	0.738
368.71	0.737
368.92	0.740
369.13	0.739
369.34	0.738
369.55	0.737
369.75	0.737
369.96	0.744
370.17	0.744
370.38	0.739
370.58	0.739
370.79	0.744
371.00	0.742
371.21	0.734
371.41	0.739
371.62	0.745
371.83	0.741
372.04	0.739
372.24	0.733
372.45	0.734
372.66	0.734
372.87	0.730
373.07	0.727
373.28	0.729
373.49	0.731
373.70	0.722
373.90	0.720
374.11	0.729
374.32	0.728
374.53	0.726
374.73	0.727
374.94	0.730
375.15	0.732
375.36	0.728
375.56	0.737
375.77	0.738
375.98	0.738
376.19	0.734
376.39	0.727
376.60	0.732
376.81	0.731
377.02	0.729
377.22	0.728
377.43	0.728
377.64	0.727
377.84	0.718
378.05	0.722
378.26	0.728
378.47	0.728
378.67	0.724
378.88	0.722
379.09	0.722
379.30	0.722
379.50	0.718
379.71	0.720
379.92	0.724
380.12	0.723
380.33	0.715
380.54	0.711
380.75	0.718
380.95	0.718
381.16	0.715
381.37	0.716
381.57	0.718
381.78	0.718
381.99	0.718
382.20	0.717
382.40	0.719
382.61	0.719
382.82	0.715
383.02	0.708
383.23	0.711
383.44	0.712
383.64	0.709
383.85	0.712
384.06	0.715
384.27	0.712
384.47	0.710
384.68	0.710
384.89	0.716
385.09	0.716
385.30	0.715
385.51	0.714
385.71	0.717
385.92	0.717
386.13	0.715
386.33	0.717
386.54	0.719
386.75	0.718
386.95	0.714
387.16	0.710
387.37	0.713
387.58	0.712
387.78	0.709
387.99	0.707
388.20	0.710
388.40	0.706
388.61	0.702
388.82	0.704
389.02	0.707
389.23	0.708
389.44	0.705
389.64	0.705
389.85	0.716
390.06	0.717
390.26	0.718
390.47	0.717
390.68	0.720
390.88	0.718
391.09	0.714
391.30	0.712
391.50	0.712
391.71	0.712
391.92	0.709
392.12	0.700
392.33	0.701
392.53	0.699
392.74	0.699
392.95	0.697
393.15	0.700
393.36	0.702
393.57	0.699
393.77	0.702
393.98	0.705
394.19	0.705
394.39	0.704
394.60	0.705
394.81	0.708
395.01	0.706
395.22	0.704
395.43	0.705
395.63	0.709
395.84	0.711
396.04	0.706
396.25	0.708
396.46	0.709
396.66	0.707
396.87	0.705
397.08	0.702
397.28	0.704
397.49	0.705
397.69	0.701
397.90	0.696
398.11	0.697
398.31	0.698
398.52	0.694
398.73	0.695
398.93	0.694
399.14	0.693
399.34	0.691
399.55	0.693
399.76	0.693
399.96	0.693
400.17	0.692
400.37	0.690
400.58	0.697
400.79	0.699
400.99	0.696
401.20	0.702
401.41	0.704
401.61	0.705
401.82	0.708
402.02	0.708
402.23	0.709
402.44	0.709
402.64	0.708
402.85	0.703
403.05	0.702
403.26	0.701
403.47	0.694
403.67	0.693
403.88	0.694
404.08	0.689
404.29	0.686
404.50	0.686
404.70	0.687
404.91	0.685
405.11	0.682
405.32	0.683
405.52	0.683
405.73	0.683
405.94	0.681
406.14	0.683
406.35	0.685
406.55	0.684
406.76	0.681
406.97	0.682
407.17	0.685
407.38	0.685
407.58	0.683
407.79	0.686
407.99	0.688
408.20	0.689
408.41	0.684
408.61	0.683
408.82	0.684
409.02	0.684
409.23	0.681
409.43	0.681
409.64	0.682
409.84	0.681
410.05	0.677
410.26	0.676
410.46	0.676
410.67	0.675
410.87	0.675
411.08	0.677
411.28	0.678
411.49	0.680
411.69	0.677
411.90	0.678
412.11	0.680
412.31	0.681
412.52	0.680
412.72	0.681
412.93	0.683
413.13	0.682
413.34	0.678
413.54	0.679
413.75	0.681
413.95	0.680
414.16	0.677
414.37	0.680
414.57	0.680
414.78	0.682
414.98	0.679
415.19	0.680
415.39	0.678
415.60	0.681
415.80	0.680
416.01	0.679
416.21	0.682
416.42	0.681
416.62	0.676
416.83	0.676
417.03	0.676
417.24	0.676
417.44	0.674
417.65	0.673
417.86	0.673
418.06	0.672
418.27	0.669
418.47	0.670
418.68	0.671
418.88	0.672
419.09	0.670
419.29	0.671
419.50	0.672
419.70	0.671
419.91	0.670
420.11	0.668
420.32	0.670
420.52	0.670
420.73	0.669
420.93	0.670
421.14	0.672
421.34	0.671
421.55	0.668
421.75	0.668
421.96	0.670
422.16	0.670
422.37	0.669
422.57	0.667
422.78	0.669
422.98	0.665
423.19	0.663
423.39	0.662
423.60	0.665
423.80	0.666
424.01	0.664
424.21	0.666
424.42	0.668
424.62	0.668
424.83	0.666
425.03	0.666
425.23	0.669
425.44	0.669
425.64	0.669
425.85	0.667
426.05	0.669
426.26	0.670
426.46	0.666
426.67	0.665
426.87	0.671
427.08	0.672
427.28	0.670
427.49	0.671
427.69	0.672
427.90	0.671
428.10	0.668
428.31	0.667
428.51	0.669
428.71	0.668
428.92	0.668
429.12	0.665
429.33	0.666
429.53	0.669
429.74	0.672
429.94	0.673
430.15	0.673
430.35	0.673
430.56	0.670
430.76	0.670
430.96	0.671
431.17	0.669
431.37	0.667
431.58	0.665
431.78	0.662
431.99	0.655
432.19	0.657
432.40	0.659
432.60	0.660
432.80	0.662
433.01	0.660
433.21	0.660
433.42	0.663
433.62	0.663
433.83	0.662
434.03	0.665
434.23	0.668
434.44	0.668
434.64	0.665
434.85	0.670
435.05	0.671
435.26	0.671
435.46	0.669
435.66	0.669
435.87	0.670
436.07	0.670
436.28	0.665
436.48	0.662
436.69	0.662
436.89	0.662
437.09	0.656
437.30	0.655
437.50	0.656
437.71	0.667
437.91	0.665
438.11	0.667
438.32	0.672
438.52	0.673
438.73	0.672
438.93	0.670
439.13	0.670
439.34	0.674
439.54	0.672
439.75	0.672
439.95	0.662
440.15	0.666
440.36	0.664
440.56	0.661
440.77	0.663
440.97	0.662
441.17	0.661
441.38	0.663
441.58	0.660
441.79	0.660
441.99	0.658
442.19	0.658
442.40	0.656
442.60	0.657
442.81	0.654
443.01	0.655
443.21	0.656
443.42	0.656
443.62	0.654
443.82	0.653
444.03	0.655
444.23	0.655
444.44	0.655
444.64	0.653
444.84	0.654
445.05	0.654
445.25	0.651
445.45	0.652
445.66	0.654
445.86	0.653
446.06	0.654
446.27	0.654
446.47	0.658
446.68	0.656
446.88	0.656
447.08	0.655
447.29	0.658
447.49	0.658
447.69	0.658
447.90	0.656
448.10	0.661
448.30	0.658
448.51	0.660
448.71	0.657
448.91	0.660
449.12	0.658
449.32	0.659
449.52	0.658
449.73	0.662
449.93	0.661
450.14	0.661
450.34	0.660
450.54	0.663
450.75	0.660
450.95	0.659
451.15	0.659
451.36	0.661
451.56	0.659
451.76	0.658
451.97	0.655
452.17	0.656
452.37	0.654
452.58	0.651
452.78	0.650
452.98	0.653
453.19	0.652
453.39	0.653
453.59	0.652
453.79	0.653
454.00	0.653
454.20	0.652
454.40	0.652
454.61	0.655
454.81	0.655
455.01	0.654
455.22	0.654
455.42	0.657
455.62	0.655
455.83	0.654
456.03	0.657
456.23	0.658
456.44	0.659
456.64	0.657
456.84	0.657
457.04	0.659
457.25	0.658
457.45	0.654
457.65	0.653
457.86	0.654
458.06	0.653
458.26	0.649
458.47	0.648
458.67	0.650
458.87	0.651
459.07	0.648
459.28	0.650
459.48	0.653
459.68	0.653
459.89	0.653
460.09	0.651
460.29	0.653
460.49	0.654
460.70	0.652
460.90	0.652
461.10	0.653
461.31	0.652
461.51	0.649
461.71	0.650
461.91	0.652
462.12	0.651
462.32	0.650
462.52	0.651
462.72	0.654
462.93	0.654
463.13	0.652
463.33	0.652
463.53	0.654
463.74	0.653
463.94	0.649
464.14	0.649
464.35	0.651
464.55	0.651
464.75	0.649
464.95	0.647
465.16	0.650
465.36	0.649
465.56	0.648
465.76	0.648
465.97	0.649
466.17	0.649
466.37	0.648
466.57	0.648
466.78	0.649
466.98	0.649
467.18	0.647
467.38	0.646
467.59	0.648
467.79	0.650
467.99	0.649
468.19	0.650
468.39	0.653
468.60	0.653
468.80	0.651
469.00	0.653
469.20	0.654
469.41	0.654
469.61	0.653
469.81	0.653
470.01	0.653
470.22	0.653
470.42	0.652
470.62	0.649
470.82	0.651
471.02	0.650
471.23	0.647
471.43	0.648
471.63	0.650
471.83	0.649
472.04	0.648
472.24	0.646
472.44	0.651
472.64	0.651
472.84	0.649
473.05	0.649
473.25	0.653
473.45	0.652
473.65	0.651
473.85	0.652
474.06	0.653
474.26	0.653
474.46	0.654
474.66	0.651
474.86	0.652
475.07	0.652
475.27	0.649
475.47	0.646
475.67	0.647
475.87	0.648
476.08	0.645
476.28	0.645
476.48	0.647
476.68	0.645
476.88	0.644
477.09	0.645
477.29	0.647
477.49	0.647
477.69	0.646
477.89	0.646
478.09	0.646
478.30	0.648
478.50	0.645
478.70	0.644
478.90	0.644
479.10	0.647
479.31	0.647
479.51	0.645
479.71	0.646
479.91	0.647
480.11	0.645
480.31	0.646
480.52	0.645
480.72	0.645
480.92	0.644
481.12	0.643
481.32	0.641
481.52	0.639
481.72	0.639
481.93	0.643
482.13	0.643
482.33	0.643
482.53	0.641
482.73	0.641
482.93	0.642
483.14	0.641
483.34	0.641
483.54	0.641
483.74	0.640
483.94	0.639
484.14	0.635
484.34	0.635
484.55	0.636
484.75	0.636
484.95	0.634
485.15	0.634
485.35	0.634
485.55	0.634
485.75	0.632
485.96	0.633
486.16	0.635
486.36	0.634
486.56	0.633
486.76	0.633
486.96	0.634
487.16	0.633
487.36	0.631
487.57	0.631
487.77	0.632
487.97	0.632
488.17	0.630
488.37	0.629
488.57	0.630
488.77	0.630
488.97	0.628
489.18	0.627
489.38	0.630
489.58	0.630
489.78	0.629
489.98	0.628
490.18	0.629
490.38	0.630
490.58	0.628
490.78	0.629
490.98	0.631
491.19	0.631
491.39	0.631
491.59	0.629
491.79	0.633
491.99	0.634
492.19	0.633
492.39	0.636
492.59	0.636
492.79	0.638
492.99	0.638
493.20	0.638
493.40	0.639
493.60	0.640
493.80	0.638
494.00	0.636
494.20	0.637
494.40	0.637
494.60	0.634
494.80	0.639
495.00	0.638
495.20	0.636
495.40	0.635
495.61	0.636
495.81	0.636
496.01	0.640
496.21	0.640
496.41	0.639
496.61	0.640
496.81	0.639
497.01	0.634
497.21	0.633
497.41	0.634
497.61	0.634
497.81	0.631
498.01	0.631
498.21	0.629
498.41	0.627
498.61	0.627
498.82	0.628
499.02	0.630
499.22	0.631
499.42	0.630
499.62	0.631
499.82	0.632
500.02	0.634
500.22	0.632
500.42	0.634
500.62	0.635
500.82	0.636
501.02	0.634
501.22	0.634
501.42	0.634
501.62	0.636
501.82	0.636
502.02	0.636
502.22	0.636
502.42	0.637
502.62	0.634
502.82	0.634
503.02	0.635
503.22	0.635
503.42	0.633
503.63	0.633
503.83	0.632
504.03	0.630
504.23	0.629
504.43	0.630
504.63	0.631
504.83	0.630
505.03	0.629
505.23	0.631
505.43	0.633
505.63	0.633
505.83	0.632
506.03	0.634
506.23	0.636
506.43	0.637
506.63	0.635
506.83	0.634
507.03	0.637
507.23	0.638
507.43	0.635
507.63	0.636
507.83	0.636
508.03	0.636
508.23	0.635
508.43	0.633
508.63	0.635
508.83	0.635
509.03	0.636
509.23	0.635
509.43	0.636
509.63	0.636
509.83	0.635
510.03	0.637
510.23	0.640
510.43	0.641
510.63	0.641
510.83	0.641
511.03	0.643
511.23	0.640
511.43	0.639
511.63	0.641
511.83	0.644
512.03	0.644
512.22	0.640
512.42	0.639
512.62	0.641
512.82	0.641
513.02	0.640
513.22	0.640
513.42	0.642
513.62	0.645
513.82	0.643
514.02	0.642
514.22	0.644
514.42	0.644
514.62	0.643
514.82	0.644
515.02	0.646
515.22	0.649
515.42	0.648
515.62	0.650
515.82	0.649
516.02	0.650
516.22	0.650
516.42	0.650
516.62	0.653
516.82	0.654
517.01	0.652
517.21	0.651
517.41	0.655
517.61	0.655
517.81	0.651
518.01	0.651
518.21	0.650
518.41	0.649
518.61	0.648
518.81	0.648
519.01	0.649
519.21	0.649
519.41	0.647
519.61	0.642
519.81	0.645
520.00	0.645
520.20	0.646
520.40	0.649
520.60	0.650
520.80	0.649
521.00	0.649
521.20	0.650
521.40	0.656
521.60	0.656
521.80	0.655
522.00	0.655
522.20	0.659
522.39	0.657
522.59	0.653
522.79	0.655
522.99	0.658
523.19	0.657
523.39	0.654
523.59	0.652
523.79	0.654
523.99	0.657
524.19	0.655
524.38	0.653
524.58	0.655
524.78	0.656
524.98	0.655
525.18	0.656
525.38	0.658
525.58	0.658
525.78	0.655
525.98	0.654
526.18	0.655
526.37	0.654
526.57	0.656
526.77	0.656
526.97	0.657
527.17	0.657
527.37	0.653
527.57	0.656
527.77	0.658
527.96	0.658
528.16	0.657
528.36	0.658
528.56	0.661
528.76	0.658
528.96	0.657
529.16	0.658
529.36	0.661
529.55	0.661
529.75	0.658
529.95	0.658
530.15	0.660
530.35	0.662
530.55	0.659
530.75	0.660
530.94	0.661
531.14	0.662
531.34	0.660
531.54	0.658
531.74	0.661
531.94	0.665
532.13	0.662
532.33	0.664
532.53	0.663
532.73	0.663
532.93	0.661
533.13	0.662
533.33	0.662
533.52	0.663
533.72	0.666
533.92	0.664
534.12	0.662
534.32	0.663
534.52	0.661
534.71	0.662
534.91	0.665
535.11	0.667
535.31	0.664
535.51	0.666
535.71	0.668
535.90	0.665
536.10	0.666
536.30	0.668
536.50	0.669
536.70	0.669
536.89	0.667
537.09	0.666
537.29	0.669
537.49	0.669
537.69	0.667
537.89	0.668
538.08	0.668
538.28	0.666
538.48	0.665
538.68	0.667
538.88	0.668
539.07	0.668
539.27	0.666
539.47	0.665
539.67	0.665
539.87	0.667
540.06	0.664
540.26	0.665
540.46	0.667
540.66	0.665
540.86	0.663
541.05	0.663
541.25	0.666
541.45	0.666
541.65	0.664
541.84	0.666
542.04	0.666
542.24	0.667
542.44	0.666
542.64	0.666
542.83	0.669
543.03	0.669
543.23	0.666
543.43	0.666
543.62	0.668
543.82	0.669
544.02	0.667
544.22	0.668
544.42	0.671
544.61	0.672
544.81	0.669
545.01	0.668
545.21	0.671
545.40	0.671
545.60	0.669
545.80	0.672
546.00	0.672
546.19	0.671
546.39	0.670
546.59	0.667
546.79	0.669
546.98	0.669
547.18	0.669
547.38	0.670
547.58	0.672
547.77	0.672
547.97	0.668
548.17	0.670
548.37	0.671
548.56	0.671
548.76	0.671
548.96	0.672
549.16	0.675
549.35	0.675
549.55	0.672
549.75	0.673
549.95	0.677
550.14	0.677
550.34	0.675
550.54	0.680
550.73	0.684
550.93	0.685
551.13	0.682
551.33	0.681
551.52	0.682
551.72	0.683
551.92	0.680
552.12	0.680
552.31	0.681
552.51	0.681
552.71	0.676
552.90	0.676
553.10	0.677
553.30	0.677
553.50	0.676
553.69	0.677
553.89	0.678
554.09	0.678
554.28	0.675
554.48	0.677
554.68	0.679
554.87	0.679
555.07	0.675
555.27	0.675
555.47	0.678
555.66	0.678
555.86	0.676
556.06	0.679
556.25	0.680
556.45	0.688
556.65	0.685
556.84	0.688
557.04	0.691
557.24	0.693
557.43	0.692
557.63	0.695
557.83	0.696
558.02	0.697
558.22	0.701
558.42	0.701
558.61	0.694
558.81	0.694
559.01	0.690
559.21	0.690
559.40	0.691
559.60	0.691
559.80	0.687
559.99	0.688
560.19	0.690
560.39	0.684
560.58	0.682
560.78	0.683
560.97	0.687
561.17	0.685
561.37	0.682
561.56	0.683
561.76	0.685
561.96	0.685
562.15	0.682
562.35	0.684
562.55	0.686
562.74	0.686
562.94	0.684
563.14	0.681
563.33	0.683
563.53	0.683
563.73	0.680
563.92	0.681
564.12	0.685
564.31	0.687
564.51	0.684
564.71	0.686
564.90	0.689
565.10	0.690
565.30	0.693
565.49	0.695
565.69	0.697
565.89	0.698
566.08	0.694
566.28	0.696
566.47	0.697
566.67	0.696
566.87	0.692
567.06	0.693
567.26	0.699
567.46	0.695
567.65	0.694
567.85	0.696
568.04	0.698
568.24	0.697
568.44	0.693
568.63	0.692
568.83	0.694
569.02	0.693
569.22	0.689
569.42	0.685
569.61	0.688
569.81	0.686
570.00	0.684
570.20	0.685
570.40	0.687
570.59	0.687
570.79	0.685
570.98	0.683
571.18	0.684
571.38	0.684
571.57	0.680
571.77	0.678
571.96	0.683
572.16	0.680
572.35	0.674
572.55	0.675
572.75	0.673
572.94	0.673
573.14	0.671
573.33	0.672
573.53	0.672
573.73	0.672
573.92	0.670
574.12	0.667
574.31	0.670
574.51	0.671
574.70	0.667
574.90	0.669
575.09	0.671
575.29	0.672
575.49	0.668
575.68	0.669
575.88	0.670
576.07	0.672
576.27	0.669
576.46	0.668
576.66	0.668
576.86	0.667
577.05	0.665
577.25	0.663
577.44	0.665
577.64	0.665
577.83	0.663
578.03	0.664
578.22	0.664
578.42	0.662
578.61	0.661
578.81	0.662
579.00	0.662
579.20	0.662
579.40	0.661
579.59	0.660
579.79	0.660
579.98	0.659
580.18	0.659
580.37	0.659
580.57	0.662
580.76	0.666
580.96	0.664
581.15	0.665
581.35	0.667
581.54	0.667
581.74	0.666
581.93	0.667
582.13	0.669
582.32	0.666
582.52	0.664
582.71	0.664
582.91	0.660
583.10	0.660
583.30	0.659
583.49	0.658
583.69	0.662
583.88	0.663
584.08	0.662
584.27	0.664
584.47	0.668
584.66	0.668
584.86	0.667
585.05	0.668
585.25	0.671
585.44	0.671
585.64	0.669
585.83	0.666
586.03	0.667
586.22	0.666
586.42	0.662
586.61	0.663
586.81	0.666
587.00	0.666
587.20	0.663
587.39	0.664
587.59	0.666
587.78	0.667
587.98	0.668
588.17	0.669
588.37	0.672
588.56	0.674
588.76	0.669
588.95	0.669
589.15	0.674
589.34	0.677
589.54	0.674
589.73	0.675
589.92	0.678
590.12	0.677
590.31	0.674
590.51	0.679
590.70	0.681
590.90	0.681
591.09	0.679
591.29	0.677
591.48	0.678
591.68	0.679
591.87	0.677
592.06	0.677
592.26	0.680
592.45	0.679
592.65	0.673
592.84	0.673
593.04	0.676
593.23	0.678
593.43	0.675
593.62	0.674
593.81	0.675
594.01	0.675
594.20	0.672
594.40	0.671
594.59	0.673
594.79	0.675
594.98	0.673
595.17	0.672
595.37	0.673
595.56	0.676
595.76	0.674
595.95	0.675
596.14	0.678
596.34	0.680
596.53	0.678
596.73	0.679
596.92	0.680
597.12	0.682
597.31	0.682
597.50	0.681
597.70	0.683
597.89	0.682
598.09	0.679
598.28	0.680
598.47	0.683
598.67	0.681
598.86	0.678
599.06	0.679
599.25	0.680
599.44	0.679
599.64	0.676
599.83	0.675
600.03	0.678
600.22	0.679
600.41	0.678
600.61	0.676
600.80	0.679
601.00	0.680
601.19	0.675
601.38	0.674
601.58	0.677
601.77	0.678
601.96	0.679
602.16	0.680
602.35	0.689
602.55	0.686
602.74	0.686
602.93	0.688
603.13	0.693
603.32	0.694
603.51	0.692
603.71	0.695
603.90	0.698
604.09	0.698
604.29	0.695
604.48	0.689
604.68	0.691
604.87	0.689
605.06	0.686
605.26	0.682
605.45	0.684
605.64	0.683
605.84	0.679
606.03	0.678
606.22	0.677
606.42	0.677
606.61	0.673
606.80	0.673
607.00	0.676
607.19	0.676
607.38	0.674
607.58	0.676
607.77	0.678
607.96	0.678
608.16	0.677
608.35	0.681
608.54	0.684
608.74	0.687
608.93	0.692
609.12	0.694
609.32	0.697
609.51	0.700
609.70	0.699
609.90	0.701
610.09	0.706
610.28	0.711
610.48	0.705
610.67	0.706
610.86	0.708
611.06	0.702
611.25	0.699
611.44	0.700
611.64	0.700
611.83	0.703
612.02	0.699
612.21	0.697
612.41	0.696
612.60	0.695
612.79	0.691
612.99	0.691
613.18	0.694
613.37	0.691
613.57	0.688
613.76	0.690
613.95	0.687
614.14	0.687
614.34	0.684
614.53	0.685
614.72	0.689
614.92	0.688
615.11	0.685
615.30	0.682
615.49	0.685
615.69	0.688
615.88	0.684
616.07	0.685
616.26	0.688
616.46	0.689
616.65	0.685
616.84	0.684
617.04	0.686
617.23	0.691
617.42	0.691
617.61	0.695
617.81	0.696
618.00	0.697
618.19	0.696
618.38	0.700
618.58	0.705
618.77	0.705
618.96	0.704
619.15	0.706
619.35	0.707
619.54	0.708
619.73	0.702
619.92	0.704
620.12	0.709
620.31	0.709
620.50	0.703
620.69	0.703
620.89	0.707
621.08	0.707
621.27	0.707
621.46	0.706
621.66	0.711
621.85	0.710
622.04	0.706
622.23	0.707
622.43	0.708
622.62	0.708
622.81	0.707
623.00	0.706
623.19	0.710
623.39	0.709
623.58	0.706
623.77	0.705
623.96	0.708
624.16	0.709
624.35	0.703
624.54	0.706
624.73	0.710
624.92	0.708
625.12	0.706
625.31	0.707
625.50	0.710
625.69	0.710
625.88	0.705
626.08	0.704
626.27	0.706
626.46	0.707
626.65	0.704
626.84	0.704
627.04	0.710
627.23	0.710
627.42	0.705
627.61	0.708
627.80	0.712
628.00	0.713
628.19	0.711
628.38	0.715
628.57	0.718
628.76	0.717
628.96	0.714
629.15	0.715
629.34	0.719
629.53	0.719
629.72	0.713
629.91	0.713
630.11	0.719
630.30	0.719
630.49	0.720
630.68	0.720
630.87	0.724
631.06	0.725
631.26	0.719
631.45	0.721
631.64	0.729
631.83	0.732
632.02	0.729
632.21	0.728
632.41	0.736
632.60	0.730
632.79	0.728
632.98	0.729
633.17	0.731
633.36	0.734
633.55	0.730
633.75	0.726
633.94	0.729
634.13	0.729
634.32	0.726
634.51	0.719
634.70	0.723
634.89	0.722
635.09	0.718
635.28	0.719
635.47	0.720
635.66	0.723
635.85	0.718
636.04	0.719
636.23	0.725
636.43	0.726
636.62	0.725
636.81	0.723
637.00	0.727
637.19	0.731
637.38	0.727
637.57	0.727
637.76	0.729
637.95	0.730
638.15	0.725
638.34	0.721
638.53	0.726
638.72	0.728
638.91	0.724
639.10	0.721
639.29	0.722
639.48	0.722
639.67	0.722
639.87	0.719
640.06	0.726
640.25	0.726
640.44	0.726
640.63	0.725
640.82	0.728
641.01	0.728
641.20	0.726
641.39	0.728
641.58	0.730
641.78	0.729
641.97	0.726
642.16	0.740
642.35	0.741
642.54	0.740
642.73	0.734
642.92	0.732
643.11	0.737
643.30	0.737
643.49	0.730
643.68	0.734
643.87	0.736
644.06	0.737
644.25	0.715
644.45	0.718
644.64	0.720
644.83	0.720
645.02	0.717
645.21	0.717
645.40	0.720
645.59	0.720
645.78	0.712
645.97	0.714
646.16	0.716
646.35	0.715
646.54	0.712
646.73	0.713
646.92	0.715
647.11	0.714
647.30	0.709
647.49	0.710
647.68	0.710
647.88	0.709
648.07	0.701
648.26	0.705
648.45	0.707
648.64	0.703
648.83	0.700
649.02	0.703
649.21	0.714
649.40	0.714
649.59	0.707
649.78	0.708
649.97	0.723
650.16	0.723
650.35	0.716
650.54	0.718
650.73	0.727
650.92	0.724
651.11	0.716
651.30	0.713
651.49	0.719
651.68	0.720
651.87	0.716
652.06	0.705
652.25	0.709
652.44	0.711
652.63	0.707
652.82	0.706
653.01	0.705
653.20	0.703
653.39	0.690
653.58	0.687
653.77	0.687
653.96	0.682
654.15	0.674
654.34	0.672
654.53	0.668
654.72	0.662
654.91	0.653
655.10	0.649
655.29	0.648
655.48	0.646
655.67	0.641
655.86	0.639
656.05	0.637
656.24	0.637
656.43	0.632
656.62	0.632
656.81	0.632
657.00	0.630
657.19	0.628
657.38	0.628
657.57	0.628
657.76	0.631
657.95	0.629
658.14	0.632
658.33	0.635
658.51	0.641
658.70	0.641
658.89	0.643
659.08	0.652
659.27	0.659
659.46	0.659
659.65	0.665
659.84	0.669
660.03	0.672
660.22	0.673
660.41	0.677
660.60	0.676
660.79	0.677
660.98	0.682
661.17	0.682
661.36	0.682
661.55	0.682
661.74	0.680
661.92	0.683
662.11	0.687
662.30	0.685
662.49	0.678
662.68	0.678
662.87	0.682
663.06	0.677
663.25	0.676
663.44	0.677
663.63	0.678
663.82	0.676
664.01	0.670
664.20	0.669
664.38	0.670
664.57	0.670
664.76	0.669
664.95	0.670
665.14	0.675
665.33	0.670
665.52	0.677
665.71	0.681
665.90	0.681
666.09	0.683
666.28	0.680
666.46	0.680
666.65	0.681
666.84	0.679
667.03	0.673
667.22	0.670
667.41	0.673
667.60	0.662
667.79	0.655
667.98	0.656
668.16	0.657
668.35	0.657
668.54	0.652
668.73	0.654
668.92	0.655
669.11	0.654
669.30	0.649
669.49	0.645
669.67	0.648
669.86	0.650
670.05	0.647
670.24	0.645
670.43	0.643
670.62	0.641
670.81	0.635
671.00	0.637
671.18	0.637
671.37	0.636
671.56	0.633
671.75	0.632
671.94	0.629
672.13	0.628
672.32	0.623
672.50	0.622
672.69	0.623
672.88	0.625
673.07	0.619
673.26	0.622
673.45	0.623
673.63	0.623
673.82	0.620
674.01	0.621
674.20	0.621
674.39	0.621
674.58	0.620
674.76	0.619
674.95	0.617
675.14	0.617
675.33	0.612
675.52	0.611
675.71	0.610
675.89	0.610
676.08	0.606
676.27	0.606
676.46	0.607
676.65	0.606
676.84	0.605
677.02	0.607
677.21	0.609
677.40	0.608
677.59	0.605
677.78	0.606
677.96	0.609
678.15	0.608
678.34	0.606
678.53	0.607
678.72	0.607
678.90	0.604
679.09	0.599
679.28	0.596
679.47	0.596
679.66	0.596
679.84	0.592
680.03	0.589
680.22	0.588
680.41	0.590
680.60	0.586
680.78	0.586
680.97	0.588
681.16	0.589
681.35	0.588
681.53	0.587
681.72	0.588
681.91	0.590
682.10	0.588
682.29	0.591
682.47	0.589
682.66	0.589
682.85	0.586
683.04	0.584
683.22	0.584
683.41	0.586
683.60	0.585
683.79	0.585
683.97	0.585
684.16	0.583
684.35	0.579
684.54	0.580
684.72	0.580
684.91	0.582
685.10	0.579
685.29	0.581
685.47	0.578
685.66	0.577
685.85	0.573
686.04	0.572
686.22	0.574
686.41	0.577
686.60	0.574
686.79	0.577
686.97	0.578
687.16	0.580
687.35	0.577
687.54	0.581
687.72	0.585
687.91	0.585
688.10	0.587
688.29	0.587
688.47	0.585
688.66	0.584
688.85	0.580
689.03	0.577
689.22	0.582
689.41	0.583
689.60	0.578
689.78	0.575
689.97	0.576
690.16	0.574
690.34	0.570
690.53	0.569
690.72	0.571
690.91	0.569
691.09	0.567
691.28	0.560
691.47	0.559
691.65	0.558
691.84	0.554
692.03	0.554
692.21	0.552
692.40	0.551
692.59	0.549
692.77	0.548
692.96	0.549
693.15	0.550
693.34	0.548
693.52	0.548
693.71	0.548
693.90	0.550
694.08	0.550
694.27	0.551
694.46	0.561
694.64	0.562
694.83	0.560
695.02	0.559
695.20	0.558
695.39	0.558
695.58	0.558
695.76	0.559
695.95	0.559
696.14	0.558
696.32	0.556
696.51	0.547
696.70	0.547
696.88	0.548
697.07	0.546
697.26	0.548
697.44	0.550
697.63	0.548
697.81	0.546
698.00	0.545
698.19	0.545
698.37	0.545
698.56	0.544
698.75	0.544
698.93	0.544
699.12	0.543
699.31	0.542
699.49	0.541
699.68	0.542
699.87	0.544
700.05	0.544
700.24	0.543
700.42	0.545
700.61	0.544
700.80	0.541
700.98	0.541
701.17	0.543
701.36	0.542
701.54	0.542
701.73	0.543
701.91	0.541
702.10	0.540
702.29	0.537
702.47	0.536
702.66	0.538
702.84	0.540
703.03	0.538
703.22	0.540
703.40	0.540
703.59	0.541
703.77	0.540
703.96	0.540
704.15	0.541
704.33	0.541
704.52	0.540
704.70	0.540
704.89	0.540
705.08	0.539
705.26	0.534
705.45	0.534
705.63	0.534
705.82	0.531
706.00	0.530
706.19	0.529
706.38	0.529
706.56	0.529
706.75	0.526
706.93	0.525
707.12	0.526
707.30	0.527
707.49	0.524
707.68	0.523
707.86	0.522
708.05	0.522
708.23	0.519
708.42	0.520
708.60	0.523
708.79	0.523
708.98	0.521
709.16	0.520
709.35	0.523
709.53	0.527
709.72	0.525
709.90	0.527
710.09	0.529
710.27	0.531
710.46	0.535
710.64	0.533
710.83	0.536
711.02	0.537
711.20	0.536
711.39	0.534
711.57	0.532
711.76	0.533
711.94	0.531
712.13	0.532
712.31	0.532
712.50	0.527
712.68	0.524
712.87	0.525
713.05	0.525
713.24	0.526
713.42	0.525
713.61	0.525
713.79	0.526
713.98	0.526
714.16	0.527
714.35	0.526
714.54	0.528
714.72	0.528
714.91	0.525
715.09	0.531
715.28	0.534
715.46	0.534
715.65	0.531
715.83	0.531
716.02	0.534
716.20	0.530
716.39	0.529
716.57	0.531
716.76	0.533
716.94	0.534
717.12	0.526
717.31	0.528
717.49	0.531
717.68	0.533
717.86	0.532
718.05	0.534
718.23	0.536
718.42	0.538
718.60	0.539
718.79	0.547
718.97	0.550
719.16	0.550
719.34	0.547
719.53	0.548
719.71	0.548
719.90	0.550
720.08	0.547
720.27	0.548
720.45	0.549
720.63	0.546
720.82	0.540
721.00	0.542
721.19	0.546
721.37	0.545
721.56	0.545
721.74	0.548
721.93	0.557
722.11	0.565
722.30	0.563
722.48	0.568
722.66	0.570
722.85	0.569
723.03	0.568
723.22	0.567
723.40	0.571
723.59	0.571
723.77	0.574
723.95	0.568
724.14	0.569
724.32	0.571
724.51	0.570
724.69	0.572
724.88	0.573
725.06	0.572
725.24	0.572
725.43	0.572
725.61	0.575
725.80	0.569
725.98	0.565
726.16	0.561
726.35	0.567
726.53	0.566
726.72	0.564
726.90	0.575
727.09	0.578
727.27	0.584
727.45	0.580
727.64	0.591
727.82	0.600
728.01	0.605
728.19	0.601
728.37	0.607
728.56	0.612
728.74	0.619
728.92	0.606
729.11	0.609
729.29	0.609
729.48	0.612
729.66	0.600
729.84	0.600
730.03	0.606
730.21	0.609
730.40	0.598
730.58	0.598
730.76	0.600
730.95	0.602
731.13	0.601
731.31	0.614
731.50	0.624
731.68	0.629
731.86	0.625
732.05	0.639
732.23	0.643
732.42	0.647
732.60	0.651
732.78	0.656
732.97	0.677
733.15	0.685
733.33	0.671
733.52	0.680
733.70	0.691
733.88	0.699
734.07	0.684
734.25	0.712
734.43	0.722
734.62	0.723
734.80	0.717
734.98	0.706
735.17	0.713
735.35	0.721
735.53	0.706
735.72	0.710
735.90	0.737
736.08	0.758
736.27	0.731
736.45	0.743
736.63	0.761
736.82	0.770
737.00	0.769
737.18	0.782
737.37	0.821
737.55	0.848
737.73	0.841
737.92	0.840
738.10	0.838
738.28	0.861
738.46	0.844
738.65	0.858
738.83	0.884
739.01	0.950
739.20	0.935
739.38	0.910
739.56	0.905
739.75	0.912
739.93	0.873
740.11	0.904
740.29	0.907
740.48	0.917
740.66	0.895
740.84	0.891
741.03	0.854
741.21	0.868
741.39	0.849
741.57	0.860
741.76	0.876
741.94	0.885
742.12	0.841
742.31	0.847
742.49	0.870
742.67	0.897
742.85	0.907
743.04	0.907
743.22	0.919
743.40	0.978
743.58	0.959
743.77	0.984
743.95	1.032
744.13	1.097
744.31	1.073
744.50	1.069
744.68	1.072
744.86	1.043
745.04	1.055
745.23	1.144
745.41	1.124
745.59	1.127
745.77	1.074
745.96	1.052
746.14	1.066
746.32	1.064
746.50	1.047
746.69	1.019
746.87	1.029
747.05	1.011
747.23	0.921
747.42	0.906
747.60	0.942
747.78	0.955
747.96	0.986
748.14	0.931
748.33	0.966
748.51	0.959
748.69	0.951
748.87	0.985
749.06	0.984
749.24	0.984
749.42	0.964
749.60	0.946
749.78	0.959
749.97	0.906
750.15	0.896
750.33	0.894
750.51	0.930
750.69	0.935
750.88	0.940
751.06	0.957
751.24	0.987
751.42	0.975
751.60	0.960
751.79	1.045
751.97	1.116
752.15	1.121
752.33	1.075
752.51	1.154
752.69	1.191
752.88	1.143
753.06	1.196
753.24	1.168
753.42	1.219
753.60	1.487
753.78	1.245
753.97	1.263
754.15	1.303
754.33	1.357
754.51	1.167
754.69	1.142
754.87	1.198
755.06	1.092
755.24	1.087
755.42	1.097
755.60	0.977
755.78	0.984
755.96	0.916
756.15	0.916
756.33	0.925
756.51	0.945
756.69	0.924
756.87	0.882
757.05	0.910
757.23	0.891
757.42	0.853
757.60	0.850
757.78	0.838
757.96	0.836
758.14	0.815
758.32	0.796
758.50	0.812
758.69	0.811
758.87	0.801
759.05	0.802
759.23	0.816
759.41	0.819
759.59	0.808
759.77	0.835
759.95	0.869
760.13	0.925
760.32	0.924
760.50	0.915
760.68	0.946
760.86	0.946
761.04	0.914
761.22	0.916
761.40	0.970
761.58	0.972
761.76	0.934
761.95	0.914
762.13	0.863
762.31	0.863
762.49	0.830
762.67	0.849
762.85	0.869
763.03	0.861
763.21	0.837
763.39	0.817
763.57	0.823
763.75	0.816
763.94	0.799
764.12	0.799
764.30	0.825
764.48	0.829
764.66	0.787
764.84	0.783
765.02	0.830
765.20	0.838
765.38	0.814
765.56	0.821
765.74	0.870
765.92	0.870
766.10	0.880
766.28	0.874
766.46	0.911
766.65	0.913
766.83	0.896
767.01	0.874
767.19	0.884
767.37	0.884
767.55	0.866
767.73	0.843
767.91	0.852
768.09	0.839
768.27	0.826
768.45	0.811
768.63	0.817
768.81	0.819
768.99	0.788
769.17	0.816
769.35	0.833
769.53	0.830
769.71	0.806
769.89	0.814
770.07	0.824
770.25	0.804
770.43	0.780
770.61	0.809
770.79	0.819
770.97	0.832
771.15	0.795
771.33	0.798
771.51	0.801
771.69	0.814
771.87	0.819
772.05	0.824
772.24	0.835
772.42	0.845
772.60	0.816
772.78	0.879
772.96	0.912
773.14	0.904
773.32	0.876
773.49	0.886
773.67	0.886
773.85	0.861
774.03	0.847
774.21	0.882
774.39	0.899
774.57	0.927
774.75	0.845
774.93	0.844
775.11	0.873
775.29	0.883
775.47	0.883
775.65	0.899
775.83	0.926
776.01	0.952
776.19	0.890
776.37	0.891
776.55	0.890
776.73	0.885
776.91	0.875
777.09	0.857
777.27	0.857
777.45	0.842
777.63	0.814
777.81	0.807
777.99	0.793
778.17	0.797
778.35	0.771
778.53	0.759
778.71	0.767
778.89	0.753
779.07	0.740
779.24	0.747
779.42	0.748
779.60	0.766
779.78	0.759
779.96	0.766
780.14	0.777
780.32	0.802
780.50	0.781
780.68	0.782
780.86	0.775
781.04	0.795
781.22	0.798
781.40	0.813
781.58	0.807
781.75	0.800
781.93	0.777
782.11	0.774
782.29	0.758
782.47	0.758
782.65	0.739
782.83	0.770
783.01	0.765
783.19	0.757
783.37	0.738
783.55	0.739
783.72	0.759
783.90	0.771
784.08	0.761
784.26	0.776
784.44	0.799
784.62	0.804
784.80	0.764
784.98	0.769
785.16	0.777
785.33	0.796
785.51	0.778
785.69	0.764
785.87	0.767
786.05	0.779
786.23	0.768
786.41	0.765
786.59	0.777
786.77	0.778
786.94	0.761
787.12	0.763
787.30	0.764
787.48	0.760
787.66	0.747
787.84	0.748
788.02	0.740
788.19	0.738
788.37	0.720
788.55	0.719
788.73	0.718
788.91	0.713
789.09	0.695
789.27	0.684
789.44	0.697
789.62	0.702
789.80	0.708
789.98	0.737
790.16	0.726
790.34	0.724
790.51	0.709
790.69	0.732
790.87	0.741
791.05	0.737
791.23	0.728
791.41	0.732
791.58	0.742
791.76	0.719
791.94	0.681
792.12	0.691
792.30	0.692
792.48	0.688
792.65	0.680
792.83	0.687
793.01	0.697
793.19	0.696
793.37	0.677
793.54	0.672
793.72	0.685
793.90	0.685
794.08	0.673
794.26	0.677
794.43	0.690
794.61	0.672
794.79	0.656
794.97	0.655
795.15	0.661
795.32	0.668
795.50	0.657
795.68	0.652
795.86	0.660
796.04	0.659
796.21	0.651
796.39	0.648
796.57	0.665
796.75	0.675
796.92	0.675
797.10	0.680
797.28	0.681
797.46	0.683
797.64	0.681
797.81	0.687
797.99	0.694
798.17	0.699
798.35	0.692
798.52	0.696
798.70	0.693
798.88	0.701
799.06	0.700
799.23	0.704
799.41	0.717
799.59	0.708
799.77	0.695
799.94	0.706
800.12	0.715
800.30	0.735
800.48	0.732
800.65	0.733
800.83	0.723
801.01	0.714
801.19	0.711
801.36	0.707
801.54	0.714
801.72	0.725
801.90	0.707
802.07	0.702
802.25	0.686
802.43	0.668
802.60	0.662
802.78	0.670
802.96	0.676
803.14	0.670
803.31	0.667
803.49	0.668
803.67	0.665
803.84	0.669
804.02	0.659
804.20	0.660
804.38	0.668
804.55	0.668
804.73	0.651
804.91	0.651
805.08	0.664
805.26	0.660
805.44	0.719
805.61	0.723
805.79	0.726
805.97	0.727
806.15	0.718
806.32	0.711
806.50	0.718
806.68	0.719
806.85	0.710
807.03	0.701
807.21	0.719
807.38	0.653
807.56	0.642
807.74	0.652
807.91	0.660
808.09	0.663
808.27	0.683
808.44	0.712
808.62	0.725
808.80	0.726
808.97	0.719
809.15	0.714
809.33	0.735
809.50	0.741
809.68	0.723
809.86	0.731
810.03	0.770
810.21	0.749
810.39	0.727
810.56	0.733
810.74	0.763
810.91	0.844
811.09	0.828
811.27	0.855
811.44	0.864
811.62	0.867
811.80	0.845
811.97	0.807
812.15	0.807
812.33	0.799
812.50	0.778
812.68	0.763
812.85	0.704
813.03	0.705
813.21	0.670
813.38	0.663
813.56	0.670
813.74	0.681
813.91	0.688
814.09	0.721
814.26	0.719
814.44	0.724
814.62	0.711
814.79	0.716
814.97	0.725
815.14	0.727
815.32	0.729
815.50	0.745
815.67	0.750
815.85	0.740
816.02	0.726
816.20	0.734
816.38	0.752
816.55	0.763
816.73	0.761
816.90	0.773
817.08	0.811
817.26	0.816
817.43	0.790
817.61	0.817
817.78	0.846
817.96	0.822
818.13	0.805
818.31	0.808
818.49	0.823
818.66	0.811
818.84	0.792
819.01	0.770
819.19	0.780
819.36	0.783
819.54	0.749
819.71	0.795
819.89	0.814
820.07	0.826
820.24	0.813
820.42	0.815
820.59	0.839
820.77	0.864
820.94	0.851
821.12	0.878
821.29	0.900
821.47	0.901
821.64	0.825
821.82	0.840
822.00	0.843
822.17	0.846
822.35	0.837
822.52	0.838
822.70	0.826
822.87	0.839
823.05	0.808
823.22	0.822
823.40	0.859
823.57	0.888
823.75	0.865
823.92	0.895
824.10	0.921
824.27	0.972
824.45	0.965
824.62	1.061
824.80	1.094
824.97	1.123
825.15	1.108
825.32	1.127
825.50	1.135
825.67	1.144
825.85	1.111
826.02	1.144
826.20	1.193
826.37	1.424
826.55	1.259
826.72	1.715
826.90	2.087
827.07	2.814
827.25	2.080
827.42	-0.000
827.60	-0.000
827.77	-0.000
827.95	-0.000
828.12	-0.000
828.30	-0.000
828.47	-0.000
828.65	2.241
828.82	-0.000
829.00	-0.000
829.17	-0.000
829.34	-0.000
829.52	-0.000
829.69	-0.000
829.87	-0.000
830.04	-0.000
830.22	-0.000
830.39	-0.000
830.57	-0.000
830.74	-0.000
830.92	-0.000
831.09	-0.000
831.26	-0.000
831.44	-0.000
831.61	-0.000
831.79	-0.000
831.96	-0.000
832.14	-0.000
832.31	-0.000
832.49	-0.000
832.66	-0.000
832.83	-0.000
833.01	-0.000
833.18	-0.000
833.36	-0.000
833.53	-0.000
833.70	-0.000
833.88	-0.000
834.05	-0.000
834.23	-0.000
834.40	-0.000
834.58	-0.000
834.75	-0.000
834.92	-0.000
835.10	-0.000
835.27	-0.000
835.45	-0.000
835.62	-0.000
835.79	-0.000
835.97	-0.000
836.14	-0.000
836.32	-0.000
836.49	-0.000
836.66	-0.000
836.84	-0.000
837.01	-0.000
837.18	-0.000
837.36	-0.000
837.53	-0.000
837.71	-0.000
837.88	-0.000
838.05	-0.000
838.23	-0.000
838.40	-0.000
838.58	-0.000
838.75	-0.000
838.92	-0.000
839.10	-0.000
839.27	-0.000
839.44	-0.000
839.62	-0.000
839.79	-0.000
839.96	-0.000
840.14	-0.000
840.31	-0.000
840.48	-0.000
840.66	-0.000
840.83	-0.000
841.01	-0.000
841.18	-0.000
841.35	-0.000
841.53	-0.000
841.70	-0.000
841.87	-0.000
842.05	-0.000
842.22	-0.000
842.39	-0.000
842.57	-0.000
842.74	-0.000
842.91	-0.000
843.09	-0.000
843.26	-0.000
843.43	-0.000
843.60	-0.000
843.78	-0.000
843.95	-0.000
844.12	-0.000
844.30	-0.000
844.47	-0.000
844.64	-0.000
844.82	-0.000
844.99	-0.000
845.16	-0.000
845.34	-0.000
845.51	-0.000
845.68	-0.000
845.85	-0.000
846.03	-0.000
846.20	-0.000
846.37	-0.000
846.55	-0.000
846.72	-0.000
846.89	-0.000
847.06	-0.000
847.24	-0.000
847.41	-0.000
847.58	-0.000
847.76	-0.000
847.93	-0.000
848.10	-0.000
848.27	-0.000
848.45	-0.000
848.62	-0.000
848.79	-0.000
848.97	-0.000
849.14	-0.000
849.31	-0.000
849.48	-0.000
849.66	-0.000
849.83	-0.000
850.00	-0.000
850.17	-0.000
850.35	-0.000
850.52	-0.000
850.69	-0.000
850.86	-0.000
851.04	-0.000
851.21	-0.000
851.38	-0.000
851.55	-0.000
851.72	-0.000
851.90	-0.000
852.07	-0.000
852.24	-0.000
852.41	-0.000
852.59	-0.000
852.76	-0.000
852.93	-0.000
853.10	-0.000
853.28	-0.000
853.45	-0.000
853.62	-0.000
853.79	-0.000
853.96	-0.000
854.14	-0.000
854.31	-0.000
854.48	-0.000
854.65	-0.000
854.82	-0.000
855.00	-0.000
855.17	-0.000
855.34	-0.000
855.51	-0.000
855.68	-0.000
855.86	-0.000
856.03	-0.000
856.20	-0.000
856.37	-0.000
856.54	-0.000
856.72	-0.000
856.89	-0.000
857.06	-0.000
857.23	-0.000
857.40	-0.000
857.57	-0.000
857.75	-0.000
857.92	-0.000
858.09	-0.000
858.26	-0.000
858.43	-0.000
858.60	-0.000
858.78	-0.000
858.95	-0.000
859.12	-0.000
859.29	-0.000
859.46	-0.000
859.63	-0.000
859.81	-0.000
859.98	-0.000
860.15	-0.000
860.32	-0.000
860.49	-0.000
860.66	-0.000
860.83	-0.000
861.01	-0.000
861.18	-0.000
861.35	-0.000
861.52	-0.000
861.69	-0.000
861.86	-0.000
862.03	-0.000
862.21	-0.000
862.38	-0.000
862.55	-0.000
862.72	-0.000
862.89	-0.000
863.06	-0.000
863.23	-0.000
863.40	-0.000
863.58	-0.000
863.75	-0.000
863.92	-0.000
864.09	-0.000
864.26	-0.000
864.43	-0.000
864.60	-0.000
864.77	-0.000
864.94	-0.000
865.11	-0.000
865.29	-0.000
865.46	-0.000
865.63	-0.000
865.80	-0.000
865.97	-0.000
866.14	-0.000
866.31	-0.000
866.48	-0.000
866.65	-0.000
866.82	-0.000
866.99	-0.000
867.16	-0.000
867.34	-0.000
867.51	-0.000
867.68	-0.000
867.85	-0.000
868.02	-0.000
868.19	-0.000
868.36	-0.000
868.53	-0.000
868.70	-0.000
868.87	-0.000
869.04	-0.000
869.21	-0.000
869.38	-0.000
869.55	-0.000
869.72	-0.000
869.89	-0.000
870.06	-0.000
870.24	-0.000
870.41	-0.000
870.58	-0.000
870.75	-0.000
870.92	-0.000
871.09	-0.000
871.26	-0.000
871.43	-0.000
871.60	-0.000
871.77	-0.000
871.94	-0.000
872.11	-0.000
872.28	-0.000
872.45	-0.000
872.62	-0.000
872.79	-0.000
872.96	-0.000
873.13	-0.000
873.30	-0.000
873.47	-0.000
873.64	-0.000
873.81	-0.000
873.98	-0.000
874.15	-0.000
874.32	-0.000
874.49	-0.000
874.66	-0.000
874.83	-0.000
875.00	-0.000
875.17	-0.000
875.34	-0.000
875.51	-0.000
875.68	-0.000
875.85	-0.000
876.02	-0.000
876.19	-0.000
876.36	-0.000
876.53	-0.000
876.70	-0.000
876.87	-0.000
877.04	-0.000
877.21	-0.000
877.38	-0.000
877.55	-0.000
877.72	-0.000
877.89	-0.000
878.06	-0.000
878.23	-0.000
878.39	-0.000
878.56	-0.000
878.73	-0.000
878.90	-0.000
879.07	-0.000
879.24	-0.000
879.41	-0.000
879.58	-0.000
879.75	-0.000
879.92	-0.000
880.09	-0.000
880.26	-0.000
880.43	-0.000
880.60	-0.000
880.77	-0.000
880.94	-0.000
881.11	-0.000
881.27	-0.000
881.44	-0.000
881.61	-0.000
881.78	-0.000
881.95	-0.000
882.12	-0.000
882.29	-0.000
882.46	-0.000
882.63	-0.000
882.80	-0.000
882.97	-0.000
883.14	-0.000
883.30	-0.000
883.47	-0.000
883.64	-0.000
883.81	-0.000
883.98	-0.000
884.15	-0.000
884.32	-0.000
884.49	-0.000
884.66	-0.000
884.82	-0.000
884.99	-0.000
885.16	-0.000
885.33	-0.000
885.50	-0.000
885.67	-0.000
885.84	-0.000
886.01	-0.000
886.17	-0.000
886.34	-0.000
886.51	-0.000
886.68	-0.000
886.85	-0.000
887.02	-0.000
887.19	-0.000
887.36	-0.000
887.52	-0.000
887.69	-0.000
887.86	-0.000
888.03	-0.000
888.20	-0.000
888.37	-0.000
888.54	-0.000
888.70	-0.000
888.87	-0.000
889.04	-0.000
889.21	-0.000
889.38	-0.000
889.55	-0.000
889.71	-0.000
889.88	-0.000
890.05	-0.000
890.22	-0.000
890.39	-0.000
>>>>>End Processed Spectral Data<<<<<
