SpectraSuite Data File
++++++++++++++++++++++++++++++++++++
Date: Fri Jun 19 13:13:27 CEST 2015
User: introlabs
Dark Spectrum Present: Yes
Reference Spectrum Present: Yes
Number of Sampled Component Spectra: 1
Spectrometers: USB4H08886
Integration Time (usec): 745692 (USB4H08886)
Spectra Averaged: 5 (USB4H08886)
Boxcar Smoothing: 5 (USB4H08886)
Correct for Electrical Dark: Yes (USB4H08886)
Strobe/Lamp Enabled: No (USB4H08886)
Correct for Detector Non-linearity: Yes (USB4H08886)
Correct for Stray Light: Yes (USB4H08886)
Number of Pixels in Processed Spectrum: 3648
>>>>>Begin Processed Spectral Data<<<<<
178.14	-0.000
178.36	-0.000
178.57	-0.000
178.79	-0.000
179.01	-0.000
179.22	-0.000
179.44	-0.000
179.65	-0.000
179.87	-0.000
180.08	-0.000
180.30	-0.000
180.52	-0.000
180.73	-0.000
180.95	-0.000
181.16	-0.000
181.38	-0.000
181.59	-0.000
181.81	-0.000
182.03	-0.000
182.24	-0.000
182.46	-0.000
182.67	-0.000
182.89	-0.000
183.10	-0.000
183.32	-0.000
183.54	-0.000
183.75	-0.000
183.97	-0.000
184.18	-0.000
184.40	-0.000
184.61	-0.000
184.83	-0.000
185.04	-0.000
185.26	-0.000
185.48	-0.000
185.69	-0.000
185.91	-0.000
186.12	-0.000
186.34	-0.000
186.55	-0.000
186.77	-0.000
186.98	-0.000
187.20	-0.000
187.42	-0.000
187.63	-0.000
187.85	-0.000
188.06	-0.000
188.28	-0.000
188.49	-0.000
188.71	-0.000
188.92	-0.000
189.14	-0.000
189.36	-0.000
189.57	-0.000
189.79	-0.000
190.00	-0.000
190.22	-0.000
190.43	-0.000
190.65	-0.000
190.86	-0.000
191.08	-0.000
191.29	-0.000
191.51	-0.000
191.72	-0.000
191.94	-0.000
192.16	-0.000
192.37	-0.000
192.59	-0.000
192.80	-0.000
193.02	-0.000
193.23	-0.000
193.45	-0.000
193.66	-0.000
193.88	-0.000
194.09	-0.000
194.31	-0.000
194.52	-0.000
194.74	-0.000
194.95	-0.000
195.17	-0.000
195.38	-0.000
195.60	-0.000
195.81	-0.000
196.03	-0.000
196.25	-0.000
196.46	-0.000
196.68	-0.000
196.89	-0.000
197.11	-0.000
197.32	-0.000
197.54	-0.000
197.75	-0.000
197.97	-0.000
198.18	-0.000
198.40	-0.000
198.61	-0.000
198.83	-0.000
199.04	-0.000
199.26	-0.000
199.47	-0.000
199.69	-0.000
199.90	-0.000
200.12	-0.000
200.33	-0.000
200.55	-0.000
200.76	-0.000
200.98	-0.000
201.19	-0.000
201.41	-0.000
201.62	-0.000
201.84	-0.000
202.05	-0.000
202.27	-0.000
202.48	-0.000
202.70	-0.000
202.91	-0.000
203.13	-0.000
203.34	-0.000
203.56	-0.000
203.77	-0.000
203.99	-0.000
204.20	-0.000
204.42	-0.000
204.63	-0.000
204.85	-0.000
205.06	-0.000
205.28	-0.000
205.49	-0.000
205.71	-0.000
205.92	-0.000
206.14	-0.000
206.35	-0.000
206.56	-0.000
206.78	-0.000
206.99	-0.000
207.21	-0.000
207.42	-0.000
207.64	-0.000
207.85	-0.000
208.07	-0.000
208.28	-0.000
208.50	-0.000
208.71	-0.000
208.93	-0.000
209.14	-0.000
209.36	-0.000
209.57	-0.000
209.79	-0.000
210.00	-0.000
210.22	-0.000
210.43	-0.000
210.64	-0.000
210.86	-0.000
211.07	-0.000
211.29	-0.000
211.50	-0.000
211.72	-0.000
211.93	-0.000
212.15	-0.000
212.36	-0.000
212.58	-0.000
212.79	-0.000
213.01	-0.000
213.22	-0.000
213.43	-0.000
213.65	-0.000
213.86	-0.000
214.08	-0.000
214.29	-0.000
214.51	-0.000
214.72	-0.000
214.94	-0.000
215.15	-0.000
215.36	-0.000
215.58	-0.000
215.79	-0.000
216.01	-0.000
216.22	-0.000
216.44	-0.000
216.65	-0.000
216.87	-0.000
217.08	-0.000
217.29	-0.000
217.51	-0.000
217.72	-0.000
217.94	-0.000
218.15	-0.000
218.37	-0.000
218.58	-0.000
218.80	-0.000
219.01	-0.000
219.22	-0.000
219.44	-0.000
219.65	-0.000
219.87	-0.000
220.08	-0.000
220.30	-0.000
220.51	-0.000
220.72	-0.000
220.94	-0.000
221.15	-0.000
221.37	-0.000
221.58	-0.000
221.79	-0.000
222.01	-0.000
222.22	-0.000
222.44	-0.000
222.65	-0.000
222.87	-0.000
223.08	-0.000
223.29	-0.000
223.51	-0.000
223.72	-0.000
223.94	-0.000
224.15	-0.000
224.36	-0.000
224.58	-0.000
224.79	-0.000
225.01	-0.000
225.22	-0.000
225.44	-0.000
225.65	-0.000
225.86	-0.000
226.08	-0.000
226.29	-0.000
226.51	-0.000
226.72	-0.000
226.93	-0.000
227.15	-0.000
227.36	-0.000
227.58	-0.000
227.79	-0.000
228.00	-0.000
228.22	-0.000
228.43	-0.000
228.65	-0.000
228.86	-0.000
229.07	-0.000
229.29	-0.000
229.50	-0.000
229.72	-0.000
229.93	-0.000
230.14	-0.000
230.36	-0.000
230.57	-0.000
230.78	-0.000
231.00	-0.000
231.21	-0.000
231.43	-0.000
231.64	-0.000
231.85	-0.000
232.07	-0.000
232.28	-0.000
232.50	-0.000
232.71	-0.000
232.92	-0.000
233.14	-0.000
233.35	-0.000
233.56	-0.000
233.78	-0.000
233.99	-0.000
234.21	-0.000
234.42	-0.000
234.63	-0.000
234.85	-0.000
235.06	-0.000
235.27	-0.000
235.49	-0.000
235.70	-0.000
235.91	-0.000
236.13	-0.000
236.34	-0.000
236.56	-0.000
236.77	-0.000
236.98	-0.000
237.20	-0.000
237.41	-0.000
237.62	-0.000
237.84	-0.000
238.05	-0.000
238.26	-0.000
238.48	-0.000
238.69	-0.000
238.91	-0.000
239.12	-0.000
239.33	-0.000
239.55	-0.000
239.76	-0.000
239.97	-0.000
240.19	-0.000
240.40	-0.000
240.61	-0.000
240.83	-0.000
241.04	-0.000
241.25	-0.000
241.47	-0.000
241.68	-0.000
241.89	-0.000
242.11	-0.000
242.32	-0.000
242.53	-0.000
242.75	-0.000
242.96	-0.000
243.17	-0.000
243.39	-0.000
243.60	-0.000
243.81	-0.000
244.03	-0.000
244.24	-0.000
244.45	-0.000
244.67	-0.000
244.88	-0.000
245.09	-0.000
245.31	-0.000
245.52	-0.000
245.73	-0.000
245.95	-0.000
246.16	-0.000
246.37	-0.000
246.59	-0.000
246.80	-0.000
247.01	-0.000
247.23	-0.000
247.44	-0.000
247.65	-0.000
247.87	-0.000
248.08	-0.000
248.29	-0.000
248.51	-0.000
248.72	-0.000
248.93	-0.000
249.15	-0.000
249.36	-0.000
249.57	-0.000
249.78	-0.000
250.00	-0.000
250.21	-0.000
250.42	-0.000
250.64	-0.000
250.85	-0.000
251.06	-0.000
251.28	-0.000
251.49	-0.000
251.70	-0.000
251.92	-0.000
252.13	-0.000
252.34	-0.000
252.55	-0.000
252.77	-0.000
252.98	-0.000
253.19	-0.000
253.41	-0.000
253.62	-0.000
253.83	-0.000
254.05	-0.000
254.26	-0.000
254.47	-0.000
254.68	-0.000
254.90	-0.000
255.11	-0.000
255.32	-0.000
255.54	-0.000
255.75	-0.000
255.96	-0.000
256.17	-0.000
256.39	-0.000
256.60	-0.000
256.81	-0.000
257.03	-0.000
257.24	-0.000
257.45	-0.000
257.66	-0.000
257.88	-0.000
258.09	-0.000
258.30	-0.000
258.51	-0.000
258.73	-0.000
258.94	-0.000
259.15	-0.000
259.37	-0.000
259.58	-0.000
259.79	-0.000
260.00	-0.000
260.22	-0.000
260.43	-0.000
260.64	-0.000
260.85	-0.000
261.07	-0.000
261.28	-0.000
261.49	-0.000
261.71	-0.000
261.92	-0.000
262.13	-0.000
262.34	-0.000
262.56	-0.000
262.77	-0.000
262.98	-0.000
263.19	-0.000
263.41	-0.000
263.62	-0.000
263.83	-0.000
264.04	-0.000
264.26	-0.000
264.47	-0.000
264.68	-0.000
264.89	-0.000
265.11	-0.000
265.32	-0.000
265.53	-0.000
265.74	-0.000
265.96	-0.000
266.17	-0.000
266.38	-0.000
266.59	-0.000
266.81	-0.000
267.02	-0.000
267.23	-0.000
267.44	-0.000
267.65	-0.000
267.87	-0.000
268.08	-0.000
268.29	-0.000
268.50	-0.000
268.72	-0.000
268.93	-0.000
269.14	-0.000
269.35	-0.000
269.57	-0.000
269.78	-0.000
269.99	-0.000
270.20	-0.000
270.41	-0.000
270.63	-0.000
270.84	-0.000
271.05	-0.000
271.26	-0.000
271.48	-0.000
271.69	-0.000
271.90	-0.000
272.11	-0.000
272.32	-0.000
272.54	-0.000
272.75	-0.000
272.96	-0.000
273.17	-0.000
273.39	-0.000
273.60	-0.000
273.81	-0.000
274.02	-0.000
274.23	-0.000
274.45	-0.000
274.66	-0.000
274.87	-0.000
275.08	-0.000
275.29	-0.000
275.51	-0.000
275.72	-0.000
275.93	-0.000
276.14	-0.000
276.35	-0.000
276.57	-0.000
276.78	-0.000
276.99	-0.000
277.20	-0.000
277.41	-0.000
277.63	-0.000
277.84	-0.000
278.05	-0.000
278.26	-0.000
278.47	-0.000
278.69	-0.000
278.90	-0.000
279.11	-0.000
279.32	-0.000
279.53	-0.000
279.74	-0.000
279.96	-0.000
280.17	-0.000
280.38	-0.000
280.59	-0.000
280.80	-0.000
281.02	-0.000
281.23	-0.000
281.44	-0.000
281.65	-0.000
281.86	-0.000
282.07	-0.000
282.29	-0.000
282.50	-0.000
282.71	-0.000
282.92	-0.000
283.13	-0.000
283.35	-0.000
283.56	-0.000
283.77	-0.000
283.98	-0.000
284.19	-0.000
284.40	-0.000
284.62	-0.000
284.83	-0.000
285.04	-0.000
285.25	-0.000
285.46	-0.000
285.67	-0.000
285.88	-0.000
286.10	-0.000
286.31	-0.000
286.52	-0.000
286.73	-0.000
286.94	-0.000
287.15	-0.000
287.37	-0.000
287.58	-0.000
287.79	-0.000
288.00	-0.000
288.21	-0.000
288.42	-0.000
288.63	-0.000
288.85	-0.000
289.06	-0.000
289.27	-0.000
289.48	-0.000
289.69	-0.000
289.90	-0.000
290.11	-0.000
290.33	-0.000
290.54	-0.000
290.75	-0.000
290.96	-0.000
291.17	-0.000
291.38	-0.000
291.59	-0.000
291.81	-0.000
292.02	-0.000
292.23	-0.000
292.44	-0.000
292.65	-0.000
292.86	-0.000
293.07	-0.000
293.28	-0.000
293.50	-0.000
293.71	-0.000
293.92	-0.000
294.13	-0.000
294.34	-0.000
294.55	-0.000
294.76	-0.000
294.97	-0.000
295.19	-0.000
295.40	-0.000
295.61	-0.000
295.82	-0.000
296.03	-0.000
296.24	-0.000
296.45	-0.000
296.66	-0.000
296.87	-0.000
297.09	-0.000
297.30	-0.000
297.51	2.512
297.72	2.275
297.93	3.006
298.14	2.537
298.35	2.298
298.56	2.188
298.77	2.920
298.99	2.592
299.20	2.369
299.41	2.302
299.62	2.147
299.83	2.096
300.04	1.918
300.25	1.910
300.46	2.034
300.67	1.951
300.88	1.835
301.10	1.830
301.31	1.998
301.52	1.857
301.73	1.736
301.94	1.739
302.15	1.765
302.36	1.683
302.57	1.578
302.78	1.591
302.99	1.655
303.20	1.681
303.41	1.539
303.63	1.509
303.84	1.515
304.05	1.508
304.26	1.425
304.47	1.433
304.68	1.441
304.89	1.423
305.10	1.366
305.31	1.349
305.52	1.404
305.73	1.396
305.94	1.343
306.15	1.338
306.37	1.367
306.58	1.376
306.79	1.334
307.00	1.361
307.21	1.413
307.42	1.400
307.63	1.356
307.84	1.312
308.05	1.360
308.26	1.361
308.47	1.331
308.68	1.324
308.89	1.323
309.10	1.320
309.31	1.270
309.52	1.259
309.73	1.276
309.95	1.268
310.16	1.236
310.37	1.219
310.58	1.239
310.79	1.234
311.00	1.228
311.21	1.233
311.42	1.238
311.63	1.234
311.84	1.212
312.05	1.210
312.26	1.237
312.47	1.250
312.68	1.223
312.89	1.204
313.10	1.213
313.31	1.181
313.52	1.180
313.73	1.181
313.94	1.182
314.15	1.161
314.36	1.135
314.57	1.125
314.78	1.113
314.99	1.108
315.21	1.094
315.42	1.098
315.63	1.113
315.84	1.088
316.05	1.070
316.26	1.079
316.47	1.099
316.68	1.098
316.89	1.076
317.10	1.097
317.31	1.103
317.52	1.104
317.73	1.082
317.94	1.080
318.15	1.138
318.36	1.136
318.57	1.114
318.78	1.101
318.99	1.137
319.20	1.135
319.41	1.098
319.62	1.098
319.83	1.115
320.04	1.110
320.25	1.094
320.46	1.049
320.67	1.054
320.88	1.050
321.09	1.035
321.30	1.020
321.51	1.035
321.72	1.032
321.93	1.014
322.14	1.003
322.35	1.031
322.56	1.032
322.77	1.016
322.98	1.029
323.19	1.038
323.40	1.046
323.61	1.022
323.82	1.016
324.03	1.023
324.24	1.022
324.45	1.010
324.66	0.989
324.87	0.987
325.08	0.987
325.29	0.966
325.50	0.957
325.71	0.962
325.92	0.970
326.13	0.957
326.34	0.956
326.55	0.964
326.76	0.962
326.97	0.951
327.18	0.946
327.39	0.974
327.60	0.976
327.80	0.975
328.01	0.973
328.22	0.973
328.43	0.976
328.64	0.964
328.85	0.967
329.06	0.970
329.27	0.970
329.48	0.963
329.69	0.942
329.90	0.952
330.11	0.945
330.32	0.937
330.53	0.930
330.74	0.931
330.95	0.928
331.16	0.913
331.37	0.919
331.58	0.920
331.79	0.919
332.00	0.910
332.21	0.904
332.42	0.909
332.63	0.901
332.83	0.896
333.04	0.897
333.25	0.911
333.46	0.909
333.67	0.895
333.88	0.896
334.09	0.907
334.30	0.904
334.51	0.893
334.72	0.889
334.93	0.893
335.14	0.893
335.35	0.885
335.56	0.879
335.77	0.889
335.98	0.887
336.18	0.881
336.39	0.874
336.60	0.879
336.81	0.877
337.02	0.875
337.23	0.879
337.44	0.882
337.65	0.886
337.86	0.874
338.07	0.870
338.28	0.876
338.49	0.872
338.70	0.865
338.91	0.872
339.11	0.879
339.32	0.875
339.53	0.863
339.74	0.860
339.95	0.857
340.16	0.856
340.37	0.848
340.58	0.846
340.79	0.851
341.00	0.848
341.21	0.836
341.41	0.837
341.62	0.838
341.83	0.840
342.04	0.835
342.25	0.845
342.46	0.850
342.67	0.849
342.88	0.841
343.09	0.841
343.30	0.849
343.50	0.853
343.71	0.842
343.92	0.841
344.13	0.847
344.34	0.846
344.55	0.830
344.76	0.828
344.97	0.833
345.18	0.832
345.38	0.827
345.59	0.821
345.80	0.821
346.01	0.819
346.22	0.815
346.43	0.808
346.64	0.816
346.85	0.816
347.06	0.809
347.26	0.808
347.47	0.812
347.68	0.808
347.89	0.805
348.10	0.801
348.31	0.808
348.52	0.806
348.73	0.804
348.93	0.801
349.14	0.803
349.35	0.802
349.56	0.796
349.77	0.791
349.98	0.798
350.19	0.795
350.39	0.789
350.60	0.786
350.81	0.801
351.02	0.800
351.23	0.794
351.44	0.797
351.65	0.801
351.86	0.799
352.06	0.797
352.27	0.797
352.48	0.798
352.69	0.798
352.90	0.792
353.11	0.779
353.31	0.786
353.52	0.782
353.73	0.773
353.94	0.774
354.15	0.780
354.36	0.781
354.57	0.772
354.77	0.774
354.98	0.773
355.19	0.772
355.40	0.771
355.61	0.778
355.82	0.783
356.02	0.782
356.23	0.774
356.44	0.776
356.65	0.780
356.86	0.781
357.07	0.775
357.27	0.778
357.48	0.781
357.69	0.777
357.90	0.761
358.11	0.758
358.32	0.762
358.52	0.765
358.73	0.755
358.94	0.757
359.15	0.761
359.36	0.762
359.56	0.756
359.77	0.753
359.98	0.761
360.19	0.760
360.40	0.756
360.61	0.758
360.81	0.757
361.02	0.757
361.23	0.749
361.44	0.747
361.65	0.748
361.85	0.747
362.06	0.745
362.27	0.746
362.48	0.747
362.69	0.749
362.89	0.743
363.10	0.744
363.31	0.750
363.52	0.752
363.73	0.747
363.93	0.748
364.14	0.750
364.35	0.752
364.56	0.742
364.77	0.744
364.97	0.747
365.18	0.748
365.39	0.742
365.60	0.738
365.81	0.740
366.01	0.741
366.22	0.737
366.43	0.736
366.64	0.739
366.84	0.744
367.05	0.740
367.26	0.739
367.47	0.741
367.68	0.742
367.88	0.739
368.09	0.737
368.30	0.739
368.51	0.739
368.71	0.738
368.92	0.742
369.13	0.740
369.34	0.739
369.55	0.738
369.75	0.738
369.96	0.745
370.17	0.745
370.38	0.741
370.58	0.741
370.79	0.747
371.00	0.745
371.21	0.736
371.41	0.741
371.62	0.746
371.83	0.742
372.04	0.739
372.24	0.732
372.45	0.733
372.66	0.733
372.87	0.730
373.07	0.726
373.28	0.727
373.49	0.731
373.70	0.721
373.90	0.720
374.11	0.729
374.32	0.728
374.53	0.727
374.73	0.729
374.94	0.731
375.15	0.731
375.36	0.728
375.56	0.737
375.77	0.738
375.98	0.737
376.19	0.734
376.39	0.727
376.60	0.732
376.81	0.733
377.02	0.729
377.22	0.728
377.43	0.728
377.64	0.728
377.84	0.719
378.05	0.724
378.26	0.730
378.47	0.729
378.67	0.726
378.88	0.722
379.09	0.723
379.30	0.723
379.50	0.720
379.71	0.724
379.92	0.726
380.12	0.724
380.33	0.715
380.54	0.712
380.75	0.719
380.95	0.719
381.16	0.716
381.37	0.716
381.57	0.718
381.78	0.718
381.99	0.716
382.20	0.716
382.40	0.720
382.61	0.720
382.82	0.716
383.02	0.710
383.23	0.713
383.44	0.713
383.64	0.711
383.85	0.714
384.06	0.717
384.27	0.714
384.47	0.712
384.68	0.713
384.89	0.718
385.09	0.717
385.30	0.716
385.51	0.715
385.71	0.719
385.92	0.720
386.13	0.718
386.33	0.719
386.54	0.721
386.75	0.719
386.95	0.715
387.16	0.710
387.37	0.713
387.58	0.713
387.78	0.711
387.99	0.708
388.20	0.710
388.40	0.707
388.61	0.703
388.82	0.706
389.02	0.709
389.23	0.709
389.44	0.706
389.64	0.706
389.85	0.718
390.06	0.717
390.26	0.716
390.47	0.716
390.68	0.718
390.88	0.716
391.09	0.712
391.30	0.710
391.50	0.711
391.71	0.711
391.92	0.708
392.12	0.700
392.33	0.701
392.53	0.701
392.74	0.701
392.95	0.700
393.15	0.703
393.36	0.705
393.57	0.703
393.77	0.705
393.98	0.707
394.19	0.707
394.39	0.706
394.60	0.707
394.81	0.709
395.01	0.706
395.22	0.705
395.43	0.705
395.63	0.709
395.84	0.710
396.04	0.706
396.25	0.708
396.46	0.710
396.66	0.708
396.87	0.705
397.08	0.702
397.28	0.704
397.49	0.705
397.69	0.701
397.90	0.696
398.11	0.698
398.31	0.699
398.52	0.695
398.73	0.696
398.93	0.696
399.14	0.695
399.34	0.693
399.55	0.695
399.76	0.695
399.96	0.695
400.17	0.694
400.37	0.692
400.58	0.698
400.79	0.700
400.99	0.698
401.20	0.704
401.41	0.706
401.61	0.708
401.82	0.712
402.02	0.711
402.23	0.713
402.44	0.712
402.64	0.711
402.85	0.706
403.05	0.706
403.26	0.704
403.47	0.697
403.67	0.696
403.88	0.697
404.08	0.691
404.29	0.690
404.50	0.689
404.70	0.689
404.91	0.688
405.11	0.684
405.32	0.684
405.52	0.685
405.73	0.684
405.94	0.682
406.14	0.685
406.35	0.687
406.55	0.686
406.76	0.684
406.97	0.685
407.17	0.688
407.38	0.688
407.58	0.686
407.79	0.689
407.99	0.691
408.20	0.692
408.41	0.687
408.61	0.685
408.82	0.687
409.02	0.686
409.23	0.684
409.43	0.683
409.64	0.685
409.84	0.684
410.05	0.680
410.26	0.679
410.46	0.679
410.67	0.678
410.87	0.679
411.08	0.680
411.28	0.682
411.49	0.684
411.69	0.681
411.90	0.682
412.11	0.684
412.31	0.685
412.52	0.684
412.72	0.685
412.93	0.685
413.13	0.684
413.34	0.681
413.54	0.682
413.75	0.683
413.95	0.683
414.16	0.680
414.37	0.682
414.57	0.683
414.78	0.686
414.98	0.684
415.19	0.685
415.39	0.684
415.60	0.686
415.80	0.684
416.01	0.683
416.21	0.684
416.42	0.684
416.62	0.678
416.83	0.678
417.03	0.677
417.24	0.677
417.44	0.674
417.65	0.673
417.86	0.674
418.06	0.672
418.27	0.670
418.47	0.672
418.68	0.673
418.88	0.674
419.09	0.673
419.29	0.674
419.50	0.675
419.70	0.675
419.91	0.673
420.11	0.671
420.32	0.674
420.52	0.674
420.73	0.672
420.93	0.673
421.14	0.675
421.34	0.673
421.55	0.670
421.75	0.670
421.96	0.672
422.16	0.672
422.37	0.670
422.57	0.668
422.78	0.669
422.98	0.666
423.19	0.664
423.39	0.662
423.60	0.666
423.80	0.668
424.01	0.665
424.21	0.668
424.42	0.669
424.62	0.669
424.83	0.668
425.03	0.668
425.23	0.671
425.44	0.670
425.64	0.671
425.85	0.670
426.05	0.671
426.26	0.672
426.46	0.668
426.67	0.667
426.87	0.672
427.08	0.673
427.28	0.670
427.49	0.671
427.69	0.672
427.90	0.671
428.10	0.668
428.31	0.668
428.51	0.669
428.71	0.668
428.92	0.669
429.12	0.666
429.33	0.667
429.53	0.671
429.74	0.675
429.94	0.676
430.15	0.675
430.35	0.676
430.56	0.673
430.76	0.673
430.96	0.674
431.17	0.671
431.37	0.668
431.58	0.666
431.78	0.663
431.99	0.657
432.19	0.659
432.40	0.661
432.60	0.662
432.80	0.664
433.01	0.662
433.21	0.663
433.42	0.666
433.62	0.666
433.83	0.666
434.03	0.669
434.23	0.672
434.44	0.670
434.64	0.668
434.85	0.673
435.05	0.674
435.26	0.674
435.46	0.672
435.66	0.671
435.87	0.671
436.07	0.672
436.28	0.668
436.48	0.665
436.69	0.665
436.89	0.665
437.09	0.659
437.30	0.658
437.50	0.659
437.71	0.671
437.91	0.670
438.11	0.671
438.32	0.675
438.52	0.675
438.73	0.673
438.93	0.671
439.13	0.671
439.34	0.675
439.54	0.672
439.75	0.672
439.95	0.663
440.15	0.667
440.36	0.665
440.56	0.663
440.77	0.664
440.97	0.664
441.17	0.663
441.38	0.664
441.58	0.661
441.79	0.661
441.99	0.659
442.19	0.658
442.40	0.656
442.60	0.656
442.81	0.654
443.01	0.655
443.21	0.656
443.42	0.655
443.62	0.654
443.82	0.654
444.03	0.656
444.23	0.656
444.44	0.656
444.64	0.655
444.84	0.656
445.05	0.656
445.25	0.653
445.45	0.654
445.66	0.657
445.86	0.656
446.06	0.657
446.27	0.656
446.47	0.659
446.68	0.657
446.88	0.656
447.08	0.655
447.29	0.657
447.49	0.657
447.69	0.657
447.90	0.656
448.10	0.659
448.30	0.657
448.51	0.659
448.71	0.656
448.91	0.659
449.12	0.658
449.32	0.659
449.52	0.658
449.73	0.663
449.93	0.662
450.14	0.662
450.34	0.661
450.54	0.664
450.75	0.661
450.95	0.660
451.15	0.660
451.36	0.663
451.56	0.660
451.76	0.658
451.97	0.655
452.17	0.656
452.37	0.654
452.58	0.650
452.78	0.650
452.98	0.653
453.19	0.653
453.39	0.653
453.59	0.652
453.79	0.654
454.00	0.655
454.20	0.654
454.40	0.654
454.61	0.657
454.81	0.658
455.01	0.655
455.22	0.656
455.42	0.657
455.62	0.655
455.83	0.654
456.03	0.657
456.23	0.659
456.44	0.660
456.64	0.659
456.84	0.659
457.04	0.660
457.25	0.660
457.45	0.657
457.65	0.656
457.86	0.657
458.06	0.656
458.26	0.650
458.47	0.649
458.67	0.650
458.87	0.650
459.07	0.648
459.28	0.650
459.48	0.652
459.68	0.652
459.89	0.651
460.09	0.650
460.29	0.651
460.49	0.653
460.70	0.652
460.90	0.652
461.10	0.652
461.31	0.652
461.51	0.649
461.71	0.650
461.91	0.652
462.12	0.651
462.32	0.650
462.52	0.651
462.72	0.654
462.93	0.655
463.13	0.653
463.33	0.654
463.53	0.656
463.74	0.655
463.94	0.651
464.14	0.651
464.35	0.653
464.55	0.654
464.75	0.651
464.95	0.649
465.16	0.651
465.36	0.650
465.56	0.648
465.76	0.648
465.97	0.649
466.17	0.649
466.37	0.647
466.57	0.648
466.78	0.649
466.98	0.649
467.18	0.647
467.38	0.645
467.59	0.648
467.79	0.649
467.99	0.647
468.19	0.649
468.39	0.653
468.60	0.653
468.80	0.651
469.00	0.652
469.20	0.654
469.41	0.655
469.61	0.654
469.81	0.655
470.01	0.655
470.22	0.656
470.42	0.653
470.62	0.651
470.82	0.653
471.02	0.652
471.23	0.650
471.43	0.651
471.63	0.654
471.83	0.653
472.04	0.651
472.24	0.649
472.44	0.655
472.64	0.655
472.84	0.652
473.05	0.651
473.25	0.655
473.45	0.653
473.65	0.651
473.85	0.651
474.06	0.652
474.26	0.652
474.46	0.653
474.66	0.649
474.86	0.650
475.07	0.650
475.27	0.648
475.47	0.646
475.67	0.647
475.87	0.650
476.08	0.646
476.28	0.647
476.48	0.649
476.68	0.647
476.88	0.645
477.09	0.646
477.29	0.648
477.49	0.648
477.69	0.646
477.89	0.646
478.09	0.646
478.30	0.648
478.50	0.645
478.70	0.645
478.90	0.646
479.10	0.649
479.31	0.649
479.51	0.648
479.71	0.649
479.91	0.649
480.11	0.648
480.31	0.648
480.52	0.647
480.72	0.647
480.92	0.646
481.12	0.645
481.32	0.642
481.52	0.640
481.72	0.640
481.93	0.643
482.13	0.644
482.33	0.643
482.53	0.641
482.73	0.641
482.93	0.643
483.14	0.642
483.34	0.642
483.54	0.643
483.74	0.642
483.94	0.642
484.14	0.637
484.34	0.637
484.55	0.638
484.75	0.638
484.95	0.636
485.15	0.635
485.35	0.636
485.55	0.635
485.75	0.633
485.96	0.633
486.16	0.635
486.36	0.634
486.56	0.633
486.76	0.633
486.96	0.634
487.16	0.633
487.36	0.632
487.57	0.631
487.77	0.632
487.97	0.633
488.17	0.631
488.37	0.630
488.57	0.631
488.77	0.631
488.97	0.629
489.18	0.629
489.38	0.631
489.58	0.632
489.78	0.631
489.98	0.630
490.18	0.630
490.38	0.632
490.58	0.630
490.78	0.631
490.98	0.633
491.19	0.633
491.39	0.632
491.59	0.630
491.79	0.633
491.99	0.634
492.19	0.633
492.39	0.636
492.59	0.636
492.79	0.638
492.99	0.637
493.20	0.638
493.40	0.638
493.60	0.640
493.80	0.638
494.00	0.636
494.20	0.637
494.40	0.637
494.60	0.634
494.80	0.639
495.00	0.638
495.20	0.637
495.40	0.635
495.61	0.637
495.81	0.637
496.01	0.641
496.21	0.642
496.41	0.641
496.61	0.642
496.81	0.641
497.01	0.635
497.21	0.634
497.41	0.635
497.61	0.635
497.81	0.633
498.01	0.633
498.21	0.630
498.41	0.628
498.61	0.628
498.82	0.629
499.02	0.631
499.22	0.632
499.42	0.632
499.62	0.633
499.82	0.634
500.02	0.635
500.22	0.634
500.42	0.636
500.62	0.637
500.82	0.637
501.02	0.634
501.22	0.634
501.42	0.635
501.62	0.637
501.82	0.636
502.02	0.636
502.22	0.635
502.42	0.637
502.62	0.635
502.82	0.635
503.02	0.637
503.22	0.637
503.42	0.635
503.63	0.635
503.83	0.633
504.03	0.631
504.23	0.630
504.43	0.630
504.63	0.631
504.83	0.631
505.03	0.629
505.23	0.631
505.43	0.632
505.63	0.633
505.83	0.633
506.03	0.635
506.23	0.638
506.43	0.638
506.63	0.636
506.83	0.634
507.03	0.637
507.23	0.637
507.43	0.633
507.63	0.634
507.83	0.635
508.03	0.635
508.23	0.634
508.43	0.632
508.63	0.634
508.83	0.635
509.03	0.637
509.23	0.636
509.43	0.638
509.63	0.639
509.83	0.637
510.03	0.639
510.23	0.641
510.43	0.641
510.63	0.642
510.83	0.642
511.03	0.643
511.23	0.641
511.43	0.640
511.63	0.641
511.83	0.643
512.03	0.643
512.22	0.640
512.42	0.639
512.62	0.641
512.82	0.640
513.02	0.639
513.22	0.639
513.42	0.642
513.62	0.644
513.82	0.642
514.02	0.641
514.22	0.642
514.42	0.643
514.62	0.643
514.82	0.643
515.02	0.646
515.22	0.649
515.42	0.647
515.62	0.650
515.82	0.649
516.02	0.651
516.22	0.650
516.42	0.652
516.62	0.653
516.82	0.654
517.01	0.652
517.21	0.651
517.41	0.655
517.61	0.655
517.81	0.651
518.01	0.650
518.21	0.650
518.41	0.649
518.61	0.648
518.81	0.649
519.01	0.650
519.21	0.650
519.41	0.648
519.61	0.643
519.81	0.646
520.00	0.646
520.20	0.647
520.40	0.649
520.60	0.651
520.80	0.649
521.00	0.649
521.20	0.651
521.40	0.656
521.60	0.656
521.80	0.655
522.00	0.655
522.20	0.658
522.39	0.657
522.59	0.654
522.79	0.656
522.99	0.658
523.19	0.657
523.39	0.654
523.59	0.652
523.79	0.656
523.99	0.659
524.19	0.658
524.38	0.656
524.58	0.658
524.78	0.658
524.98	0.656
525.18	0.659
525.38	0.660
525.58	0.660
525.78	0.658
525.98	0.656
526.18	0.656
526.37	0.655
526.57	0.657
526.77	0.657
526.97	0.657
527.17	0.657
527.37	0.653
527.57	0.655
527.77	0.657
527.96	0.657
528.16	0.656
528.36	0.657
528.56	0.660
528.76	0.657
528.96	0.656
529.16	0.657
529.36	0.661
529.55	0.662
529.75	0.658
529.95	0.658
530.15	0.660
530.35	0.663
530.55	0.661
530.75	0.661
530.94	0.663
531.14	0.663
531.34	0.661
531.54	0.659
531.74	0.663
531.94	0.665
532.13	0.663
532.33	0.665
532.53	0.663
532.73	0.662
532.93	0.659
533.13	0.661
533.33	0.661
533.52	0.661
533.72	0.665
533.92	0.662
534.12	0.661
534.32	0.661
534.52	0.660
534.71	0.662
534.91	0.665
535.11	0.667
535.31	0.665
535.51	0.667
535.71	0.669
535.90	0.666
536.10	0.667
536.30	0.669
536.50	0.670
536.70	0.670
536.89	0.667
537.09	0.667
537.29	0.669
537.49	0.669
537.69	0.667
537.89	0.667
538.08	0.667
538.28	0.665
538.48	0.665
538.68	0.667
538.88	0.669
539.07	0.668
539.27	0.666
539.47	0.665
539.67	0.665
539.87	0.667
540.06	0.664
540.26	0.665
540.46	0.668
540.66	0.665
540.86	0.662
541.05	0.663
541.25	0.665
541.45	0.665
541.65	0.663
541.84	0.665
542.04	0.666
542.24	0.667
542.44	0.666
542.64	0.666
542.83	0.669
543.03	0.669
543.23	0.667
543.43	0.668
543.62	0.669
543.82	0.669
544.02	0.667
544.22	0.667
544.42	0.671
544.61	0.671
544.81	0.668
545.01	0.667
545.21	0.669
545.40	0.669
545.60	0.667
545.80	0.671
546.00	0.672
546.19	0.672
546.39	0.671
546.59	0.668
546.79	0.670
546.98	0.671
547.18	0.670
547.38	0.671
547.58	0.674
547.77	0.674
547.97	0.670
548.17	0.672
548.37	0.672
548.56	0.672
548.76	0.671
548.96	0.674
549.16	0.676
549.35	0.676
549.55	0.673
549.75	0.674
549.95	0.677
550.14	0.677
550.34	0.675
550.54	0.680
550.73	0.684
550.93	0.685
551.13	0.681
551.33	0.679
551.52	0.681
551.72	0.681
551.92	0.679
552.12	0.679
552.31	0.680
552.51	0.680
552.71	0.675
552.90	0.675
553.10	0.676
553.30	0.676
553.50	0.676
553.69	0.677
553.89	0.677
554.09	0.677
554.28	0.675
554.48	0.676
554.68	0.678
554.87	0.679
555.07	0.675
555.27	0.676
555.47	0.677
555.66	0.678
555.86	0.676
556.06	0.679
556.25	0.680
556.45	0.687
556.65	0.685
556.84	0.688
557.04	0.691
557.24	0.693
557.43	0.692
557.63	0.695
557.83	0.697
558.02	0.697
558.22	0.700
558.42	0.701
558.61	0.695
558.81	0.695
559.01	0.691
559.21	0.691
559.40	0.691
559.60	0.692
559.80	0.687
559.99	0.688
560.19	0.691
560.39	0.685
560.58	0.683
560.78	0.683
560.97	0.687
561.17	0.686
561.37	0.683
561.56	0.684
561.76	0.686
561.96	0.686
562.15	0.683
562.35	0.685
562.55	0.687
562.74	0.686
562.94	0.684
563.14	0.682
563.33	0.683
563.53	0.683
563.73	0.680
563.92	0.682
564.12	0.685
564.31	0.687
564.51	0.685
564.71	0.687
564.90	0.689
565.10	0.691
565.30	0.693
565.49	0.694
565.69	0.697
565.89	0.697
566.08	0.694
566.28	0.695
566.47	0.697
566.67	0.695
566.87	0.692
567.06	0.693
567.26	0.700
567.46	0.696
567.65	0.695
567.85	0.697
568.04	0.700
568.24	0.699
568.44	0.695
568.63	0.693
568.83	0.695
569.02	0.693
569.22	0.689
569.42	0.684
569.61	0.687
569.81	0.685
570.00	0.683
570.20	0.684
570.40	0.685
570.59	0.685
570.79	0.684
570.98	0.682
571.18	0.684
571.38	0.683
571.57	0.680
571.77	0.678
571.96	0.682
572.16	0.679
572.35	0.674
572.55	0.675
572.75	0.673
572.94	0.673
573.14	0.671
573.33	0.671
573.53	0.672
573.73	0.671
573.92	0.669
574.12	0.667
574.31	0.670
574.51	0.670
574.70	0.667
574.90	0.669
575.09	0.672
575.29	0.672
575.49	0.669
575.68	0.670
575.88	0.672
576.07	0.673
576.27	0.671
576.46	0.670
576.66	0.669
576.86	0.669
577.05	0.666
577.25	0.664
577.44	0.666
577.64	0.666
577.83	0.663
578.03	0.664
578.22	0.664
578.42	0.663
578.61	0.661
578.81	0.662
579.00	0.662
579.20	0.662
579.40	0.661
579.59	0.660
579.79	0.661
579.98	0.661
580.18	0.660
580.37	0.660
580.57	0.663
580.76	0.667
580.96	0.665
581.15	0.666
581.35	0.668
581.54	0.668
581.74	0.667
581.93	0.668
582.13	0.670
582.32	0.667
582.52	0.665
582.71	0.664
582.91	0.661
583.10	0.661
583.30	0.659
583.49	0.658
583.69	0.662
583.88	0.663
584.08	0.662
584.27	0.664
584.47	0.667
584.66	0.668
584.86	0.666
585.05	0.668
585.25	0.671
585.44	0.671
585.64	0.669
585.83	0.667
586.03	0.667
586.22	0.666
586.42	0.662
586.61	0.664
586.81	0.666
587.00	0.666
587.20	0.664
587.39	0.665
587.59	0.667
587.78	0.668
587.98	0.668
588.17	0.670
588.37	0.673
588.56	0.674
588.76	0.670
588.95	0.671
589.15	0.675
589.34	0.677
589.54	0.675
589.73	0.675
589.92	0.678
590.12	0.678
590.31	0.675
590.51	0.680
590.70	0.682
590.90	0.682
591.09	0.680
591.29	0.678
591.48	0.678
591.68	0.679
591.87	0.678
592.06	0.678
592.26	0.681
592.45	0.681
592.65	0.673
592.84	0.673
593.04	0.676
593.23	0.678
593.43	0.675
593.62	0.674
593.81	0.675
594.01	0.674
594.20	0.671
594.40	0.670
594.59	0.672
594.79	0.674
594.98	0.672
595.17	0.672
595.37	0.672
595.56	0.674
595.76	0.673
595.95	0.675
596.14	0.678
596.34	0.680
596.53	0.678
596.73	0.680
596.92	0.681
597.12	0.684
597.31	0.682
597.50	0.682
597.70	0.684
597.89	0.684
598.09	0.680
598.28	0.681
598.47	0.683
598.67	0.682
598.86	0.678
599.06	0.680
599.25	0.680
599.44	0.678
599.64	0.676
599.83	0.673
600.03	0.677
600.22	0.678
600.41	0.677
600.61	0.675
600.80	0.678
601.00	0.679
601.19	0.674
601.38	0.673
601.58	0.676
601.77	0.677
601.96	0.679
602.16	0.679
602.35	0.688
602.55	0.685
602.74	0.686
602.93	0.687
603.13	0.693
603.32	0.694
603.51	0.693
603.71	0.696
603.90	0.697
604.09	0.698
604.29	0.695
604.48	0.689
604.68	0.691
604.87	0.689
605.06	0.685
605.26	0.682
605.45	0.684
605.64	0.683
605.84	0.679
606.03	0.678
606.22	0.677
606.42	0.677
606.61	0.673
606.80	0.673
607.00	0.676
607.19	0.676
607.38	0.674
607.58	0.675
607.77	0.678
607.96	0.678
608.16	0.677
608.35	0.681
608.54	0.684
608.74	0.688
608.93	0.692
609.12	0.695
609.32	0.698
609.51	0.701
609.70	0.700
609.90	0.702
610.09	0.706
610.28	0.711
610.48	0.704
610.67	0.706
610.86	0.706
611.06	0.700
611.25	0.697
611.44	0.697
611.64	0.697
611.83	0.700
612.02	0.696
612.21	0.695
612.41	0.694
612.60	0.693
612.79	0.689
612.99	0.690
613.18	0.693
613.37	0.691
613.57	0.689
613.76	0.691
613.95	0.688
614.14	0.688
614.34	0.685
614.53	0.686
614.72	0.690
614.92	0.690
615.11	0.687
615.30	0.684
615.49	0.686
615.69	0.689
615.88	0.685
616.07	0.687
616.26	0.689
616.46	0.690
616.65	0.686
616.84	0.685
617.04	0.686
617.23	0.690
617.42	0.690
617.61	0.694
617.81	0.694
618.00	0.696
618.19	0.694
618.38	0.698
618.58	0.702
618.77	0.703
618.96	0.702
619.15	0.704
619.35	0.706
619.54	0.706
619.73	0.702
619.92	0.704
620.12	0.709
620.31	0.709
620.50	0.703
620.69	0.704
620.89	0.708
621.08	0.708
621.27	0.708
621.46	0.707
621.66	0.711
621.85	0.711
622.04	0.707
622.23	0.708
622.43	0.708
622.62	0.707
622.81	0.706
623.00	0.706
623.19	0.709
623.39	0.707
623.58	0.704
623.77	0.703
623.96	0.706
624.16	0.706
624.35	0.701
624.54	0.705
624.73	0.709
624.92	0.707
625.12	0.705
625.31	0.705
625.50	0.709
625.69	0.710
625.88	0.706
626.08	0.706
626.27	0.708
626.46	0.708
626.65	0.705
626.84	0.705
627.04	0.709
627.23	0.708
627.42	0.704
627.61	0.705
627.80	0.709
628.00	0.709
628.19	0.707
628.38	0.711
628.57	0.714
628.76	0.713
628.96	0.710
629.15	0.711
629.34	0.715
629.53	0.715
629.72	0.710
629.91	0.710
630.11	0.714
630.30	0.716
630.49	0.717
630.68	0.718
630.87	0.721
631.06	0.723
631.26	0.718
631.45	0.719
631.64	0.728
631.83	0.731
632.02	0.728
632.21	0.727
632.41	0.735
632.60	0.730
632.79	0.728
632.98	0.729
633.17	0.730
633.36	0.732
633.55	0.728
633.75	0.723
633.94	0.726
634.13	0.725
634.32	0.722
634.51	0.716
634.70	0.718
634.89	0.717
635.09	0.713
635.28	0.714
635.47	0.717
635.66	0.719
635.85	0.714
636.04	0.715
636.23	0.721
636.43	0.722
636.62	0.721
636.81	0.720
637.00	0.724
637.19	0.727
637.38	0.724
637.57	0.722
637.76	0.725
637.95	0.727
638.15	0.722
638.34	0.719
638.53	0.723
638.72	0.724
638.91	0.721
639.10	0.719
639.29	0.719
639.48	0.720
639.67	0.720
639.87	0.718
640.06	0.724
640.25	0.724
640.44	0.724
640.63	0.724
640.82	0.727
641.01	0.726
641.20	0.725
641.39	0.727
641.58	0.730
641.78	0.729
641.97	0.726
642.16	0.740
642.35	0.742
642.54	0.740
642.73	0.734
642.92	0.733
643.11	0.737
643.30	0.737
643.49	0.732
643.68	0.734
643.87	0.735
644.06	0.734
644.25	0.713
644.45	0.716
644.64	0.718
644.83	0.718
645.02	0.715
645.21	0.714
645.40	0.716
645.59	0.715
645.78	0.710
645.97	0.712
646.16	0.714
646.35	0.713
646.54	0.710
646.73	0.711
646.92	0.714
647.11	0.713
647.30	0.708
647.49	0.710
647.68	0.710
647.88	0.708
648.07	0.701
648.26	0.704
648.45	0.706
648.64	0.702
648.83	0.699
649.02	0.701
649.21	0.713
649.40	0.713
649.59	0.707
649.78	0.708
649.97	0.723
650.16	0.723
650.35	0.717
650.54	0.719
650.73	0.729
650.92	0.725
651.11	0.717
651.30	0.714
651.49	0.718
651.68	0.719
651.87	0.715
652.06	0.704
652.25	0.708
652.44	0.710
652.63	0.706
652.82	0.705
653.01	0.706
653.20	0.705
653.39	0.692
653.58	0.689
653.77	0.689
653.96	0.684
654.15	0.675
654.34	0.673
654.53	0.670
654.72	0.664
654.91	0.655
655.10	0.651
655.29	0.649
655.48	0.647
655.67	0.641
655.86	0.639
656.05	0.638
656.24	0.637
656.43	0.632
656.62	0.631
656.81	0.631
657.00	0.629
657.19	0.627
657.38	0.627
657.57	0.627
657.76	0.629
657.95	0.627
658.14	0.631
658.33	0.634
658.51	0.639
658.70	0.640
658.89	0.641
659.08	0.651
659.27	0.658
659.46	0.657
659.65	0.664
659.84	0.668
660.03	0.671
660.22	0.672
660.41	0.676
660.60	0.676
660.79	0.677
660.98	0.683
661.17	0.682
661.36	0.681
661.55	0.682
661.74	0.679
661.92	0.681
662.11	0.683
662.30	0.680
662.49	0.674
662.68	0.673
662.87	0.677
663.06	0.671
663.25	0.671
663.44	0.672
663.63	0.673
663.82	0.673
664.01	0.668
664.20	0.667
664.38	0.669
664.57	0.669
664.76	0.668
664.95	0.669
665.14	0.673
665.33	0.668
665.52	0.675
665.71	0.679
665.90	0.678
666.09	0.680
666.28	0.677
666.46	0.676
666.65	0.677
666.84	0.676
667.03	0.669
667.22	0.668
667.41	0.671
667.60	0.660
667.79	0.653
667.98	0.655
668.16	0.656
668.35	0.655
668.54	0.651
668.73	0.651
668.92	0.653
669.11	0.653
669.30	0.647
669.49	0.643
669.67	0.645
669.86	0.647
670.05	0.643
670.24	0.641
670.43	0.640
670.62	0.639
670.81	0.634
671.00	0.636
671.18	0.636
671.37	0.635
671.56	0.633
671.75	0.632
671.94	0.629
672.13	0.627
672.32	0.622
672.50	0.622
672.69	0.622
672.88	0.622
673.07	0.617
673.26	0.619
673.45	0.620
673.63	0.620
673.82	0.616
674.01	0.618
674.20	0.618
674.39	0.617
674.58	0.616
674.76	0.616
674.95	0.615
675.14	0.615
675.33	0.610
675.52	0.609
675.71	0.609
675.89	0.608
676.08	0.603
676.27	0.604
676.46	0.605
676.65	0.604
676.84	0.603
677.02	0.606
677.21	0.608
677.40	0.608
677.59	0.604
677.78	0.606
677.96	0.609
678.15	0.608
678.34	0.606
678.53	0.607
678.72	0.607
678.90	0.603
679.09	0.598
679.28	0.595
679.47	0.595
679.66	0.595
679.84	0.591
680.03	0.588
680.22	0.588
680.41	0.589
680.60	0.585
680.78	0.584
680.97	0.586
681.16	0.587
681.35	0.586
681.53	0.584
681.72	0.586
681.91	0.588
682.10	0.587
682.29	0.589
682.47	0.587
682.66	0.587
682.85	0.586
683.04	0.584
683.22	0.584
683.41	0.585
683.60	0.584
683.79	0.585
683.97	0.584
684.16	0.583
684.35	0.579
684.54	0.580
684.72	0.580
684.91	0.581
685.10	0.578
685.29	0.580
685.47	0.577
685.66	0.576
685.85	0.572
686.04	0.572
686.22	0.575
686.41	0.577
686.60	0.574
686.79	0.578
686.97	0.579
687.16	0.580
687.35	0.577
687.54	0.580
687.72	0.584
687.91	0.584
688.10	0.586
688.29	0.585
688.47	0.583
688.66	0.583
688.85	0.578
689.03	0.575
689.22	0.580
689.41	0.580
689.60	0.575
689.78	0.572
689.97	0.573
690.16	0.570
690.34	0.566
690.53	0.566
690.72	0.566
690.91	0.565
691.09	0.564
691.28	0.558
691.47	0.557
691.65	0.556
691.84	0.553
692.03	0.552
692.21	0.550
692.40	0.550
692.59	0.547
692.77	0.546
692.96	0.547
693.15	0.547
693.34	0.545
693.52	0.545
693.71	0.546
693.90	0.547
694.08	0.548
694.27	0.550
694.46	0.560
694.64	0.561
694.83	0.560
695.02	0.560
695.20	0.560
695.39	0.559
695.58	0.559
695.76	0.560
695.95	0.560
696.14	0.558
696.32	0.555
696.51	0.546
696.70	0.545
696.88	0.546
697.07	0.544
697.26	0.546
697.44	0.547
697.63	0.546
697.81	0.543
698.00	0.542
698.19	0.542
698.37	0.543
698.56	0.542
698.75	0.542
698.93	0.542
699.12	0.542
699.31	0.541
699.49	0.540
699.68	0.542
699.87	0.545
700.05	0.545
700.24	0.544
700.42	0.545
700.61	0.545
700.80	0.543
700.98	0.543
701.17	0.544
701.36	0.543
701.54	0.542
701.73	0.543
701.91	0.541
702.10	0.539
702.29	0.537
702.47	0.536
702.66	0.538
702.84	0.539
703.03	0.537
703.22	0.539
703.40	0.539
703.59	0.540
703.77	0.540
703.96	0.540
704.15	0.542
704.33	0.543
704.52	0.542
704.70	0.541
704.89	0.540
705.08	0.539
705.26	0.534
705.45	0.534
705.63	0.534
705.82	0.531
706.00	0.529
706.19	0.528
706.38	0.528
706.56	0.526
706.75	0.524
706.93	0.523
707.12	0.525
707.30	0.525
707.49	0.523
707.68	0.521
707.86	0.521
708.05	0.521
708.23	0.518
708.42	0.519
708.60	0.522
708.79	0.521
708.98	0.520
709.16	0.519
709.35	0.521
709.53	0.525
709.72	0.523
709.90	0.525
710.09	0.527
710.27	0.529
710.46	0.533
710.64	0.531
710.83	0.533
711.02	0.535
711.20	0.533
711.39	0.531
711.57	0.530
711.76	0.530
711.94	0.528
712.13	0.529
712.31	0.529
712.50	0.524
712.68	0.522
712.87	0.523
713.05	0.524
713.24	0.524
713.42	0.523
713.61	0.523
713.79	0.524
713.98	0.524
714.16	0.525
714.35	0.524
714.54	0.525
714.72	0.525
714.91	0.523
715.09	0.530
715.28	0.533
715.46	0.533
715.65	0.530
715.83	0.531
716.02	0.533
716.20	0.530
716.39	0.529
716.57	0.531
716.76	0.533
716.94	0.533
717.12	0.524
717.31	0.526
717.49	0.529
717.68	0.532
717.86	0.531
718.05	0.533
718.23	0.536
718.42	0.538
718.60	0.539
718.79	0.547
718.97	0.550
719.16	0.551
719.34	0.548
719.53	0.547
719.71	0.547
719.90	0.548
720.08	0.544
720.27	0.545
720.45	0.545
720.63	0.544
720.82	0.537
721.00	0.540
721.19	0.543
721.37	0.543
721.56	0.542
721.74	0.546
721.93	0.555
722.11	0.562
722.30	0.561
722.48	0.567
722.66	0.568
722.85	0.568
723.03	0.568
723.22	0.566
723.40	0.569
723.59	0.570
723.77	0.573
723.95	0.567
724.14	0.569
724.32	0.570
724.51	0.569
724.69	0.570
724.88	0.571
725.06	0.569
725.24	0.569
725.43	0.571
725.61	0.575
725.80	0.568
725.98	0.565
726.16	0.562
726.35	0.568
726.53	0.566
726.72	0.565
726.90	0.575
727.09	0.576
727.27	0.583
727.45	0.579
727.64	0.587
727.82	0.596
728.01	0.602
728.19	0.599
728.37	0.605
728.56	0.610
728.74	0.616
728.92	0.605
729.11	0.607
729.29	0.606
729.48	0.609
729.66	0.598
729.84	0.597
730.03	0.600
730.21	0.603
730.40	0.592
730.58	0.593
730.76	0.594
730.95	0.596
731.13	0.596
731.31	0.611
731.50	0.621
731.68	0.625
731.86	0.622
732.05	0.637
732.23	0.640
732.42	0.644
732.60	0.647
732.78	0.652
732.97	0.672
733.15	0.679
733.33	0.663
733.52	0.669
733.70	0.679
733.88	0.689
734.07	0.673
734.25	0.702
734.43	0.710
734.62	0.711
734.80	0.707
734.98	0.696
735.17	0.706
735.35	0.714
735.53	0.703
735.72	0.709
735.90	0.732
736.08	0.753
736.27	0.727
736.45	0.738
736.63	0.753
736.82	0.763
737.00	0.764
737.18	0.773
737.37	0.809
737.55	0.831
737.73	0.822
737.92	0.825
738.10	0.823
738.28	0.846
738.46	0.831
738.65	0.846
738.83	0.869
739.01	0.928
739.20	0.914
739.38	0.897
739.56	0.895
739.75	0.902
739.93	0.861
740.11	0.887
740.29	0.888
740.48	0.896
740.66	0.874
740.84	0.870
741.03	0.832
741.21	0.845
741.39	0.824
741.57	0.838
741.76	0.857
741.94	0.866
742.12	0.829
742.31	0.835
742.49	0.862
742.67	0.886
742.85	0.900
743.04	0.908
743.22	0.923
743.40	0.982
743.58	0.953
743.77	0.973
743.95	1.025
744.13	1.087
744.31	1.064
744.50	1.050
744.68	1.050
744.86	1.020
745.04	1.034
745.23	1.112
745.41	1.097
745.59	1.109
745.77	1.065
745.96	1.041
746.14	1.052
746.32	1.046
746.50	1.036
746.69	1.020
746.87	1.033
747.05	1.013
747.23	0.928
747.42	0.910
747.60	0.945
747.78	0.947
747.96	0.985
748.14	0.937
748.33	0.976
748.51	0.971
748.69	0.957
748.87	0.995
749.06	0.995
749.24	0.993
749.42	0.976
749.60	0.948
749.78	0.958
749.97	0.901
750.15	0.891
750.33	0.893
750.51	0.922
750.69	0.930
750.88	0.928
751.06	0.938
751.24	0.967
751.42	0.953
751.60	0.945
751.79	1.035
751.97	1.098
752.15	1.094
752.33	1.048
752.51	1.126
752.69	1.150
752.88	1.116
753.06	1.169
753.24	1.131
753.42	1.184
753.60	1.422
753.78	1.209
753.97	1.228
754.15	1.256
754.33	1.290
754.51	1.125
754.69	1.109
754.87	1.143
755.06	1.056
755.24	1.063
755.42	1.069
755.60	0.952
755.78	0.958
755.96	0.895
756.15	0.896
756.33	0.903
756.51	0.923
756.69	0.904
756.87	0.870
757.05	0.893
757.23	0.873
757.42	0.836
757.60	0.834
757.78	0.825
757.96	0.827
758.14	0.807
758.32	0.791
758.50	0.807
758.69	0.804
758.87	0.793
759.05	0.797
759.23	0.810
759.41	0.811
759.59	0.803
759.77	0.827
759.95	0.856
760.13	0.909
760.32	0.911
760.50	0.902
760.68	0.931
760.86	0.929
761.04	0.898
761.22	0.902
761.40	0.960
761.58	0.961
761.76	0.928
761.95	0.906
762.13	0.860
762.31	0.858
762.49	0.824
762.67	0.845
762.85	0.863
763.03	0.857
763.21	0.836
763.39	0.813
763.57	0.819
763.75	0.813
763.94	0.796
764.12	0.796
764.30	0.824
764.48	0.828
764.66	0.783
764.84	0.778
765.02	0.819
765.20	0.824
765.38	0.802
765.56	0.806
765.74	0.854
765.92	0.854
766.10	0.861
766.28	0.851
766.46	0.883
766.65	0.887
766.83	0.876
767.01	0.860
767.19	0.872
767.37	0.869
767.55	0.854
767.73	0.828
767.91	0.834
768.09	0.823
768.27	0.810
768.45	0.801
768.63	0.806
768.81	0.807
768.99	0.778
769.17	0.804
769.35	0.822
769.53	0.821
769.71	0.800
769.89	0.809
770.07	0.813
770.25	0.795
770.43	0.771
770.61	0.796
770.79	0.806
770.97	0.814
771.15	0.778
771.33	0.782
771.51	0.786
771.69	0.797
771.87	0.804
772.05	0.812
772.24	0.820
772.42	0.828
772.60	0.804
772.78	0.866
772.96	0.903
773.14	0.899
773.32	0.870
773.49	0.875
773.67	0.876
773.85	0.854
774.03	0.837
774.21	0.874
774.39	0.888
774.57	0.916
774.75	0.833
774.93	0.827
775.11	0.852
775.29	0.860
775.47	0.863
775.65	0.874
775.83	0.899
776.01	0.927
776.19	0.870
776.37	0.875
776.55	0.875
776.73	0.873
776.91	0.864
777.09	0.847
777.27	0.852
777.45	0.842
777.63	0.814
777.81	0.806
777.99	0.793
778.17	0.795
778.35	0.769
778.53	0.756
778.71	0.764
778.89	0.751
779.07	0.735
779.24	0.739
779.42	0.738
779.60	0.759
779.78	0.753
779.96	0.760
780.14	0.768
780.32	0.788
780.50	0.768
780.68	0.767
780.86	0.759
781.04	0.778
781.22	0.782
781.40	0.797
781.58	0.788
781.75	0.780
781.93	0.760
782.11	0.760
782.29	0.748
782.47	0.748
782.65	0.733
782.83	0.765
783.01	0.761
783.19	0.752
783.37	0.734
783.55	0.737
783.72	0.757
783.90	0.766
784.08	0.759
784.26	0.772
784.44	0.794
784.62	0.799
784.80	0.762
784.98	0.768
785.16	0.777
785.33	0.791
785.51	0.773
785.69	0.760
785.87	0.761
786.05	0.769
786.23	0.761
786.41	0.755
786.59	0.763
786.77	0.762
786.94	0.746
787.12	0.750
787.30	0.751
787.48	0.747
787.66	0.734
787.84	0.735
788.02	0.728
788.19	0.726
788.37	0.712
788.55	0.713
788.73	0.715
788.91	0.708
789.09	0.690
789.27	0.679
789.44	0.693
789.62	0.698
789.80	0.706
789.98	0.733
790.16	0.720
790.34	0.717
790.51	0.702
790.69	0.721
790.87	0.730
791.05	0.727
791.23	0.719
791.41	0.721
791.58	0.730
791.76	0.707
791.94	0.671
792.12	0.681
792.30	0.683
792.48	0.681
792.65	0.674
792.83	0.680
793.01	0.689
793.19	0.687
793.37	0.669
793.54	0.666
793.72	0.679
793.90	0.680
794.08	0.666
794.26	0.668
794.43	0.679
794.61	0.663
794.79	0.651
794.97	0.649
795.15	0.657
795.32	0.660
795.50	0.648
795.68	0.644
795.86	0.649
796.04	0.652
796.21	0.645
796.39	0.642
796.57	0.657
796.75	0.665
796.92	0.664
797.10	0.668
797.28	0.672
797.46	0.675
797.64	0.675
797.81	0.682
797.99	0.687
798.17	0.690
798.35	0.684
798.52	0.687
798.70	0.684
798.88	0.693
799.06	0.693
799.23	0.697
799.41	0.705
799.59	0.698
799.77	0.687
799.94	0.695
800.12	0.706
800.30	0.725
800.48	0.724
800.65	0.724
800.83	0.716
801.01	0.707
801.19	0.707
801.36	0.704
801.54	0.710
801.72	0.719
801.90	0.704
802.07	0.700
802.25	0.686
802.43	0.667
802.60	0.661
802.78	0.667
802.96	0.673
803.14	0.665
803.31	0.663
803.49	0.662
803.67	0.658
803.84	0.663
804.02	0.652
804.20	0.655
804.38	0.663
804.55	0.662
804.73	0.646
804.91	0.647
805.08	0.662
805.26	0.657
805.44	0.724
805.61	0.729
805.79	0.730
805.97	0.729
806.15	0.719
806.32	0.712
806.50	0.720
806.68	0.721
806.85	0.711
807.03	0.701
807.21	0.719
807.38	0.647
807.56	0.636
807.74	0.647
807.91	0.656
808.09	0.660
808.27	0.680
808.44	0.711
808.62	0.721
808.80	0.721
808.97	0.713
809.15	0.707
809.33	0.727
809.50	0.734
809.68	0.718
809.86	0.727
810.03	0.761
810.21	0.739
810.39	0.715
810.56	0.722
810.74	0.749
810.91	0.831
811.09	0.819
811.27	0.842
811.44	0.850
811.62	0.851
811.80	0.830
811.97	0.794
812.15	0.794
812.33	0.787
812.50	0.770
812.68	0.758
812.85	0.698
813.03	0.701
813.21	0.665
813.38	0.659
813.56	0.663
813.74	0.673
813.91	0.680
814.09	0.712
814.26	0.706
814.44	0.712
814.62	0.702
814.79	0.705
814.97	0.712
815.14	0.719
815.32	0.725
815.50	0.744
815.67	0.750
815.85	0.741
816.02	0.727
816.20	0.737
816.38	0.753
816.55	0.758
816.73	0.758
816.90	0.769
817.08	0.804
817.26	0.806
817.43	0.785
817.61	0.809
817.78	0.831
817.96	0.807
818.13	0.793
818.31	0.794
818.49	0.809
818.66	0.799
818.84	0.780
819.01	0.757
819.19	0.765
819.36	0.766
819.54	0.736
819.71	0.785
819.89	0.803
820.07	0.818
820.24	0.810
820.42	0.813
820.59	0.839
820.77	0.869
820.94	0.859
821.12	0.884
821.29	0.903
821.47	0.904
821.64	0.825
821.82	0.841
822.00	0.840
822.17	0.834
822.35	0.821
822.52	0.823
822.70	0.809
822.87	0.819
823.05	0.791
823.22	0.803
823.40	0.835
823.57	0.862
823.75	0.840
823.92	0.871
824.10	0.899
824.27	0.956
824.45	0.938
824.62	1.019
824.80	1.042
824.97	1.061
825.15	1.052
825.32	1.071
825.50	1.078
825.67	1.083
825.85	1.047
826.02	1.072
826.20	1.103
826.37	1.293
826.55	1.169
826.72	1.494
826.90	1.692
827.07	1.824
827.25	1.653
827.42	2.476
827.60	-0.000
827.77	-0.000
827.95	-0.000
828.12	-0.000
828.30	-0.000
828.47	-0.000
828.65	1.651
828.82	1.853
829.00	2.423
829.17	-0.000
829.34	-0.000
829.52	-0.000
829.69	-0.000
829.87	-0.000
830.04	-0.000
830.22	-0.000
830.39	-0.000
830.57	-0.000
830.74	-0.000
830.92	-0.000
831.09	-0.000
831.26	-0.000
831.44	-0.000
831.61	-0.000
831.79	-0.000
831.96	-0.000
832.14	-0.000
832.31	-0.000
832.49	-0.000
832.66	-0.000
832.83	-0.000
833.01	-0.000
833.18	-0.000
833.36	-0.000
833.53	-0.000
833.70	-0.000
833.88	-0.000
834.05	-0.000
834.23	-0.000
834.40	-0.000
834.58	-0.000
834.75	-0.000
834.92	-0.000
835.10	-0.000
835.27	-0.000
835.45	-0.000
835.62	-0.000
835.79	-0.000
835.97	-0.000
836.14	-0.000
836.32	-0.000
836.49	-0.000
836.66	-0.000
836.84	-0.000
837.01	-0.000
837.18	-0.000
837.36	-0.000
837.53	-0.000
837.71	-0.000
837.88	-0.000
838.05	-0.000
838.23	-0.000
838.40	-0.000
838.58	-0.000
838.75	-0.000
838.92	-0.000
839.10	-0.000
839.27	-0.000
839.44	-0.000
839.62	-0.000
839.79	-0.000
839.96	-0.000
840.14	-0.000
840.31	-0.000
840.48	-0.000
840.66	-0.000
840.83	-0.000
841.01	-0.000
841.18	-0.000
841.35	-0.000
841.53	-0.000
841.70	-0.000
841.87	-0.000
842.05	-0.000
842.22	-0.000
842.39	-0.000
842.57	-0.000
842.74	-0.000
842.91	-0.000
843.09	-0.000
843.26	-0.000
843.43	-0.000
843.60	-0.000
843.78	-0.000
843.95	-0.000
844.12	-0.000
844.30	-0.000
844.47	-0.000
844.64	-0.000
844.82	-0.000
844.99	-0.000
845.16	-0.000
845.34	-0.000
845.51	-0.000
845.68	-0.000
845.85	-0.000
846.03	-0.000
846.20	-0.000
846.37	-0.000
846.55	-0.000
846.72	-0.000
846.89	-0.000
847.06	-0.000
847.24	-0.000
847.41	-0.000
847.58	-0.000
847.76	-0.000
847.93	-0.000
848.10	-0.000
848.27	-0.000
848.45	-0.000
848.62	-0.000
848.79	-0.000
848.97	-0.000
849.14	-0.000
849.31	-0.000
849.48	-0.000
849.66	-0.000
849.83	-0.000
850.00	-0.000
850.17	-0.000
850.35	-0.000
850.52	-0.000
850.69	-0.000
850.86	-0.000
851.04	-0.000
851.21	-0.000
851.38	-0.000
851.55	-0.000
851.72	-0.000
851.90	-0.000
852.07	-0.000
852.24	-0.000
852.41	-0.000
852.59	-0.000
852.76	-0.000
852.93	-0.000
853.10	-0.000
853.28	-0.000
853.45	-0.000
853.62	-0.000
853.79	-0.000
853.96	-0.000
854.14	-0.000
854.31	-0.000
854.48	-0.000
854.65	-0.000
854.82	-0.000
855.00	-0.000
855.17	-0.000
855.34	-0.000
855.51	-0.000
855.68	-0.000
855.86	-0.000
856.03	-0.000
856.20	-0.000
856.37	-0.000
856.54	-0.000
856.72	-0.000
856.89	-0.000
857.06	-0.000
857.23	-0.000
857.40	-0.000
857.57	-0.000
857.75	-0.000
857.92	-0.000
858.09	-0.000
858.26	-0.000
858.43	-0.000
858.60	-0.000
858.78	-0.000
858.95	-0.000
859.12	-0.000
859.29	-0.000
859.46	-0.000
859.63	-0.000
859.81	-0.000
859.98	-0.000
860.15	-0.000
860.32	-0.000
860.49	-0.000
860.66	-0.000
860.83	-0.000
861.01	-0.000
861.18	-0.000
861.35	-0.000
861.52	-0.000
861.69	-0.000
861.86	-0.000
862.03	-0.000
862.21	-0.000
862.38	-0.000
862.55	-0.000
862.72	-0.000
862.89	-0.000
863.06	-0.000
863.23	-0.000
863.40	-0.000
863.58	-0.000
863.75	-0.000
863.92	-0.000
864.09	-0.000
864.26	-0.000
864.43	-0.000
864.60	-0.000
864.77	-0.000
864.94	-0.000
865.11	-0.000
865.29	-0.000
865.46	-0.000
865.63	-0.000
865.80	-0.000
865.97	-0.000
866.14	-0.000
866.31	-0.000
866.48	-0.000
866.65	-0.000
866.82	-0.000
866.99	-0.000
867.16	-0.000
867.34	-0.000
867.51	-0.000
867.68	-0.000
867.85	-0.000
868.02	-0.000
868.19	-0.000
868.36	-0.000
868.53	-0.000
868.70	-0.000
868.87	-0.000
869.04	-0.000
869.21	-0.000
869.38	-0.000
869.55	-0.000
869.72	-0.000
869.89	-0.000
870.06	-0.000
870.24	-0.000
870.41	-0.000
870.58	-0.000
870.75	-0.000
870.92	-0.000
871.09	-0.000
871.26	-0.000
871.43	-0.000
871.60	-0.000
871.77	-0.000
871.94	-0.000
872.11	-0.000
872.28	-0.000
872.45	-0.000
872.62	-0.000
872.79	-0.000
872.96	-0.000
873.13	-0.000
873.30	-0.000
873.47	-0.000
873.64	-0.000
873.81	-0.000
873.98	-0.000
874.15	-0.000
874.32	-0.000
874.49	-0.000
874.66	-0.000
874.83	-0.000
875.00	-0.000
875.17	-0.000
875.34	-0.000
875.51	-0.000
875.68	-0.000
875.85	-0.000
876.02	-0.000
876.19	-0.000
876.36	-0.000
876.53	-0.000
876.70	-0.000
876.87	-0.000
877.04	-0.000
877.21	-0.000
877.38	-0.000
877.55	-0.000
877.72	-0.000
877.89	-0.000
878.06	-0.000
878.23	-0.000
878.39	-0.000
878.56	-0.000
878.73	-0.000
878.90	-0.000
879.07	-0.000
879.24	-0.000
879.41	-0.000
879.58	-0.000
879.75	-0.000
879.92	-0.000
880.09	-0.000
880.26	-0.000
880.43	-0.000
880.60	-0.000
880.77	-0.000
880.94	-0.000
881.11	-0.000
881.27	-0.000
881.44	-0.000
881.61	-0.000
881.78	-0.000
881.95	-0.000
882.12	-0.000
882.29	-0.000
882.46	-0.000
882.63	-0.000
882.80	-0.000
882.97	-0.000
883.14	-0.000
883.30	-0.000
883.47	-0.000
883.64	-0.000
883.81	-0.000
883.98	-0.000
884.15	-0.000
884.32	-0.000
884.49	-0.000
884.66	-0.000
884.82	-0.000
884.99	-0.000
885.16	-0.000
885.33	-0.000
885.50	-0.000
885.67	-0.000
885.84	-0.000
886.01	-0.000
886.17	-0.000
886.34	-0.000
886.51	-0.000
886.68	-0.000
886.85	-0.000
887.02	-0.000
887.19	-0.000
887.36	-0.000
887.52	-0.000
887.69	-0.000
887.86	-0.000
888.03	-0.000
888.20	-0.000
888.37	-0.000
888.54	-0.000
888.70	-0.000
888.87	-0.000
889.04	-0.000
889.21	-0.000
889.38	-0.000
889.55	-0.000
889.71	-0.000
889.88	-0.000
890.05	-0.000
890.22	-0.000
890.39	-0.000
>>>>>End Processed Spectral Data<<<<<
