SpectraSuite Data File
++++++++++++++++++++++++++++++++++++
Date: Fri Jun 19 11:45:02 CEST 2015
User: introlabs
Dark Spectrum Present: Yes
Reference Spectrum Present: Yes
Number of Sampled Component Spectra: 1
Spectrometers: USB4H08886
Integration Time (usec): 5245692 (USB4H08886)
Spectra Averaged: 5 (USB4H08886)
Boxcar Smoothing: 5 (USB4H08886)
Correct for Electrical Dark: Yes (USB4H08886)
Strobe/Lamp Enabled: No (USB4H08886)
Correct for Detector Non-linearity: Yes (USB4H08886)
Correct for Stray Light: Yes (USB4H08886)
Number of Pixels in Processed Spectrum: 3648
>>>>>Begin Processed Spectral Data<<<<<
178.14	-0.000
178.36	-0.000
178.57	-0.000
178.79	-0.000
179.01	-0.000
179.22	-0.000
179.44	-0.000
179.65	-0.000
179.87	-0.000
180.08	-0.000
180.30	-0.000
180.52	-0.000
180.73	-0.000
180.95	-0.000
181.16	-0.000
181.38	-0.000
181.59	-0.000
181.81	-0.000
182.03	-0.000
182.24	-0.000
182.46	-0.000
182.67	-0.000
182.89	-0.000
183.10	-0.000
183.32	-0.000
183.54	-0.000
183.75	-0.000
183.97	-0.000
184.18	-0.000
184.40	-0.000
184.61	-0.000
184.83	-0.000
185.04	-0.000
185.26	-0.000
185.48	-0.000
185.69	-0.000
185.91	-0.000
186.12	-0.000
186.34	-0.000
186.55	-0.000
186.77	-0.000
186.98	-0.000
187.20	-0.000
187.42	-0.000
187.63	-0.000
187.85	-0.000
188.06	-0.000
188.28	-0.000
188.49	-0.000
188.71	-0.000
188.92	-0.000
189.14	-0.000
189.36	-0.000
189.57	-0.000
189.79	-0.000
190.00	-0.000
190.22	-0.000
190.43	-0.000
190.65	-0.000
190.86	-0.000
191.08	-0.000
191.29	-0.000
191.51	-0.000
191.72	-0.000
191.94	-0.000
192.16	-0.000
192.37	-0.000
192.59	-0.000
192.80	-0.000
193.02	-0.000
193.23	-0.000
193.45	-0.000
193.66	-0.000
193.88	-0.000
194.09	-0.000
194.31	-0.000
194.52	-0.000
194.74	-0.000
194.95	-0.000
195.17	-0.000
195.38	-0.000
195.60	-0.000
195.81	-0.000
196.03	-0.000
196.25	-0.000
196.46	-0.000
196.68	-0.000
196.89	-0.000
197.11	-0.000
197.32	-0.000
197.54	-0.000
197.75	-0.000
197.97	-0.000
198.18	-0.000
198.40	-0.000
198.61	-0.000
198.83	-0.000
199.04	-0.000
199.26	-0.000
199.47	-0.000
199.69	-0.000
199.90	-0.000
200.12	-0.000
200.33	-0.000
200.55	-0.000
200.76	-0.000
200.98	-0.000
201.19	-0.000
201.41	-0.000
201.62	-0.000
201.84	-0.000
202.05	-0.000
202.27	-0.000
202.48	-0.000
202.70	-0.000
202.91	-0.000
203.13	-0.000
203.34	-0.000
203.56	-0.000
203.77	-0.000
203.99	-0.000
204.20	-0.000
204.42	-0.000
204.63	-0.000
204.85	-0.000
205.06	-0.000
205.28	-0.000
205.49	-0.000
205.71	-0.000
205.92	-0.000
206.14	-0.000
206.35	-0.000
206.56	-0.000
206.78	-0.000
206.99	-0.000
207.21	-0.000
207.42	-0.000
207.64	-0.000
207.85	-0.000
208.07	-0.000
208.28	-0.000
208.50	-0.000
208.71	-0.000
208.93	-0.000
209.14	-0.000
209.36	-0.000
209.57	-0.000
209.79	-0.000
210.00	-0.000
210.22	-0.000
210.43	-0.000
210.64	-0.000
210.86	-0.000
211.07	-0.000
211.29	-0.000
211.50	-0.000
211.72	-0.000
211.93	-0.000
212.15	-0.000
212.36	-0.000
212.58	-0.000
212.79	-0.000
213.01	-0.000
213.22	-0.000
213.43	-0.000
213.65	-0.000
213.86	-0.000
214.08	-0.000
214.29	-0.000
214.51	-0.000
214.72	-0.000
214.94	-0.000
215.15	-0.000
215.36	-0.000
215.58	-0.000
215.79	-0.000
216.01	-0.000
216.22	-0.000
216.44	-0.000
216.65	-0.000
216.87	-0.000
217.08	-0.000
217.29	-0.000
217.51	-0.000
217.72	-0.000
217.94	-0.000
218.15	-0.000
218.37	-0.000
218.58	-0.000
218.80	-0.000
219.01	-0.000
219.22	-0.000
219.44	-0.000
219.65	-0.000
219.87	-0.000
220.08	-0.000
220.30	-0.000
220.51	-0.000
220.72	-0.000
220.94	-0.000
221.15	-0.000
221.37	-0.000
221.58	-0.000
221.79	-0.000
222.01	-0.000
222.22	-0.000
222.44	-0.000
222.65	-0.000
222.87	-0.000
223.08	-0.000
223.29	-0.000
223.51	-0.000
223.72	-0.000
223.94	-0.000
224.15	-0.000
224.36	-0.000
224.58	-0.000
224.79	-0.000
225.01	-0.000
225.22	-0.000
225.44	-0.000
225.65	-0.000
225.86	-0.000
226.08	-0.000
226.29	-0.000
226.51	-0.000
226.72	-0.000
226.93	-0.000
227.15	-0.000
227.36	-0.000
227.58	-0.000
227.79	-0.000
228.00	-0.000
228.22	-0.000
228.43	-0.000
228.65	-0.000
228.86	-0.000
229.07	-0.000
229.29	-0.000
229.50	-0.000
229.72	-0.000
229.93	-0.000
230.14	-0.000
230.36	-0.000
230.57	-0.000
230.78	-0.000
231.00	-0.000
231.21	-0.000
231.43	-0.000
231.64	-0.000
231.85	-0.000
232.07	-0.000
232.28	-0.000
232.50	-0.000
232.71	-0.000
232.92	-0.000
233.14	-0.000
233.35	-0.000
233.56	-0.000
233.78	-0.000
233.99	-0.000
234.21	-0.000
234.42	-0.000
234.63	-0.000
234.85	-0.000
235.06	-0.000
235.27	-0.000
235.49	-0.000
235.70	-0.000
235.91	-0.000
236.13	-0.000
236.34	-0.000
236.56	-0.000
236.77	-0.000
236.98	-0.000
237.20	-0.000
237.41	-0.000
237.62	-0.000
237.84	-0.000
238.05	-0.000
238.26	-0.000
238.48	-0.000
238.69	-0.000
238.91	-0.000
239.12	-0.000
239.33	-0.000
239.55	-0.000
239.76	-0.000
239.97	-0.000
240.19	-0.000
240.40	-0.000
240.61	-0.000
240.83	-0.000
241.04	-0.000
241.25	-0.000
241.47	-0.000
241.68	-0.000
241.89	-0.000
242.11	-0.000
242.32	-0.000
242.53	-0.000
242.75	-0.000
242.96	-0.000
243.17	-0.000
243.39	-0.000
243.60	-0.000
243.81	-0.000
244.03	-0.000
244.24	-0.000
244.45	-0.000
244.67	-0.000
244.88	-0.000
245.09	-0.000
245.31	-0.000
245.52	-0.000
245.73	-0.000
245.95	-0.000
246.16	-0.000
246.37	-0.000
246.59	-0.000
246.80	-0.000
247.01	-0.000
247.23	-0.000
247.44	-0.000
247.65	-0.000
247.87	-0.000
248.08	-0.000
248.29	-0.000
248.51	-0.000
248.72	-0.000
248.93	-0.000
249.15	-0.000
249.36	-0.000
249.57	-0.000
249.78	-0.000
250.00	-0.000
250.21	-0.000
250.42	-0.000
250.64	-0.000
250.85	-0.000
251.06	-0.000
251.28	-0.000
251.49	-0.000
251.70	-0.000
251.92	-0.000
252.13	-0.000
252.34	-0.000
252.55	-0.000
252.77	-0.000
252.98	-0.000
253.19	-0.000
253.41	-0.000
253.62	-0.000
253.83	-0.000
254.05	-0.000
254.26	-0.000
254.47	-0.000
254.68	-0.000
254.90	-0.000
255.11	-0.000
255.32	-0.000
255.54	-0.000
255.75	-0.000
255.96	-0.000
256.17	-0.000
256.39	-0.000
256.60	-0.000
256.81	-0.000
257.03	-0.000
257.24	-0.000
257.45	-0.000
257.66	-0.000
257.88	-0.000
258.09	-0.000
258.30	-0.000
258.51	-0.000
258.73	-0.000
258.94	-0.000
259.15	-0.000
259.37	-0.000
259.58	-0.000
259.79	-0.000
260.00	-0.000
260.22	-0.000
260.43	-0.000
260.64	-0.000
260.85	-0.000
261.07	-0.000
261.28	-0.000
261.49	-0.000
261.71	-0.000
261.92	-0.000
262.13	-0.000
262.34	-0.000
262.56	-0.000
262.77	-0.000
262.98	-0.000
263.19	-0.000
263.41	-0.000
263.62	-0.000
263.83	-0.000
264.04	-0.000
264.26	-0.000
264.47	-0.000
264.68	-0.000
264.89	-0.000
265.11	-0.000
265.32	-0.000
265.53	-0.000
265.74	-0.000
265.96	-0.000
266.17	-0.000
266.38	-0.000
266.59	-0.000
266.81	-0.000
267.02	-0.000
267.23	-0.000
267.44	-0.000
267.65	-0.000
267.87	-0.000
268.08	-0.000
268.29	-0.000
268.50	-0.000
268.72	-0.000
268.93	-0.000
269.14	-0.000
269.35	-0.000
269.57	-0.000
269.78	-0.000
269.99	-0.000
270.20	-0.000
270.41	-0.000
270.63	-0.000
270.84	-0.000
271.05	-0.000
271.26	-0.000
271.48	-0.000
271.69	-0.000
271.90	-0.000
272.11	-0.000
272.32	-0.000
272.54	-0.000
272.75	-0.000
272.96	-0.000
273.17	-0.000
273.39	-0.000
273.60	-0.000
273.81	-0.000
274.02	-0.000
274.23	-0.000
274.45	-0.000
274.66	-0.000
274.87	-0.000
275.08	-0.000
275.29	-0.000
275.51	-0.000
275.72	-0.000
275.93	-0.000
276.14	-0.000
276.35	-0.000
276.57	-0.000
276.78	-0.000
276.99	-0.000
277.20	-0.000
277.41	-0.000
277.63	-0.000
277.84	-0.000
278.05	-0.000
278.26	-0.000
278.47	-0.000
278.69	-0.000
278.90	-0.000
279.11	-0.000
279.32	-0.000
279.53	-0.000
279.74	-0.000
279.96	-0.000
280.17	-0.000
280.38	-0.000
280.59	-0.000
280.80	-0.000
281.02	-0.000
281.23	-0.000
281.44	-0.000
281.65	-0.000
281.86	-0.000
282.07	-0.000
282.29	-0.000
282.50	-0.000
282.71	-0.000
282.92	-0.000
283.13	-0.000
283.35	-0.000
283.56	-0.000
283.77	-0.000
283.98	-0.000
284.19	-0.000
284.40	-0.000
284.62	-0.000
284.83	3.040
285.04	2.245
285.25	2.008
285.46	1.768
285.67	1.611
285.88	1.693
286.10	1.620
286.31	1.810
286.52	2.250
286.73	2.135
286.94	2.089
287.15	1.922
287.37	2.516
287.58	3.092
287.79	3.260
288.00	-0.000
288.21	-0.000
288.42	2.048
288.63	1.776
288.85	1.541
289.06	1.407
289.27	1.435
289.48	1.421
289.69	1.319
289.90	1.295
290.11	1.301
290.33	1.222
290.54	1.202
290.75	1.252
290.96	1.219
291.17	1.238
291.38	1.250
291.59	1.217
291.81	1.241
292.02	1.237
292.23	1.243
292.44	1.230
292.65	1.250
292.86	1.219
293.07	1.187
293.28	1.200
293.50	1.174
293.71	1.175
293.92	1.187
294.13	1.162
294.34	1.159
294.55	1.147
294.76	1.157
294.97	1.159
295.19	1.164
295.40	1.146
295.61	1.143
295.82	1.173
296.03	1.180
296.24	1.162
296.45	1.179
296.66	1.213
296.87	1.221
297.09	1.227
297.30	1.206
297.51	1.218
297.72	1.222
297.93	1.201
298.14	1.182
298.35	1.166
298.56	1.196
298.77	1.175
298.99	1.164
299.20	1.156
299.41	1.145
299.62	1.150
299.83	1.142
300.04	1.136
300.25	1.152
300.46	1.152
300.67	1.157
300.88	1.136
301.10	1.142
301.31	1.120
301.52	1.122
301.73	1.118
301.94	1.120
302.15	1.122
302.36	1.139
302.57	1.136
302.78	1.124
302.99	1.133
303.20	1.127
303.41	1.123
303.63	1.147
303.84	1.163
304.05	1.159
304.26	1.161
304.47	1.150
304.68	1.134
304.89	1.135
305.10	1.154
305.31	1.136
305.52	1.134
305.73	1.147
305.94	1.129
306.15	1.117
306.37	1.113
306.58	1.103
306.79	1.108
307.00	1.115
307.21	1.114
307.42	1.102
307.63	1.103
307.84	1.126
308.05	1.109
308.26	1.104
308.47	1.112
308.68	1.108
308.89	1.110
309.10	1.106
309.31	1.112
309.52	1.104
309.73	1.101
309.95	1.110
310.16	1.089
310.37	1.092
310.58	1.091
310.79	1.080
311.00	1.079
311.21	1.083
311.42	1.098
311.63	1.090
311.84	1.085
312.05	1.078
312.26	1.065
312.47	1.070
312.68	1.068
312.89	1.082
313.10	1.095
313.31	1.099
313.52	1.087
313.73	1.072
313.94	1.078
314.15	1.092
314.36	1.088
314.57	1.099
314.78	1.105
314.99	1.104
315.21	1.089
315.42	1.078
315.63	1.070
315.84	1.080
316.05	1.079
316.26	1.068
316.47	1.055
316.68	1.071
316.89	1.068
317.10	1.060
317.31	1.065
317.52	1.069
317.73	1.076
317.94	1.080
318.15	1.070
318.36	1.080
318.57	1.090
318.78	1.100
318.99	1.081
319.20	1.090
319.41	1.091
319.62	1.090
319.83	1.098
320.04	1.095
320.25	1.090
320.46	1.098
320.67	1.091
320.88	1.090
321.09	1.086
321.30	1.093
321.51	1.082
321.72	1.083
321.93	1.083
322.14	1.070
322.35	1.061
322.56	1.065
322.77	1.060
322.98	1.055
323.19	1.045
323.40	1.042
323.61	1.039
323.82	1.037
324.03	1.039
324.24	1.046
324.45	1.045
324.66	1.055
324.87	1.057
325.08	1.058
325.29	1.068
325.50	1.071
325.71	1.075
325.92	1.073
326.13	1.074
326.34	1.078
326.55	1.077
326.76	1.080
326.97	1.079
327.18	1.085
327.39	1.080
327.60	1.068
327.80	1.062
328.01	1.057
328.22	1.062
328.43	1.060
328.64	1.052
328.85	1.044
329.06	1.039
329.27	1.039
329.48	1.031
329.69	1.037
329.90	1.037
330.11	1.048
330.32	1.046
330.53	1.042
330.74	1.038
330.95	1.040
331.16	1.039
331.37	1.042
331.58	1.034
331.79	1.037
332.00	1.032
332.21	1.036
332.42	1.034
332.63	1.039
332.83	1.048
333.04	1.061
333.25	1.054
333.46	1.061
333.67	1.058
333.88	1.063
334.09	1.056
334.30	1.066
334.51	1.066
334.72	1.066
334.93	1.065
335.14	1.054
335.35	1.041
335.56	1.042
335.77	1.031
335.98	1.038
336.18	1.033
336.39	1.035
336.60	1.032
336.81	1.035
337.02	1.028
337.23	1.025
337.44	1.028
337.65	1.031
337.86	1.031
338.07	1.034
338.28	1.026
338.49	1.035
338.70	1.034
338.91	1.030
339.11	1.027
339.32	1.030
339.53	1.039
339.74	1.046
339.95	1.044
340.16	1.054
340.37	1.057
340.58	1.064
340.79	1.052
341.00	1.052
341.21	1.048
341.41	1.043
341.62	1.045
341.83	1.035
342.04	1.029
342.25	1.030
342.46	1.018
342.67	1.019
342.88	1.018
343.09	1.018
343.30	1.014
343.50	1.015
343.71	1.015
343.92	1.015
344.13	1.014
344.34	1.013
344.55	1.015
344.76	1.021
344.97	1.013
345.18	1.016
345.38	1.015
345.59	1.025
345.80	1.026
346.01	1.037
346.22	1.041
346.43	1.044
346.64	1.041
346.85	1.038
347.06	1.038
347.26	1.038
347.47	1.032
347.68	1.043
347.89	1.032
348.10	1.038
348.31	1.024
348.52	1.025
348.73	1.019
348.93	1.024
349.14	1.026
349.35	1.029
349.56	1.030
349.77	1.034
349.98	1.033
350.19	1.036
350.39	1.035
350.60	1.046
350.81	1.035
351.02	1.039
351.23	1.036
351.44	1.031
351.65	1.030
351.86	1.034
352.06	1.026
352.27	1.018
352.48	1.020
352.69	1.022
352.90	1.014
353.11	1.016
353.31	1.015
353.52	1.023
353.73	1.029
353.94	1.023
354.15	1.019
354.36	1.020
354.57	1.026
354.77	1.024
354.98	1.022
355.19	1.025
355.40	1.025
355.61	1.026
355.82	1.019
356.02	1.019
356.23	1.017
356.44	1.018
356.65	1.016
356.86	1.009
357.07	1.012
357.27	1.008
357.48	1.004
357.69	1.006
357.90	1.006
358.11	1.007
358.32	1.004
358.52	1.004
358.73	1.005
358.94	1.006
359.15	1.010
359.36	1.006
359.56	1.008
359.77	1.010
359.98	1.004
360.19	1.005
360.40	1.007
360.61	1.010
360.81	1.010
361.02	1.008
361.23	1.010
361.44	1.013
361.65	1.016
361.85	1.015
362.06	1.020
362.27	1.023
362.48	1.023
362.69	1.016
362.89	1.018
363.10	1.026
363.31	1.026
363.52	1.026
363.73	1.017
363.93	1.022
364.14	1.022
364.35	1.015
364.56	1.022
364.77	1.021
364.97	1.021
365.18	1.015
365.39	1.015
365.60	1.014
365.81	1.013
366.01	1.015
366.22	1.008
366.43	1.006
366.64	1.008
366.84	1.000
367.05	0.998
367.26	0.997
367.47	1.002
367.68	0.995
367.88	1.000
368.09	1.000
368.30	0.998
368.51	1.003
368.71	0.999
368.92	0.997
369.13	1.003
369.34	1.006
369.55	1.006
369.75	1.004
369.96	1.000
370.17	1.001
370.38	1.006
370.58	1.007
370.79	1.002
371.00	1.005
371.21	1.009
371.41	1.003
371.62	1.000
371.83	1.005
372.04	1.001
372.24	1.007
372.45	1.001
372.66	0.996
372.87	1.002
373.07	1.002
373.28	1.003
373.49	0.998
373.70	1.001
373.90	1.000
374.11	0.996
374.32	0.998
374.53	0.998
374.73	1.004
374.94	1.002
375.15	0.997
375.36	0.997
375.56	0.993
375.77	0.992
375.98	0.990
376.19	0.989
376.39	0.995
376.60	0.993
376.81	0.990
377.02	0.988
377.22	0.995
377.43	0.996
377.64	0.999
377.84	0.998
378.05	0.998
378.26	0.995
378.47	0.999
378.67	0.996
378.88	0.998
379.09	0.998
379.30	0.995
379.50	0.992
379.71	0.989
379.92	0.985
380.12	0.987
380.33	0.994
380.54	0.995
380.75	0.989
380.95	0.988
381.16	0.990
381.37	0.991
381.57	0.993
381.78	0.992
381.99	0.990
382.20	0.994
382.40	0.997
382.61	0.994
382.82	0.996
383.02	1.002
383.23	1.002
383.44	1.002
383.64	1.003
383.85	0.999
384.06	0.997
384.27	1.000
384.47	1.002
384.68	0.998
384.89	0.995
385.09	0.997
385.30	0.997
385.51	1.000
385.71	0.994
385.92	0.991
386.13	0.990
386.33	0.994
386.54	0.994
386.75	0.990
386.95	0.992
387.16	0.997
387.37	0.995
387.58	0.995
387.78	0.991
387.99	0.993
388.20	0.992
388.40	0.997
388.61	0.990
388.82	0.995
389.02	0.992
389.23	0.989
389.44	0.989
389.64	0.993
389.85	0.987
390.06	0.986
390.26	0.982
390.47	0.984
390.68	0.985
390.88	0.991
391.09	0.984
391.30	0.990
391.50	0.991
391.71	0.990
391.92	0.984
392.12	0.987
392.33	0.988
392.53	0.988
392.74	0.987
392.95	0.982
393.15	0.979
393.36	0.979
393.57	0.979
393.77	0.977
393.98	0.978
394.19	0.980
394.39	0.977
394.60	0.974
394.81	0.976
395.01	0.979
395.22	0.980
395.43	0.979
395.63	0.979
395.84	0.973
396.04	0.979
396.25	0.973
396.46	0.972
396.66	0.973
396.87	0.973
397.08	0.975
397.28	0.975
397.49	0.974
397.69	0.978
397.90	0.978
398.11	0.981
398.31	0.975
398.52	0.975
398.73	0.977
398.93	0.979
399.14	0.979
399.34	0.978
399.55	0.977
399.76	0.979
399.96	0.973
400.17	0.975
400.37	0.975
400.58	0.975
400.79	0.975
400.99	0.969
401.20	0.968
401.41	0.968
401.61	0.965
401.82	0.963
402.02	0.965
402.23	0.968
402.44	0.967
402.64	0.963
402.85	0.964
403.05	0.964
403.26	0.967
403.47	0.967
403.67	0.967
403.88	0.968
404.08	0.969
404.29	0.968
404.50	0.970
404.70	0.969
404.91	0.972
405.11	0.973
405.32	0.976
405.52	0.976
405.73	0.977
405.94	0.978
406.14	0.975
406.35	0.974
406.55	0.975
406.76	0.970
406.97	0.969
407.17	0.969
407.38	0.971
407.58	0.968
407.79	0.965
407.99	0.962
408.20	0.960
408.41	0.962
408.61	0.964
408.82	0.961
409.02	0.963
409.23	0.965
409.43	0.962
409.64	0.957
409.84	0.961
410.05	0.961
410.26	0.964
410.46	0.966
410.67	0.968
410.87	0.967
411.08	0.964
411.28	0.961
411.49	0.960
411.69	0.959
411.90	0.964
412.11	0.963
412.31	0.963
412.52	0.961
412.72	0.960
412.93	0.957
413.13	0.958
413.34	0.962
413.54	0.964
413.75	0.967
413.95	0.971
414.16	0.970
414.37	0.967
414.57	0.969
414.78	0.967
414.98	0.971
415.19	0.970
415.39	0.971
415.60	0.968
415.80	0.966
416.01	0.964
416.21	0.960
416.42	0.960
416.62	0.962
416.83	0.960
417.03	0.960
417.24	0.959
417.44	0.958
417.65	0.959
417.86	0.960
418.06	0.961
418.27	0.960
418.47	0.961
418.68	0.958
418.88	0.956
419.09	0.957
419.29	0.959
419.50	0.957
419.70	0.960
419.91	0.959
420.11	0.960
420.32	0.959
420.52	0.960
420.73	0.958
420.93	0.958
421.14	0.962
421.34	0.963
421.55	0.966
421.75	0.965
421.96	0.963
422.16	0.962
422.37	0.960
422.57	0.963
422.78	0.961
422.98	0.965
423.19	0.968
423.39	0.966
423.60	0.965
423.80	0.960
424.01	0.961
424.21	0.960
424.42	0.959
424.62	0.961
424.83	0.960
425.03	0.960
425.23	0.957
425.44	0.953
425.64	0.950
425.85	0.949
426.05	0.950
426.26	0.948
426.46	0.948
426.67	0.947
426.87	0.944
427.08	0.944
427.28	0.943
427.49	0.944
427.69	0.943
427.90	0.943
428.10	0.948
428.31	0.951
428.51	0.955
428.71	0.956
428.92	0.955
429.12	0.959
429.33	0.960
429.53	0.960
429.74	0.959
429.94	0.963
430.15	0.964
430.35	0.960
430.56	0.958
430.76	0.956
430.96	0.959
431.17	0.960
431.37	0.961
431.58	0.962
431.78	0.962
431.99	0.963
432.19	0.959
432.40	0.961
432.60	0.965
432.80	0.965
433.01	0.965
433.21	0.963
433.42	0.962
433.62	0.961
433.83	0.962
434.03	0.961
434.23	0.961
434.44	0.961
434.64	0.958
434.85	0.955
435.05	0.959
435.26	0.958
435.46	0.960
435.66	0.959
435.87	0.959
436.07	0.957
436.28	0.960
436.48	0.965
436.69	0.969
436.89	0.969
437.09	0.969
437.30	0.970
437.50	0.971
437.71	0.968
437.91	0.966
438.11	0.968
438.32	0.966
438.52	0.963
438.73	0.962
438.93	0.963
439.13	0.963
439.34	0.964
439.54	0.960
439.75	0.963
439.95	0.967
440.15	0.968
440.36	0.966
440.56	0.968
440.77	0.967
440.97	0.968
441.17	0.963
441.38	0.965
441.58	0.967
441.79	0.967
441.99	0.967
442.19	0.964
442.40	0.962
442.60	0.961
442.81	0.963
443.01	0.964
443.21	0.963
443.42	0.967
443.62	0.963
443.82	0.964
444.03	0.966
444.23	0.966
444.44	0.964
444.64	0.969
444.84	0.973
445.05	0.974
445.25	0.975
445.45	0.973
445.66	0.969
445.86	0.973
446.06	0.970
446.27	0.968
446.47	0.964
446.68	0.965
446.88	0.961
447.08	0.959
447.29	0.956
447.49	0.956
447.69	0.954
447.90	0.957
448.10	0.952
448.30	0.953
448.51	0.951
448.71	0.954
448.91	0.952
449.12	0.957
449.32	0.953
449.52	0.954
449.73	0.951
449.93	0.953
450.14	0.951
450.34	0.953
450.54	0.950
450.75	0.954
450.95	0.953
451.15	0.955
451.36	0.952
451.56	0.957
451.76	0.955
451.97	0.960
452.17	0.959
452.37	0.961
452.58	0.965
452.78	0.967
452.98	0.968
453.19	0.972
453.39	0.970
453.59	0.970
453.79	0.969
454.00	0.971
454.20	0.969
454.40	0.972
454.61	0.974
454.81	0.972
455.01	0.970
455.22	0.969
455.42	0.967
455.62	0.968
455.83	0.965
456.03	0.963
456.23	0.962
456.44	0.960
456.64	0.959
456.84	0.956
457.04	0.959
457.25	0.964
457.45	0.964
457.65	0.966
457.86	0.971
458.06	0.976
458.26	0.980
458.47	0.980
458.67	0.981
458.87	0.979
459.07	0.978
459.28	0.971
459.48	0.968
459.68	0.966
459.89	0.963
460.09	0.961
460.29	0.959
460.49	0.955
460.70	0.956
460.90	0.957
461.10	0.956
461.31	0.961
461.51	0.963
461.71	0.967
461.91	0.966
462.12	0.970
462.32	0.971
462.52	0.969
462.72	0.970
462.93	0.967
463.13	0.965
463.33	0.968
463.53	0.966
463.74	0.969
463.94	0.966
464.14	0.970
464.35	0.969
464.55	0.968
464.75	0.973
464.95	0.975
465.16	0.973
465.36	0.977
465.56	0.975
465.76	0.976
465.97	0.977
466.17	0.975
466.37	0.971
466.57	0.968
466.78	0.969
466.98	0.966
467.18	0.965
467.38	0.964
467.59	0.962
467.79	0.962
467.99	0.962
468.19	0.958
468.39	0.958
468.60	0.958
468.80	0.957
469.00	0.956
469.20	0.958
469.41	0.960
469.61	0.960
469.81	0.961
470.01	0.965
470.22	0.964
470.42	0.966
470.62	0.969
470.82	0.971
471.02	0.974
471.23	0.972
471.43	0.971
471.63	0.972
471.83	0.976
472.04	0.973
472.24	0.970
472.44	0.967
472.64	0.969
472.84	0.969
473.05	0.966
473.25	0.962
473.45	0.964
473.65	0.963
473.85	0.959
474.06	0.956
474.26	0.956
474.46	0.954
474.66	0.958
474.86	0.957
475.07	0.957
475.27	0.961
475.47	0.964
475.67	0.962
475.87	0.960
476.08	0.962
476.28	0.965
476.48	0.969
476.68	0.971
476.88	0.969
477.09	0.963
477.29	0.962
477.49	0.962
477.69	0.963
477.89	0.963
478.09	0.965
478.30	0.963
478.50	0.964
478.70	0.960
478.90	0.962
479.10	0.960
479.31	0.960
479.51	0.962
479.71	0.960
479.91	0.958
480.11	0.957
480.31	0.956
480.52	0.955
480.72	0.955
480.92	0.953
481.12	0.953
481.32	0.957
481.52	0.957
481.72	0.953
481.93	0.952
482.13	0.955
482.33	0.958
482.53	0.959
482.73	0.962
482.93	0.959
483.14	0.962
483.34	0.960
483.54	0.960
483.74	0.961
483.94	0.962
484.14	0.961
484.34	0.961
484.55	0.959
484.75	0.957
484.95	0.954
485.15	0.956
485.35	0.955
485.55	0.958
485.75	0.956
485.96	0.955
486.16	0.954
486.36	0.956
486.56	0.954
486.76	0.957
486.96	0.959
487.16	0.961
487.36	0.961
487.57	0.962
487.77	0.961
487.97	0.960
488.17	0.963
488.37	0.966
488.57	0.966
488.77	0.968
488.97	0.966
489.18	0.966
489.38	0.963
489.58	0.960
489.78	0.962
489.98	0.961
490.18	0.963
490.38	0.961
490.58	0.960
490.78	0.961
490.98	0.958
491.19	0.960
491.39	0.959
491.59	0.961
491.79	0.960
491.99	0.957
492.19	0.959
492.39	0.958
492.59	0.958
492.79	0.956
492.99	0.953
493.20	0.951
493.40	0.950
493.60	0.949
493.80	0.951
494.00	0.953
494.20	0.953
494.40	0.952
494.60	0.951
494.80	0.950
495.00	0.950
495.20	0.954
495.40	0.954
495.61	0.952
495.81	0.951
496.01	0.948
496.21	0.946
496.41	0.950
496.61	0.950
496.81	0.951
497.01	0.953
497.21	0.953
497.41	0.952
497.61	0.953
497.81	0.955
498.01	0.957
498.21	0.958
498.41	0.960
498.61	0.957
498.82	0.956
499.02	0.954
499.22	0.953
499.42	0.954
499.62	0.954
499.82	0.957
500.02	0.956
500.22	0.955
500.42	0.954
500.62	0.955
500.82	0.955
501.02	0.953
501.22	0.953
501.42	0.956
501.62	0.955
501.82	0.953
502.02	0.953
502.22	0.953
502.42	0.954
502.62	0.954
502.82	0.953
503.02	0.957
503.22	0.958
503.42	0.959
503.63	0.959
503.83	0.959
504.03	0.962
504.23	0.962
504.43	0.964
504.63	0.962
504.83	0.965
505.03	0.965
505.23	0.961
505.43	0.962
505.63	0.961
505.83	0.962
506.03	0.961
506.23	0.958
506.43	0.956
506.63	0.956
506.83	0.957
507.03	0.956
507.23	0.956
507.43	0.958
507.63	0.956
507.83	0.957
508.03	0.958
508.23	0.958
508.43	0.960
508.63	0.961
508.83	0.959
509.03	0.957
509.23	0.959
509.43	0.960
509.63	0.962
509.83	0.961
510.03	0.960
510.23	0.957
510.43	0.956
510.63	0.954
510.83	0.952
511.03	0.953
511.23	0.957
511.43	0.954
511.63	0.951
511.83	0.947
512.03	0.949
512.22	0.952
512.42	0.956
512.62	0.961
512.82	0.964
513.02	0.965
513.22	0.966
513.42	0.967
513.62	0.967
513.82	0.969
514.02	0.970
514.22	0.969
514.42	0.969
514.62	0.964
514.82	0.960
515.02	0.958
515.22	0.957
515.42	0.959
515.62	0.955
515.82	0.958
516.02	0.956
516.22	0.956
516.42	0.960
516.62	0.956
516.82	0.956
517.01	0.958
517.21	0.961
517.41	0.961
517.61	0.962
517.81	0.965
518.01	0.965
518.21	0.968
518.41	0.972
518.61	0.969
518.81	0.969
519.01	0.972
519.21	0.974
519.41	0.973
519.61	0.977
519.81	0.978
520.00	0.981
520.20	0.977
520.40	0.974
520.60	0.970
520.80	0.973
521.00	0.971
521.20	0.970
521.40	0.966
521.60	0.965
521.80	0.963
522.00	0.958
522.20	0.952
522.39	0.954
522.59	0.956
522.79	0.961
522.99	0.959
523.19	0.965
523.39	0.968
523.59	0.974
523.79	0.973
523.99	0.971
524.19	0.970
524.38	0.972
524.58	0.974
524.78	0.974
524.98	0.968
525.18	0.968
525.38	0.966
525.58	0.962
525.78	0.960
525.98	0.959
526.18	0.958
526.37	0.963
526.57	0.961
526.77	0.960
526.97	0.957
527.17	0.960
527.37	0.961
527.57	0.959
527.77	0.957
527.96	0.959
528.16	0.962
528.36	0.966
528.56	0.965
528.76	0.970
528.96	0.971
529.16	0.973
529.36	0.971
529.55	0.973
529.75	0.977
529.95	0.979
530.15	0.976
530.35	0.974
530.55	0.972
530.75	0.968
530.94	0.968
531.14	0.969
531.34	0.970
531.54	0.975
531.74	0.970
531.94	0.967
532.13	0.968
532.33	0.971
532.53	0.973
532.73	0.978
532.93	0.978
533.13	0.975
533.33	0.974
533.52	0.973
533.72	0.969
533.92	0.974
534.12	0.978
534.32	0.978
534.52	0.974
534.71	0.974
534.91	0.967
535.11	0.970
535.31	0.968
535.51	0.969
535.71	0.966
535.90	0.968
536.10	0.962
536.30	0.959
536.50	0.959
536.70	0.960
536.89	0.960
537.09	0.966
537.29	0.965
537.49	0.966
537.69	0.963
537.89	0.967
538.08	0.969
538.28	0.972
538.48	0.971
538.68	0.970
538.88	0.969
539.07	0.971
539.27	0.967
539.47	0.969
539.67	0.971
539.87	0.972
540.06	0.970
540.26	0.969
540.46	0.967
540.66	0.971
540.86	0.974
541.05	0.975
541.25	0.976
541.45	0.980
541.65	0.977
541.84	0.978
542.04	0.976
542.24	0.977
542.44	0.977
542.64	0.979
542.83	0.975
543.03	0.975
543.23	0.979
543.43	0.975
543.62	0.977
543.82	0.977
544.02	0.973
544.22	0.976
544.42	0.973
544.61	0.977
544.81	0.981
545.01	0.982
545.21	0.978
545.40	0.974
545.60	0.974
545.80	0.969
546.00	0.969
546.19	0.972
546.39	0.970
546.59	0.975
546.79	0.976
546.98	0.977
547.18	0.974
547.38	0.975
547.58	0.975
547.77	0.976
547.97	0.978
548.17	0.979
548.37	0.980
548.56	0.984
548.76	0.981
548.96	0.975
549.16	0.970
549.35	0.977
549.55	0.980
549.75	0.980
549.95	0.977
550.14	0.979
550.34	0.978
550.54	0.975
550.73	0.970
550.93	0.975
551.13	0.980
551.33	0.981
551.52	0.976
551.72	0.976
551.92	0.976
552.12	0.981
552.31	0.977
552.51	0.982
552.71	0.982
552.90	0.983
553.10	0.977
553.30	0.976
553.50	0.979
553.69	0.982
553.89	0.982
554.09	0.981
554.28	0.977
554.48	0.977
554.68	0.972
554.87	0.973
555.07	0.979
555.27	0.982
555.47	0.979
555.66	0.978
555.86	0.981
556.06	0.981
556.25	0.987
556.45	0.988
556.65	0.993
556.84	0.997
557.04	1.002
557.24	0.997
557.43	0.996
557.63	1.002
557.83	1.002
558.02	1.003
558.22	1.000
558.42	0.999
558.61	1.001
558.81	1.000
559.01	0.997
559.21	0.992
559.40	0.995
559.60	0.998
559.80	0.995
559.99	0.995
560.19	0.991
560.39	0.996
560.58	0.994
560.78	0.998
560.97	0.993
561.17	0.996
561.37	0.999
561.56	0.998
561.76	0.998
561.96	0.999
562.15	0.997
562.35	0.994
562.55	0.990
562.74	0.993
562.94	0.988
563.14	0.990
563.33	0.991
563.53	0.991
563.73	0.993
563.92	0.992
564.12	0.989
564.31	0.985
564.51	0.985
564.71	0.986
564.90	0.980
565.10	0.981
565.30	0.981
565.49	0.981
565.69	0.978
565.89	0.980
566.08	0.981
566.28	0.981
566.47	0.983
566.67	0.986
566.87	0.990
567.06	0.993
567.26	0.989
567.46	0.995
567.65	0.990
567.85	0.990
568.04	0.987
568.24	0.985
568.44	0.983
568.63	0.985
568.83	0.988
569.02	0.987
569.22	0.987
569.42	0.992
569.61	0.986
569.81	0.989
570.00	0.986
570.20	0.982
570.40	0.984
570.59	0.983
570.79	0.980
570.98	0.978
571.18	0.975
571.38	0.974
571.57	0.973
571.77	0.976
571.96	0.972
572.16	0.976
572.35	0.976
572.55	0.975
572.75	0.978
572.94	0.978
573.14	0.975
573.33	0.976
573.53	0.975
573.73	0.973
573.92	0.974
574.12	0.978
574.31	0.975
574.51	0.974
574.70	0.971
574.90	0.969
575.09	0.968
575.29	0.969
575.49	0.967
575.68	0.970
575.88	0.968
576.07	0.965
576.27	0.961
576.46	0.962
576.66	0.962
576.86	0.963
577.05	0.966
577.25	0.969
577.44	0.969
577.64	0.971
577.83	0.971
578.03	0.971
578.22	0.973
578.42	0.975
578.61	0.973
578.81	0.973
579.00	0.971
579.20	0.970
579.40	0.966
579.59	0.969
579.79	0.970
579.98	0.968
580.18	0.967
580.37	0.967
580.57	0.965
580.76	0.967
580.96	0.967
581.15	0.969
581.35	0.967
581.54	0.969
581.74	0.965
581.93	0.964
582.13	0.964
582.32	0.966
582.52	0.964
582.71	0.965
582.91	0.967
583.10	0.968
583.30	0.965
583.49	0.968
583.69	0.965
583.88	0.967
584.08	0.964
584.27	0.963
584.47	0.961
584.66	0.964
584.86	0.964
585.05	0.961
585.25	0.960
585.44	0.963
585.64	0.965
585.83	0.968
586.03	0.969
586.22	0.972
586.42	0.974
586.61	0.975
586.81	0.974
587.00	0.974
587.20	0.974
587.39	0.974
587.59	0.973
587.78	0.972
587.98	0.967
588.17	0.968
588.37	0.968
588.56	0.965
588.76	0.965
588.95	0.965
589.15	0.968
589.34	0.969
589.54	0.968
589.73	0.971
589.92	0.970
590.12	0.973
590.31	0.976
590.51	0.976
590.70	0.979
590.90	0.979
591.09	0.980
591.29	0.978
591.48	0.978
591.68	0.978
591.87	0.977
592.06	0.978
592.26	0.977
592.45	0.975
592.65	0.972
592.84	0.974
593.04	0.972
593.23	0.972
593.43	0.972
593.62	0.972
593.81	0.972
594.01	0.972
594.20	0.972
594.40	0.975
594.59	0.973
594.79	0.974
594.98	0.974
595.17	0.976
595.37	0.980
595.56	0.979
595.76	0.982
595.95	0.984
596.14	0.983
596.34	0.982
596.53	0.979
596.73	0.980
596.92	0.979
597.12	0.976
597.31	0.972
597.50	0.969
597.70	0.967
597.89	0.964
598.09	0.965
598.28	0.962
598.47	0.960
598.67	0.961
598.86	0.963
599.06	0.966
599.25	0.964
599.44	0.965
599.64	0.964
599.83	0.968
600.03	0.966
600.22	0.964
600.41	0.964
600.61	0.964
600.80	0.964
601.00	0.961
601.19	0.963
601.38	0.964
601.58	0.965
601.77	0.969
601.96	0.965
602.16	0.967
602.35	0.967
602.55	0.972
602.74	0.972
602.93	0.974
603.13	0.973
603.32	0.973
603.51	0.976
603.71	0.974
603.90	0.971
604.09	0.972
604.29	0.969
604.48	0.970
604.68	0.966
604.87	0.967
605.06	0.968
605.26	0.969
605.45	0.965
605.64	0.964
605.84	0.964
606.03	0.963
606.22	0.964
606.42	0.967
606.61	0.970
606.80	0.970
607.00	0.973
607.19	0.971
607.38	0.975
607.58	0.979
607.77	0.978
607.96	0.980
608.16	0.985
608.35	0.984
608.54	0.985
608.74	0.983
608.93	0.983
609.12	0.979
609.32	0.982
609.51	0.977
609.70	0.973
609.90	0.973
610.09	0.974
610.28	0.970
610.48	0.971
610.67	0.973
610.86	0.976
611.06	0.977
611.25	0.974
611.44	0.972
611.64	0.977
611.83	0.980
612.02	0.982
612.21	0.981
612.41	0.982
612.60	0.985
612.79	0.981
612.99	0.981
613.18	0.979
613.37	0.983
613.57	0.988
613.76	0.983
613.95	0.985
614.14	0.982
614.34	0.982
614.53	0.981
614.72	0.976
614.92	0.982
615.11	0.981
615.30	0.985
615.49	0.987
615.69	0.983
615.88	0.986
616.07	0.987
616.26	0.991
616.46	0.992
616.65	0.995
616.84	1.003
617.04	0.999
617.23	0.996
617.42	0.993
617.61	0.988
617.81	0.986
618.00	0.989
618.19	0.988
618.38	0.985
618.58	0.991
618.77	0.993
618.96	0.992
619.15	0.996
619.35	1.004
619.54	1.006
619.73	1.009
619.92	1.014
620.12	1.007
620.31	1.010
620.50	1.007
620.69	1.005
620.89	1.003
621.08	1.006
621.27	0.997
621.46	0.997
621.66	0.995
621.85	0.996
622.04	1.000
622.23	1.008
622.43	1.007
622.62	1.011
622.81	1.005
623.00	1.004
623.19	0.996
623.39	0.998
623.58	0.994
623.77	1.000
623.96	0.998
624.16	0.999
624.35	0.998
624.54	0.997
624.73	0.994
624.92	1.000
625.12	0.999
625.31	0.997
625.50	0.997
625.69	0.997
625.88	0.999
626.08	1.005
626.27	1.003
626.46	1.003
626.65	0.998
626.84	0.996
627.04	0.991
627.23	0.998
627.42	1.003
627.61	1.003
627.80	1.000
628.00	1.001
628.19	0.993
628.38	0.987
628.57	0.985
628.76	0.991
628.96	0.993
629.15	0.995
629.34	0.997
629.53	0.999
629.72	1.003
629.91	1.006
630.11	0.998
630.30	1.001
630.49	1.000
630.68	1.001
630.87	1.003
631.06	1.003
631.26	1.005
631.45	1.005
631.64	0.998
631.83	0.997
632.02	0.999
632.21	1.004
632.41	1.003
632.60	1.007
632.79	1.003
632.98	1.001
633.17	1.003
633.36	1.001
633.55	0.999
633.75	1.009
633.94	1.007
634.13	1.007
634.32	1.007
634.51	1.010
634.70	1.010
634.89	1.013
635.09	1.010
635.28	1.010
635.47	1.010
635.66	1.005
635.85	1.005
636.04	1.010
636.23	1.010
636.43	1.006
636.62	1.008
636.81	1.008
637.00	1.002
637.19	1.001
637.38	1.006
637.57	1.011
637.76	1.017
637.95	1.010
638.15	1.005
638.34	1.009
638.53	1.010
638.72	1.005
638.91	1.009
639.10	1.014
639.29	1.014
639.48	1.008
639.67	1.000
639.87	1.003
640.06	1.010
640.25	1.015
640.44	1.003
640.63	1.008
640.82	1.009
641.01	1.014
641.20	1.017
641.39	1.025
641.58	1.033
641.78	1.034
641.97	1.033
642.16	1.027
642.35	1.021
642.54	1.023
642.73	1.026
642.92	1.028
643.11	1.026
643.30	1.025
643.49	1.016
643.68	1.009
643.87	1.007
644.06	1.005
644.25	1.010
644.45	1.020
644.64	1.030
644.83	1.023
645.02	1.025
645.21	1.025
645.40	1.018
645.59	1.026
645.78	1.028
645.97	1.030
646.16	1.025
646.35	1.022
646.54	1.007
646.73	1.001
646.92	1.007
647.11	1.006
647.30	1.005
647.49	1.004
647.68	1.002
647.88	1.002
648.07	1.011
648.26	1.009
648.45	1.005
648.64	1.018
648.83	1.014
649.02	1.007
649.21	0.998
649.40	0.998
649.59	0.999
649.78	1.003
649.97	0.999
650.16	0.992
650.35	0.988
650.54	0.995
650.73	0.985
650.92	0.988
651.11	0.993
651.30	0.996
651.49	0.993
651.68	0.994
651.87	0.990
652.06	0.993
652.25	0.998
652.44	1.008
652.63	1.003
652.82	1.003
653.01	0.999
653.20	0.991
653.39	0.994
653.58	0.988
653.77	0.982
653.96	0.979
654.15	0.975
654.34	0.969
654.53	0.966
654.72	0.962
654.91	0.965
655.10	0.965
655.29	0.967
655.48	0.963
655.67	0.964
655.86	0.965
656.05	0.965
656.24	0.963
656.43	0.962
656.62	0.963
656.81	0.961
657.00	0.957
657.19	0.959
657.38	0.957
657.57	0.961
657.76	0.959
657.95	0.963
658.14	0.964
658.33	0.971
658.51	0.975
658.70	0.975
658.89	0.979
659.08	0.984
659.27	0.981
659.46	0.986
659.65	0.987
659.84	0.997
660.03	0.999
660.22	0.996
660.41	0.994
660.60	1.002
660.79	1.005
660.98	1.002
661.17	1.000
661.36	1.005
661.55	1.011
661.74	1.002
661.92	0.996
662.11	0.996
662.30	1.000
662.49	1.001
662.68	0.999
662.87	0.989
663.06	0.995
663.25	0.993
663.44	0.989
663.63	0.985
663.82	0.990
664.01	0.987
664.20	0.987
664.38	0.986
664.57	0.981
664.76	0.973
664.95	0.975
665.14	0.970
665.33	0.979
665.52	0.976
665.71	0.971
665.90	0.974
666.09	0.974
666.28	0.970
666.46	0.963
666.65	0.963
666.84	0.971
667.03	0.977
667.22	0.979
667.41	0.974
667.60	0.981
667.79	0.979
667.98	0.973
668.16	0.970
668.35	0.970
668.54	0.976
668.73	0.976
668.92	0.976
669.11	0.974
669.30	0.980
669.49	0.984
669.67	0.985
669.86	0.986
670.05	0.983
670.24	0.987
670.43	0.992
670.62	0.991
670.81	0.990
671.00	0.982
671.18	0.976
671.37	0.974
671.56	0.970
671.75	0.965
671.94	0.971
672.13	0.977
672.32	0.978
672.50	0.977
672.69	0.976
672.88	0.974
673.07	0.977
673.26	0.978
673.45	0.975
673.63	0.976
673.82	0.982
674.01	0.976
674.20	0.973
674.39	0.974
674.58	0.973
674.76	0.981
674.95	0.987
675.14	0.991
675.33	0.992
675.52	0.994
675.71	0.997
675.89	0.996
676.08	1.000
676.27	1.001
676.46	1.004
676.65	1.005
676.84	0.995
677.02	0.990
677.21	0.982
677.40	0.984
677.59	0.985
677.78	0.979
677.96	0.973
678.15	0.973
678.34	0.975
678.53	0.967
678.72	0.957
678.90	0.964
679.09	0.969
679.28	0.976
679.47	0.975
679.66	0.972
679.84	0.977
680.03	0.981
680.22	0.983
680.41	0.978
680.60	0.982
680.78	0.987
680.97	0.985
681.16	0.982
681.35	0.976
681.53	0.975
681.72	0.975
681.91	0.969
682.10	0.968
682.29	0.961
682.47	0.964
682.66	0.964
682.85	0.960
683.04	0.962
683.22	0.958
683.41	0.958
683.60	0.960
683.79	0.957
683.97	0.955
684.16	0.956
684.35	0.958
684.54	0.957
684.72	0.954
684.91	0.955
685.10	0.949
685.29	0.951
685.47	0.954
685.66	0.955
685.85	0.954
686.04	0.957
686.22	0.951
686.41	0.948
686.60	0.946
686.79	0.946
686.97	0.945
687.16	0.945
687.35	0.943
687.54	0.939
687.72	0.932
687.91	0.935
688.10	0.932
688.29	0.935
688.47	0.934
688.66	0.938
688.85	0.936
689.03	0.940
689.22	0.939
689.41	0.939
689.60	0.941
689.78	0.949
689.97	0.947
690.16	0.949
690.34	0.951
690.53	0.953
690.72	0.948
690.91	0.951
691.09	0.950
691.28	0.953
691.47	0.958
691.65	0.959
691.84	0.957
692.03	0.959
692.21	0.958
692.40	0.953
692.59	0.953
692.77	0.957
692.96	0.955
693.15	0.951
693.34	0.950
693.52	0.948
693.71	0.945
693.90	0.942
694.08	0.938
694.27	0.941
694.46	0.940
694.64	0.939
694.83	0.935
695.02	0.940
695.20	0.944
695.39	0.945
695.58	0.942
695.76	0.941
695.95	0.938
696.14	0.940
696.32	0.936
696.51	0.939
696.70	0.936
696.88	0.935
697.07	0.930
697.26	0.927
697.44	0.926
697.63	0.928
697.81	0.927
698.00	0.932
698.19	0.931
698.37	0.931
698.56	0.928
698.75	0.931
698.93	0.930
699.12	0.934
699.31	0.931
699.49	0.930
699.68	0.929
699.87	0.929
700.05	0.922
700.24	0.925
700.42	0.923
700.61	0.927
700.80	0.927
700.98	0.929
701.17	0.925
701.36	0.927
701.54	0.924
701.73	0.920
701.91	0.922
702.10	0.924
702.29	0.929
702.47	0.933
702.66	0.935
702.84	0.933
703.03	0.932
703.22	0.933
703.40	0.935
703.59	0.938
703.77	0.938
703.96	0.940
704.15	0.941
704.33	0.938
704.52	0.931
704.70	0.927
704.89	0.927
705.08	0.932
705.26	0.933
705.45	0.929
705.63	0.926
705.82	0.931
706.00	0.927
706.19	0.927
706.38	0.927
706.56	0.927
706.75	0.928
706.93	0.930
707.12	0.927
707.30	0.922
707.49	0.924
707.68	0.928
707.86	0.923
708.05	0.922
708.23	0.923
708.42	0.922
708.60	0.921
708.79	0.919
708.98	0.919
709.16	0.918
709.35	0.920
709.53	0.919
709.72	0.919
709.90	0.917
710.09	0.918
710.27	0.915
710.46	0.911
710.64	0.911
710.83	0.909
711.02	0.908
711.20	0.912
711.39	0.913
711.57	0.914
711.76	0.912
711.94	0.919
712.13	0.919
712.31	0.920
712.50	0.925
712.68	0.929
712.87	0.929
713.05	0.929
713.24	0.924
713.42	0.922
713.61	0.920
713.79	0.922
713.98	0.917
714.16	0.914
714.35	0.913
714.54	0.914
714.72	0.912
714.91	0.913
715.09	0.909
715.28	0.906
715.46	0.907
715.65	0.908
715.83	0.907
716.02	0.910
716.20	0.914
716.39	0.916
716.57	0.914
716.76	0.912
716.94	0.914
717.12	0.914
717.31	0.915
717.49	0.915
717.68	0.912
717.86	0.909
718.05	0.903
718.23	0.896
718.42	0.891
718.60	0.884
718.79	0.883
718.97	0.878
719.16	0.879
719.34	0.878
719.53	0.878
719.71	0.882
719.90	0.878
720.08	0.879
720.27	0.879
720.45	0.877
720.63	0.878
720.82	0.872
721.00	0.874
721.19	0.870
721.37	0.869
721.56	0.862
721.74	0.857
721.93	0.854
722.11	0.851
722.30	0.853
722.48	0.853
722.66	0.852
722.85	0.853
723.03	0.849
723.22	0.854
723.40	0.857
723.59	0.861
723.77	0.858
723.95	0.861
724.14	0.859
724.32	0.856
724.51	0.854
724.69	0.861
724.88	0.864
725.06	0.865
725.24	0.860
725.43	0.862
725.61	0.867
725.80	0.873
725.98	0.876
726.16	0.878
726.35	0.875
726.53	0.876
726.72	0.865
726.90	0.860
727.09	0.861
727.27	0.857
727.45	0.850
727.64	0.836
727.82	0.827
728.01	0.818
728.19	0.821
728.37	0.817
728.56	0.813
728.74	0.812
728.92	0.815
729.11	0.817
729.29	0.816
729.48	0.815
729.66	0.822
729.84	0.824
730.03	0.823
730.21	0.819
730.40	0.820
730.58	0.825
730.76	0.825
730.95	0.824
731.13	0.818
731.31	0.812
731.50	0.801
731.68	0.799
731.86	0.801
732.05	0.794
732.23	0.789
732.42	0.793
732.60	0.781
732.78	0.777
732.97	0.762
733.15	0.756
733.33	0.753
733.52	0.750
733.70	0.743
733.88	0.733
734.07	0.729
734.25	0.723
734.43	0.720
734.62	0.722
734.80	0.724
734.98	0.726
735.17	0.722
735.35	0.724
735.53	0.725
735.72	0.717
735.90	0.712
736.08	0.715
736.27	0.712
736.45	0.709
736.63	0.710
736.82	0.702
737.00	0.696
737.18	0.699
737.37	0.690
737.55	0.685
737.73	0.681
737.92	0.683
738.10	0.685
738.28	0.685
738.46	0.676
738.65	0.668
738.83	0.668
739.01	0.670
739.20	0.664
739.38	0.668
739.56	0.676
739.75	0.682
739.93	0.689
740.11	0.680
740.29	0.674
740.48	0.681
740.66	0.684
740.84	0.688
741.03	0.688
741.21	0.687
741.39	0.696
741.57	0.694
741.76	0.690
741.94	0.685
742.12	0.696
742.31	0.704
742.49	0.706
742.67	0.707
742.85	0.695
743.04	0.712
743.22	0.713
743.40	0.700
743.58	0.706
743.77	0.711
743.95	0.723
744.13	0.709
744.31	0.705
744.50	0.691
744.68	0.684
744.86	0.687
745.04	0.668
745.23	0.674
745.41	0.673
745.59	0.665
745.77	0.673
745.96	0.679
746.14	0.677
746.32	0.697
746.50	0.696
746.69	0.713
746.87	0.719
747.05	0.724
747.23	0.743
747.42	0.759
747.60	0.747
747.78	0.737
747.96	0.709
748.14	0.716
748.33	0.699
748.51	0.709
748.69	0.715
748.87	0.712
749.06	0.715
749.24	0.694
749.42	0.680
749.60	0.692
749.78	0.686
749.97	0.700
750.15	0.710
750.33	0.706
750.51	0.707
750.69	0.691
750.88	0.682
751.06	0.683
751.24	0.679
751.42	0.689
751.60	0.677
751.79	0.676
751.97	0.681
752.15	0.674
752.33	0.680
752.51	0.669
752.69	0.682
752.88	0.684
753.06	0.672
753.24	0.685
753.42	0.678
753.60	0.682
753.78	0.687
753.97	0.671
754.15	0.680
754.33	0.675
754.51	0.681
754.69	0.675
754.87	0.668
755.06	0.682
755.24	0.664
755.42	0.677
755.60	0.681
755.78	0.673
755.96	0.671
756.15	0.668
756.33	0.664
756.51	0.658
756.69	0.663
756.87	0.678
757.05	0.667
757.23	0.676
757.42	0.670
757.60	0.676
757.78	0.681
757.96	0.690
758.14	0.683
758.32	0.688
758.50	0.684
758.69	0.680
758.87	0.681
759.05	0.680
759.23	0.675
759.41	0.671
759.59	0.672
759.77	0.672
759.95	0.671
760.13	0.668
760.32	0.663
760.50	0.667
760.68	0.657
760.86	0.658
761.04	0.657
761.22	0.672
761.40	0.664
761.58	0.652
761.76	0.645
761.95	0.642
762.13	0.649
762.31	0.653
762.49	0.655
762.67	0.656
762.85	0.659
763.03	0.672
763.21	0.670
763.39	0.673
763.57	0.678
763.75	0.689
763.94	0.691
764.12	0.684
764.30	0.684
764.48	0.682
764.66	0.689
764.84	0.687
765.02	0.672
765.20	0.664
765.38	0.668
765.56	0.673
765.74	0.664
765.92	0.669
766.10	0.668
766.28	0.667
766.46	0.662
766.65	0.664
766.83	0.657
767.01	0.663
767.19	0.661
767.37	0.663
767.55	0.661
767.73	0.664
767.91	0.663
768.09	0.673
768.27	0.668
768.45	0.677
768.63	0.667
768.81	0.668
768.99	0.670
769.17	0.671
769.35	0.663
769.53	0.663
769.71	0.664
769.89	0.661
770.07	0.662
770.25	0.675
770.43	0.684
770.61	0.687
770.79	0.682
770.97	0.678
771.15	0.677
771.33	0.681
771.51	0.683
771.69	0.681
771.87	0.677
772.05	0.675
772.24	0.667
772.42	0.655
772.60	0.653
772.78	0.656
772.96	0.652
773.14	0.667
773.32	0.670
773.49	0.666
773.67	0.662
773.85	0.667
774.03	0.662
774.21	0.661
774.39	0.671
774.57	0.674
774.75	0.677
774.93	0.681
775.11	0.668
775.29	0.664
775.47	0.657
775.65	0.667
775.83	0.672
776.01	0.673
776.19	0.678
776.37	0.675
776.55	0.676
776.73	0.676
776.91	0.670
777.09	0.680
777.27	0.690
777.45	0.709
777.63	0.713
777.81	0.714
777.99	0.716
778.17	0.721
778.35	0.721
778.53	0.734
778.71	0.732
778.89	0.741
779.07	0.740
779.24	0.743
779.42	0.723
779.60	0.721
779.78	0.706
779.96	0.706
780.14	0.705
780.32	0.696
780.50	0.690
780.68	0.691
780.86	0.692
781.04	0.688
781.22	0.672
781.40	0.677
781.58	0.675
781.75	0.680
781.93	0.688
782.11	0.686
782.29	0.686
782.47	0.691
782.65	0.700
782.83	0.700
783.01	0.703
783.19	0.709
783.37	0.710
783.55	0.709
783.72	0.707
783.90	0.697
784.08	0.692
784.26	0.709
784.44	0.697
784.62	0.700
784.80	0.702
784.98	0.701
785.16	0.709
785.33	0.708
785.51	0.723
785.69	0.734
785.87	0.748
786.05	0.751
786.23	0.733
786.41	0.750
786.59	0.744
786.77	0.744
786.94	0.737
787.12	0.733
787.30	0.729
787.48	0.722
787.66	0.723
787.84	0.712
788.02	0.719
788.19	0.722
788.37	0.712
788.55	0.711
788.73	0.710
788.91	0.718
789.09	0.721
789.27	0.739
789.44	0.744
789.62	0.741
789.80	0.741
789.98	0.741
790.16	0.745
790.34	0.751
790.51	0.761
790.69	0.763
790.87	0.767
791.05	0.781
791.23	0.768
791.41	0.766
791.58	0.760
791.76	0.775
791.94	0.770
792.12	0.773
792.30	0.768
792.48	0.768
792.65	0.763
792.83	0.763
793.01	0.752
793.19	0.763
793.37	0.758
793.54	0.768
793.72	0.755
793.90	0.761
794.08	0.759
794.26	0.769
794.43	0.770
794.61	0.788
794.79	0.781
794.97	0.794
795.15	0.787
795.32	0.789
795.50	0.791
795.68	0.802
795.86	0.797
796.04	0.806
796.21	0.802
796.39	0.801
796.57	0.784
796.75	0.794
796.92	0.774
797.10	0.777
797.28	0.783
797.46	0.780
797.64	0.772
797.81	0.776
797.99	0.765
798.17	0.765
798.35	0.761
798.52	0.764
798.70	0.759
798.88	0.766
799.06	0.758
799.23	0.752
799.41	0.748
799.59	0.755
799.77	0.754
799.94	0.757
800.12	0.754
800.30	0.750
800.48	0.751
800.65	0.766
800.83	0.769
801.01	0.784
801.19	0.779
801.36	0.785
801.54	0.787
801.72	0.789
801.90	0.793
802.07	0.795
802.25	0.804
802.43	0.822
802.60	0.812
802.78	0.809
802.96	0.812
803.14	0.828
803.31	0.821
803.49	0.826
803.67	0.825
803.84	0.818
804.02	0.804
804.20	0.806
804.38	0.789
804.55	0.793
804.73	0.798
804.91	0.798
805.08	0.786
805.26	0.794
805.44	0.779
805.61	0.784
805.79	0.795
805.97	0.816
806.15	0.813
806.32	0.824
806.50	0.823
806.68	0.823
806.85	0.806
807.03	0.812
807.21	0.800
807.38	0.808
807.56	0.811
807.74	0.802
807.91	0.804
808.09	0.803
808.27	0.791
808.44	0.788
808.62	0.782
808.80	0.797
808.97	0.793
809.15	0.798
809.33	0.795
809.50	0.790
809.68	0.795
809.86	0.789
810.03	0.779
810.21	0.788
810.39	0.781
810.56	0.786
810.74	0.769
810.91	0.768
811.09	0.773
811.27	0.774
811.44	0.776
811.62	0.782
811.80	0.779
811.97	0.792
812.15	0.792
812.33	0.796
812.50	0.806
812.68	0.816
812.85	0.816
813.03	0.818
813.21	0.822
813.38	0.831
813.56	0.822
813.74	0.821
813.91	0.807
814.09	0.800
814.26	0.807
814.44	0.793
814.62	0.788
814.79	0.791
814.97	0.786
815.14	0.789
815.32	0.745
815.50	0.744
815.67	0.745
815.85	0.755
816.02	0.754
816.20	0.747
816.38	0.753
816.55	0.756
816.73	0.750
816.90	0.745
817.08	0.737
817.26	0.768
817.43	0.777
817.61	0.774
817.78	0.764
817.96	0.781
818.13	0.779
818.31	0.780
818.49	0.772
818.66	0.786
818.84	0.789
819.01	0.796
819.19	0.791
819.36	0.795
819.54	0.797
819.71	0.802
819.89	0.782
820.07	0.784
820.24	0.764
820.42	0.776
820.59	0.763
820.77	0.764
820.94	0.756
821.12	0.758
821.29	0.742
821.47	0.755
821.64	0.751
821.82	0.758
822.00	0.754
822.17	0.777
822.35	0.765
822.52	0.768
822.70	0.771
822.87	0.776
823.05	0.774
823.22	0.781
823.40	0.771
823.57	0.772
823.75	0.780
823.92	0.788
824.10	0.765
824.27	0.765
824.45	0.776
824.62	0.763
824.80	0.756
824.97	0.767
825.15	0.751
825.32	0.750
825.50	0.745
825.67	0.729
825.85	0.714
826.02	0.727
826.20	0.719
826.37	0.699
826.55	0.722
826.72	0.722
826.90	0.700
827.07	0.696
827.25	0.693
827.42	0.685
827.60	0.678
827.77	0.683
827.95	0.691
828.12	0.701
828.30	0.705
828.47	0.676
828.65	0.671
828.82	0.697
829.00	0.704
829.17	0.712
829.34	0.713
829.52	0.729
829.69	0.715
829.87	0.718
830.04	0.700
830.22	0.692
830.39	0.689
830.57	0.712
830.74	0.675
830.92	0.665
831.09	0.620
831.26	0.637
831.44	0.615
831.61	0.625
831.79	0.594
831.96	0.603
832.14	0.641
832.31	0.634
832.49	0.613
832.66	0.640
832.83	0.699
833.01	0.774
833.18	0.827
833.36	0.832
833.53	0.802
833.70	0.803
833.88	0.832
834.05	0.747
834.23	0.811
834.40	0.815
834.58	0.759
834.75	0.699
834.92	0.644
835.10	0.608
835.27	0.629
835.45	0.652
835.62	0.670
835.79	0.641
835.97	0.656
836.14	0.655
836.32	0.672
836.49	0.773
836.66	0.738
836.84	0.746
837.01	0.710
837.18	0.703
837.36	0.753
837.53	0.757
837.71	0.815
837.88	0.876
838.05	0.786
838.23	0.798
838.40	0.764
838.58	0.818
838.75	0.830
838.92	0.943
839.10	0.988
839.27	0.887
839.44	0.905
839.62	0.834
839.79	0.738
839.96	0.778
840.14	0.716
840.31	0.727
840.48	0.786
840.66	0.824
840.83	0.712
841.01	0.737
841.18	0.851
841.35	0.774
841.53	0.806
841.70	0.818
841.87	0.821
842.05	0.916
842.22	0.813
842.39	0.719
842.57	0.797
842.74	0.856
842.91	0.767
843.09	0.669
843.26	0.656
843.43	0.685
843.60	0.699
843.78	0.662
843.95	0.639
844.12	0.708
844.30	0.706
844.47	0.665
844.64	0.660
844.82	0.698
844.99	0.669
845.16	0.670
845.34	0.715
845.51	0.719
845.68	0.745
845.85	0.719
846.03	0.663
846.20	0.766
846.37	0.839
846.55	0.863
846.72	0.812
846.89	0.896
847.06	0.883
847.24	0.905
847.41	0.867
847.58	0.874
847.76	0.878
847.93	0.791
848.10	0.746
848.27	0.711
848.45	0.852
848.62	0.870
848.79	0.994
848.97	1.567
849.14	0.996
849.31	1.129
849.48	-0.000
849.66	-0.000
849.83	-0.000
850.00	-0.000
850.17	1.466
850.35	0.983
850.52	1.028
850.69	0.950
850.86	0.791
851.04	0.815
851.21	0.946
851.38	0.774
851.55	0.782
851.72	0.775
851.90	0.766
852.07	0.780
852.24	0.957
852.41	0.865
852.59	0.792
852.76	0.779
852.93	0.784
853.10	0.655
853.28	0.782
853.45	0.667
853.62	0.701
853.79	0.726
853.96	0.827
854.14	0.738
854.31	0.876
854.48	0.915
854.65	0.910
854.82	0.989
855.00	1.272
855.17	0.925
855.34	0.968
855.51	1.008
855.68	1.158
855.86	0.971
856.03	0.976
856.20	0.861
856.37	0.832
856.54	0.935
856.72	0.869
856.89	0.967
857.06	1.125
857.23	1.059
857.40	0.969
857.57	1.291
857.75	1.725
857.92	1.472
858.09	-0.000
858.26	-0.000
858.43	-0.000
858.60	-0.000
858.78	-0.000
858.95	-0.000
859.12	-0.000
859.29	-0.000
859.46	-0.000
859.63	-0.000
859.81	-0.000
859.98	-0.000
860.15	-0.000
860.32	-0.000
860.49	-0.000
860.66	-0.000
860.83	-0.000
861.01	-0.000
861.18	-0.000
861.35	-0.000
861.52	-0.000
861.69	-0.000
861.86	-0.000
862.03	-0.000
862.21	-0.000
862.38	-0.000
862.55	-0.000
862.72	-0.000
862.89	-0.000
863.06	-0.000
863.23	-0.000
863.40	-0.000
863.58	-0.000
863.75	-0.000
863.92	-0.000
864.09	-0.000
864.26	-0.000
864.43	-0.000
864.60	-0.000
864.77	-0.000
864.94	-0.000
865.11	-0.000
865.29	1.985
865.46	1.686
865.63	-0.000
865.80	-0.000
865.97	-0.000
866.14	-0.000
866.31	-0.000
866.48	-0.000
866.65	-0.000
866.82	-0.000
866.99	-0.000
867.16	-0.000
867.34	-0.000
867.51	-0.000
867.68	-0.000
867.85	-0.000
868.02	-0.000
868.19	-0.000
868.36	-0.000
868.53	-0.000
868.70	-0.000
868.87	-0.000
869.04	-0.000
869.21	-0.000
869.38	-0.000
869.55	-0.000
869.72	-0.000
869.89	-0.000
870.06	-0.000
870.24	-0.000
870.41	-0.000
870.58	-0.000
870.75	-0.000
870.92	-0.000
871.09	-0.000
871.26	-0.000
871.43	-0.000
871.60	-0.000
871.77	-0.000
871.94	-0.000
872.11	-0.000
872.28	-0.000
872.45	-0.000
872.62	-0.000
872.79	-0.000
872.96	-0.000
873.13	-0.000
873.30	-0.000
873.47	-0.000
873.64	-0.000
873.81	-0.000
873.98	-0.000
874.15	-0.000
874.32	-0.000
874.49	-0.000
874.66	-0.000
874.83	-0.000
875.00	-0.000
875.17	-0.000
875.34	-0.000
875.51	-0.000
875.68	-0.000
875.85	-0.000
876.02	-0.000
876.19	-0.000
876.36	-0.000
876.53	-0.000
876.70	-0.000
876.87	-0.000
877.04	-0.000
877.21	-0.000
877.38	-0.000
877.55	-0.000
877.72	-0.000
877.89	-0.000
878.06	-0.000
878.23	-0.000
878.39	-0.000
878.56	-0.000
878.73	-0.000
878.90	-0.000
879.07	-0.000
879.24	-0.000
879.41	-0.000
879.58	-0.000
879.75	-0.000
879.92	-0.000
880.09	-0.000
880.26	-0.000
880.43	-0.000
880.60	-0.000
880.77	-0.000
880.94	-0.000
881.11	-0.000
881.27	-0.000
881.44	-0.000
881.61	-0.000
881.78	-0.000
881.95	-0.000
882.12	-0.000
882.29	-0.000
882.46	-0.000
882.63	-0.000
882.80	-0.000
882.97	-0.000
883.14	-0.000
883.30	-0.000
883.47	-0.000
883.64	-0.000
883.81	-0.000
883.98	-0.000
884.15	-0.000
884.32	-0.000
884.49	-0.000
884.66	-0.000
884.82	-0.000
884.99	-0.000
885.16	-0.000
885.33	-0.000
885.50	-0.000
885.67	-0.000
885.84	-0.000
886.01	-0.000
886.17	-0.000
886.34	-0.000
886.51	-0.000
886.68	-0.000
886.85	-0.000
887.02	-0.000
887.19	-0.000
887.36	-0.000
887.52	-0.000
887.69	-0.000
887.86	-0.000
888.03	-0.000
888.20	-0.000
888.37	-0.000
888.54	-0.000
888.70	-0.000
888.87	-0.000
889.04	-0.000
889.21	-0.000
889.38	-0.000
889.55	-0.000
889.71	-0.000
889.88	0.579
890.05	-0.000
890.22	1.894
890.39	-0.000
>>>>>End Processed Spectral Data<<<<<
