SpectraSuite Data File
++++++++++++++++++++++++++++++++++++
Date: Fri Jun 19 15:02:48 CEST 2015
User: introlabs
Dark Spectrum Present: Yes
Reference Spectrum Present: Yes
Number of Sampled Component Spectra: 1
Spectrometers: USB4H08886
Integration Time (usec): 745692 (USB4H08886)
Spectra Averaged: 5 (USB4H08886)
Boxcar Smoothing: 5 (USB4H08886)
Correct for Electrical Dark: Yes (USB4H08886)
Strobe/Lamp Enabled: No (USB4H08886)
Correct for Detector Non-linearity: Yes (USB4H08886)
Correct for Stray Light: Yes (USB4H08886)
Number of Pixels in Processed Spectrum: 3648
>>>>>Begin Processed Spectral Data<<<<<
178.14	-0.000
178.36	-0.000
178.57	-0.000
178.79	-0.000
179.01	-0.000
179.22	-0.000
179.44	-0.000
179.65	-0.000
179.87	-0.000
180.08	-0.000
180.30	-0.000
180.52	-0.000
180.73	-0.000
180.95	-0.000
181.16	-0.000
181.38	-0.000
181.59	-0.000
181.81	-0.000
182.03	-0.000
182.24	-0.000
182.46	-0.000
182.67	-0.000
182.89	-0.000
183.10	-0.000
183.32	-0.000
183.54	-0.000
183.75	-0.000
183.97	-0.000
184.18	-0.000
184.40	-0.000
184.61	-0.000
184.83	-0.000
185.04	-0.000
185.26	-0.000
185.48	-0.000
185.69	-0.000
185.91	-0.000
186.12	-0.000
186.34	-0.000
186.55	-0.000
186.77	-0.000
186.98	-0.000
187.20	-0.000
187.42	-0.000
187.63	-0.000
187.85	-0.000
188.06	-0.000
188.28	-0.000
188.49	-0.000
188.71	-0.000
188.92	-0.000
189.14	-0.000
189.36	-0.000
189.57	-0.000
189.79	-0.000
190.00	-0.000
190.22	-0.000
190.43	-0.000
190.65	-0.000
190.86	-0.000
191.08	-0.000
191.29	-0.000
191.51	-0.000
191.72	-0.000
191.94	-0.000
192.16	-0.000
192.37	-0.000
192.59	-0.000
192.80	-0.000
193.02	-0.000
193.23	-0.000
193.45	-0.000
193.66	-0.000
193.88	-0.000
194.09	-0.000
194.31	-0.000
194.52	-0.000
194.74	-0.000
194.95	-0.000
195.17	-0.000
195.38	-0.000
195.60	-0.000
195.81	-0.000
196.03	-0.000
196.25	-0.000
196.46	-0.000
196.68	-0.000
196.89	-0.000
197.11	-0.000
197.32	-0.000
197.54	-0.000
197.75	-0.000
197.97	-0.000
198.18	-0.000
198.40	-0.000
198.61	-0.000
198.83	-0.000
199.04	-0.000
199.26	-0.000
199.47	-0.000
199.69	-0.000
199.90	-0.000
200.12	-0.000
200.33	-0.000
200.55	-0.000
200.76	-0.000
200.98	-0.000
201.19	-0.000
201.41	-0.000
201.62	-0.000
201.84	-0.000
202.05	-0.000
202.27	-0.000
202.48	-0.000
202.70	-0.000
202.91	-0.000
203.13	-0.000
203.34	-0.000
203.56	-0.000
203.77	-0.000
203.99	-0.000
204.20	-0.000
204.42	-0.000
204.63	-0.000
204.85	-0.000
205.06	-0.000
205.28	-0.000
205.49	-0.000
205.71	-0.000
205.92	-0.000
206.14	-0.000
206.35	-0.000
206.56	-0.000
206.78	-0.000
206.99	-0.000
207.21	-0.000
207.42	-0.000
207.64	-0.000
207.85	-0.000
208.07	-0.000
208.28	-0.000
208.50	-0.000
208.71	-0.000
208.93	-0.000
209.14	-0.000
209.36	-0.000
209.57	-0.000
209.79	-0.000
210.00	-0.000
210.22	-0.000
210.43	-0.000
210.64	-0.000
210.86	-0.000
211.07	-0.000
211.29	-0.000
211.50	-0.000
211.72	-0.000
211.93	-0.000
212.15	-0.000
212.36	-0.000
212.58	-0.000
212.79	-0.000
213.01	-0.000
213.22	-0.000
213.43	-0.000
213.65	-0.000
213.86	-0.000
214.08	-0.000
214.29	-0.000
214.51	-0.000
214.72	-0.000
214.94	-0.000
215.15	-0.000
215.36	-0.000
215.58	-0.000
215.79	-0.000
216.01	-0.000
216.22	-0.000
216.44	-0.000
216.65	-0.000
216.87	-0.000
217.08	-0.000
217.29	-0.000
217.51	-0.000
217.72	-0.000
217.94	-0.000
218.15	-0.000
218.37	-0.000
218.58	-0.000
218.80	-0.000
219.01	-0.000
219.22	-0.000
219.44	-0.000
219.65	-0.000
219.87	-0.000
220.08	-0.000
220.30	-0.000
220.51	-0.000
220.72	-0.000
220.94	-0.000
221.15	-0.000
221.37	-0.000
221.58	-0.000
221.79	-0.000
222.01	-0.000
222.22	-0.000
222.44	-0.000
222.65	-0.000
222.87	-0.000
223.08	-0.000
223.29	-0.000
223.51	-0.000
223.72	-0.000
223.94	-0.000
224.15	-0.000
224.36	-0.000
224.58	-0.000
224.79	-0.000
225.01	-0.000
225.22	-0.000
225.44	-0.000
225.65	-0.000
225.86	-0.000
226.08	-0.000
226.29	-0.000
226.51	-0.000
226.72	-0.000
226.93	-0.000
227.15	-0.000
227.36	-0.000
227.58	-0.000
227.79	-0.000
228.00	-0.000
228.22	-0.000
228.43	-0.000
228.65	-0.000
228.86	-0.000
229.07	-0.000
229.29	-0.000
229.50	-0.000
229.72	-0.000
229.93	-0.000
230.14	-0.000
230.36	-0.000
230.57	-0.000
230.78	-0.000
231.00	-0.000
231.21	-0.000
231.43	-0.000
231.64	-0.000
231.85	-0.000
232.07	-0.000
232.28	-0.000
232.50	-0.000
232.71	-0.000
232.92	-0.000
233.14	-0.000
233.35	-0.000
233.56	-0.000
233.78	-0.000
233.99	-0.000
234.21	-0.000
234.42	-0.000
234.63	-0.000
234.85	-0.000
235.06	-0.000
235.27	-0.000
235.49	-0.000
235.70	-0.000
235.91	-0.000
236.13	-0.000
236.34	-0.000
236.56	-0.000
236.77	-0.000
236.98	-0.000
237.20	-0.000
237.41	-0.000
237.62	-0.000
237.84	-0.000
238.05	-0.000
238.26	-0.000
238.48	-0.000
238.69	-0.000
238.91	-0.000
239.12	-0.000
239.33	-0.000
239.55	-0.000
239.76	-0.000
239.97	-0.000
240.19	-0.000
240.40	-0.000
240.61	-0.000
240.83	-0.000
241.04	-0.000
241.25	-0.000
241.47	-0.000
241.68	-0.000
241.89	-0.000
242.11	-0.000
242.32	-0.000
242.53	-0.000
242.75	-0.000
242.96	-0.000
243.17	-0.000
243.39	-0.000
243.60	-0.000
243.81	-0.000
244.03	-0.000
244.24	-0.000
244.45	-0.000
244.67	-0.000
244.88	-0.000
245.09	-0.000
245.31	-0.000
245.52	-0.000
245.73	-0.000
245.95	-0.000
246.16	-0.000
246.37	-0.000
246.59	-0.000
246.80	-0.000
247.01	-0.000
247.23	-0.000
247.44	-0.000
247.65	-0.000
247.87	-0.000
248.08	-0.000
248.29	-0.000
248.51	-0.000
248.72	-0.000
248.93	-0.000
249.15	-0.000
249.36	-0.000
249.57	-0.000
249.78	-0.000
250.00	-0.000
250.21	-0.000
250.42	-0.000
250.64	-0.000
250.85	-0.000
251.06	-0.000
251.28	-0.000
251.49	-0.000
251.70	-0.000
251.92	-0.000
252.13	-0.000
252.34	-0.000
252.55	-0.000
252.77	-0.000
252.98	-0.000
253.19	-0.000
253.41	-0.000
253.62	-0.000
253.83	-0.000
254.05	-0.000
254.26	-0.000
254.47	-0.000
254.68	-0.000
254.90	-0.000
255.11	-0.000
255.32	-0.000
255.54	-0.000
255.75	-0.000
255.96	-0.000
256.17	-0.000
256.39	-0.000
256.60	-0.000
256.81	-0.000
257.03	-0.000
257.24	-0.000
257.45	-0.000
257.66	-0.000
257.88	-0.000
258.09	-0.000
258.30	-0.000
258.51	-0.000
258.73	-0.000
258.94	-0.000
259.15	-0.000
259.37	-0.000
259.58	-0.000
259.79	-0.000
260.00	-0.000
260.22	-0.000
260.43	-0.000
260.64	-0.000
260.85	-0.000
261.07	-0.000
261.28	-0.000
261.49	-0.000
261.71	-0.000
261.92	-0.000
262.13	-0.000
262.34	-0.000
262.56	-0.000
262.77	-0.000
262.98	-0.000
263.19	-0.000
263.41	-0.000
263.62	-0.000
263.83	-0.000
264.04	-0.000
264.26	-0.000
264.47	-0.000
264.68	-0.000
264.89	-0.000
265.11	-0.000
265.32	-0.000
265.53	-0.000
265.74	-0.000
265.96	-0.000
266.17	-0.000
266.38	-0.000
266.59	-0.000
266.81	-0.000
267.02	-0.000
267.23	-0.000
267.44	-0.000
267.65	-0.000
267.87	-0.000
268.08	-0.000
268.29	-0.000
268.50	-0.000
268.72	-0.000
268.93	-0.000
269.14	-0.000
269.35	-0.000
269.57	-0.000
269.78	-0.000
269.99	-0.000
270.20	-0.000
270.41	-0.000
270.63	-0.000
270.84	-0.000
271.05	-0.000
271.26	-0.000
271.48	-0.000
271.69	-0.000
271.90	-0.000
272.11	-0.000
272.32	-0.000
272.54	-0.000
272.75	-0.000
272.96	-0.000
273.17	-0.000
273.39	-0.000
273.60	-0.000
273.81	-0.000
274.02	-0.000
274.23	-0.000
274.45	-0.000
274.66	-0.000
274.87	-0.000
275.08	-0.000
275.29	-0.000
275.51	-0.000
275.72	-0.000
275.93	-0.000
276.14	-0.000
276.35	-0.000
276.57	-0.000
276.78	-0.000
276.99	-0.000
277.20	-0.000
277.41	-0.000
277.63	-0.000
277.84	-0.000
278.05	-0.000
278.26	-0.000
278.47	-0.000
278.69	-0.000
278.90	-0.000
279.11	-0.000
279.32	-0.000
279.53	-0.000
279.74	-0.000
279.96	-0.000
280.17	-0.000
280.38	-0.000
280.59	-0.000
280.80	-0.000
281.02	-0.000
281.23	-0.000
281.44	-0.000
281.65	-0.000
281.86	-0.000
282.07	-0.000
282.29	-0.000
282.50	-0.000
282.71	-0.000
282.92	-0.000
283.13	-0.000
283.35	-0.000
283.56	-0.000
283.77	-0.000
283.98	-0.000
284.19	-0.000
284.40	-0.000
284.62	-0.000
284.83	-0.000
285.04	-0.000
285.25	-0.000
285.46	-0.000
285.67	-0.000
285.88	-0.000
286.10	-0.000
286.31	-0.000
286.52	-0.000
286.73	-0.000
286.94	-0.000
287.15	-0.000
287.37	-0.000
287.58	-0.000
287.79	-0.000
288.00	-0.000
288.21	-0.000
288.42	-0.000
288.63	-0.000
288.85	-0.000
289.06	-0.000
289.27	-0.000
289.48	-0.000
289.69	-0.000
289.90	-0.000
290.11	-0.000
290.33	-0.000
290.54	-0.000
290.75	-0.000
290.96	-0.000
291.17	-0.000
291.38	-0.000
291.59	-0.000
291.81	-0.000
292.02	-0.000
292.23	-0.000
292.44	-0.000
292.65	-0.000
292.86	-0.000
293.07	-0.000
293.28	-0.000
293.50	-0.000
293.71	-0.000
293.92	-0.000
294.13	-0.000
294.34	-0.000
294.55	-0.000
294.76	-0.000
294.97	-0.000
295.19	-0.000
295.40	-0.000
295.61	-0.000
295.82	-0.000
296.03	-0.000
296.24	-0.000
296.45	2.089
296.66	1.765
296.87	1.790
297.09	1.856
297.30	2.040
297.51	1.702
297.72	1.665
297.93	1.744
298.14	1.719
298.35	1.684
298.56	1.669
298.77	1.787
298.99	1.759
299.20	1.749
299.41	1.729
299.62	1.679
299.83	1.674
300.04	1.611
300.25	1.604
300.46	1.647
300.67	1.618
300.88	1.566
301.10	1.571
301.31	1.646
301.52	1.577
301.73	1.519
301.94	1.522
302.15	1.528
302.36	1.484
302.57	1.423
302.78	1.424
302.99	1.461
303.20	1.479
303.41	1.390
303.63	1.374
303.84	1.380
304.05	1.379
304.26	1.320
304.47	1.326
304.68	1.329
304.89	1.316
305.10	1.280
305.31	1.270
305.52	1.314
305.73	1.308
305.94	1.269
306.15	1.262
306.37	1.282
306.58	1.290
306.79	1.264
307.00	1.288
307.21	1.328
307.42	1.319
307.63	1.284
307.84	1.249
308.05	1.285
308.26	1.284
308.47	1.261
308.68	1.257
308.89	1.257
309.10	1.255
309.31	1.216
309.52	1.207
309.73	1.223
309.95	1.216
310.16	1.188
310.37	1.176
310.58	1.193
310.79	1.193
311.00	1.189
311.21	1.192
311.42	1.195
311.63	1.188
311.84	1.170
312.05	1.166
312.26	1.187
312.47	1.196
312.68	1.176
312.89	1.159
313.10	1.162
313.31	1.136
313.52	1.137
313.73	1.134
313.94	1.136
314.15	1.119
314.36	1.100
314.57	1.096
314.78	1.085
314.99	1.080
315.21	1.070
315.42	1.077
315.63	1.090
315.84	1.067
316.05	1.055
316.26	1.065
316.47	1.082
316.68	1.078
316.89	1.058
317.10	1.077
317.31	1.082
317.52	1.082
317.73	1.061
317.94	1.058
318.15	1.100
318.36	1.099
318.57	1.082
318.78	1.071
318.99	1.106
319.20	1.103
319.41	1.070
319.62	1.072
319.83	1.085
320.04	1.080
320.25	1.069
320.46	1.037
320.67	1.039
320.88	1.036
321.09	1.023
321.30	1.008
321.51	1.023
321.72	1.022
321.93	1.006
322.14	1.000
322.35	1.025
322.56	1.026
322.77	1.014
322.98	1.025
323.19	1.032
323.40	1.038
323.61	1.018
323.82	1.013
324.03	1.017
324.24	1.015
324.45	1.002
324.66	0.984
324.87	0.980
325.08	0.979
325.29	0.961
325.50	0.957
325.71	0.963
325.92	0.970
326.13	0.957
326.34	0.957
326.55	0.964
326.76	0.963
326.97	0.953
327.18	0.947
327.39	0.971
327.60	0.973
327.80	0.971
328.01	0.969
328.22	0.969
328.43	0.971
328.64	0.961
328.85	0.966
329.06	0.968
329.27	0.968
329.48	0.965
329.69	0.946
329.90	0.956
330.11	0.947
330.32	0.940
330.53	0.934
330.74	0.932
330.95	0.931
331.16	0.917
331.37	0.924
331.58	0.923
331.79	0.923
332.00	0.914
332.21	0.906
332.42	0.910
332.63	0.902
332.83	0.898
333.04	0.901
333.25	0.913
333.46	0.911
333.67	0.898
333.88	0.901
334.09	0.910
334.30	0.909
334.51	0.901
334.72	0.897
334.93	0.899
335.14	0.899
335.35	0.892
335.56	0.888
335.77	0.896
335.98	0.894
336.18	0.889
336.39	0.881
336.60	0.885
336.81	0.884
337.02	0.882
337.23	0.888
337.44	0.890
337.65	0.891
337.86	0.880
338.07	0.875
338.28	0.880
338.49	0.878
338.70	0.871
338.91	0.877
339.11	0.883
339.32	0.880
339.53	0.868
339.74	0.865
339.95	0.861
340.16	0.860
340.37	0.853
340.58	0.851
340.79	0.854
341.00	0.854
341.21	0.844
341.41	0.844
341.62	0.846
341.83	0.847
342.04	0.843
342.25	0.853
342.46	0.858
342.67	0.857
342.88	0.850
343.09	0.849
343.30	0.856
343.50	0.858
343.71	0.848
343.92	0.846
344.13	0.849
344.34	0.848
344.55	0.832
344.76	0.831
344.97	0.835
345.18	0.834
345.38	0.831
345.59	0.826
345.80	0.826
346.01	0.824
346.22	0.820
346.43	0.815
346.64	0.824
346.85	0.823
347.06	0.815
347.26	0.814
347.47	0.817
347.68	0.813
347.89	0.809
348.10	0.804
348.31	0.810
348.52	0.809
348.73	0.808
348.93	0.805
349.14	0.807
349.35	0.807
349.56	0.802
349.77	0.798
349.98	0.803
350.19	0.801
350.39	0.796
350.60	0.792
350.81	0.807
351.02	0.806
351.23	0.801
351.44	0.804
351.65	0.806
351.86	0.803
352.06	0.802
352.27	0.802
352.48	0.804
352.69	0.804
352.90	0.799
353.11	0.785
353.31	0.793
353.52	0.788
353.73	0.781
353.94	0.783
354.15	0.789
354.36	0.789
354.57	0.780
354.77	0.782
354.98	0.781
355.19	0.781
355.40	0.781
355.61	0.786
355.82	0.789
356.02	0.788
356.23	0.781
356.44	0.782
356.65	0.785
356.86	0.786
357.07	0.779
357.27	0.782
357.48	0.785
357.69	0.780
357.90	0.765
358.11	0.762
358.32	0.765
358.52	0.768
358.73	0.759
358.94	0.761
359.15	0.766
359.36	0.767
359.56	0.763
359.77	0.760
359.98	0.768
360.19	0.768
360.40	0.765
360.61	0.766
360.81	0.765
361.02	0.766
361.23	0.758
361.44	0.756
361.65	0.757
361.85	0.756
362.06	0.755
362.27	0.755
362.48	0.755
362.69	0.757
362.89	0.751
363.10	0.752
363.31	0.756
363.52	0.759
363.73	0.754
363.93	0.753
364.14	0.755
364.35	0.756
364.56	0.747
364.77	0.749
364.97	0.751
365.18	0.752
365.39	0.747
365.60	0.744
365.81	0.745
366.01	0.745
366.22	0.741
366.43	0.740
366.64	0.741
366.84	0.747
367.05	0.744
367.26	0.743
367.47	0.744
367.68	0.744
367.88	0.741
368.09	0.739
368.30	0.741
368.51	0.741
368.71	0.741
368.92	0.746
369.13	0.744
369.34	0.743
369.55	0.743
369.75	0.743
369.96	0.750
370.17	0.750
370.38	0.747
370.58	0.746
370.79	0.752
371.00	0.750
371.21	0.741
371.41	0.746
371.62	0.751
371.83	0.747
372.04	0.746
372.24	0.738
372.45	0.738
372.66	0.739
372.87	0.736
373.07	0.732
373.28	0.732
373.49	0.736
373.70	0.726
373.90	0.725
374.11	0.733
374.32	0.733
374.53	0.733
374.73	0.734
374.94	0.735
375.15	0.735
375.36	0.734
375.56	0.743
375.77	0.743
375.98	0.743
376.19	0.740
376.39	0.734
376.60	0.737
376.81	0.737
377.02	0.735
377.22	0.736
377.43	0.736
377.64	0.735
377.84	0.727
378.05	0.731
378.26	0.737
378.47	0.736
378.67	0.733
378.88	0.731
379.09	0.731
379.30	0.731
379.50	0.728
379.71	0.731
379.92	0.733
380.12	0.732
380.33	0.725
380.54	0.721
380.75	0.727
380.95	0.728
381.16	0.726
381.37	0.726
381.57	0.728
381.78	0.729
381.99	0.728
382.20	0.727
382.40	0.730
382.61	0.730
382.82	0.727
383.02	0.720
383.23	0.723
383.44	0.724
383.64	0.721
383.85	0.723
384.06	0.726
384.27	0.724
384.47	0.722
384.68	0.723
384.89	0.729
385.09	0.729
385.30	0.729
385.51	0.727
385.71	0.730
385.92	0.731
386.13	0.730
386.33	0.732
386.54	0.733
386.75	0.732
386.95	0.728
387.16	0.723
387.37	0.726
387.58	0.726
387.78	0.724
387.99	0.722
388.20	0.723
388.40	0.720
388.61	0.716
388.82	0.719
389.02	0.722
389.23	0.722
389.44	0.721
389.64	0.721
389.85	0.732
390.06	0.732
390.26	0.733
390.47	0.733
390.68	0.735
390.88	0.733
391.09	0.730
391.30	0.729
391.50	0.728
391.71	0.728
391.92	0.725
392.12	0.718
392.33	0.718
392.53	0.718
392.74	0.718
392.95	0.717
393.15	0.720
393.36	0.722
393.57	0.720
393.77	0.723
393.98	0.725
394.19	0.725
394.39	0.724
394.60	0.726
394.81	0.728
395.01	0.726
395.22	0.725
395.43	0.725
395.63	0.729
395.84	0.730
396.04	0.726
396.25	0.728
396.46	0.731
396.66	0.729
396.87	0.726
397.08	0.723
397.28	0.726
397.49	0.727
397.69	0.724
397.90	0.720
398.11	0.721
398.31	0.722
398.52	0.718
398.73	0.719
398.93	0.718
399.14	0.717
399.34	0.716
399.55	0.718
399.76	0.718
399.96	0.719
400.17	0.717
400.37	0.716
400.58	0.723
400.79	0.725
400.99	0.722
401.20	0.728
401.41	0.730
401.61	0.731
401.82	0.736
402.02	0.736
402.23	0.737
402.44	0.736
402.64	0.736
402.85	0.731
403.05	0.730
403.26	0.729
403.47	0.722
403.67	0.722
403.88	0.722
404.08	0.716
404.29	0.715
404.50	0.715
404.70	0.715
404.91	0.714
405.11	0.711
405.32	0.711
405.52	0.711
405.73	0.710
405.94	0.708
406.14	0.711
406.35	0.713
406.55	0.712
406.76	0.710
406.97	0.711
407.17	0.714
407.38	0.714
407.58	0.712
407.79	0.716
407.99	0.719
408.20	0.720
408.41	0.715
408.61	0.713
408.82	0.714
409.02	0.714
409.23	0.711
409.43	0.710
409.64	0.711
409.84	0.711
410.05	0.707
410.26	0.706
410.46	0.705
410.67	0.705
410.87	0.707
411.08	0.709
411.28	0.710
411.49	0.712
411.69	0.709
411.90	0.710
412.11	0.712
412.31	0.713
412.52	0.711
412.72	0.712
412.93	0.712
413.13	0.711
413.34	0.707
413.54	0.709
413.75	0.711
413.95	0.712
414.16	0.709
414.37	0.712
414.57	0.712
414.78	0.715
414.98	0.714
415.19	0.715
415.39	0.712
415.60	0.715
415.80	0.714
416.01	0.712
416.21	0.714
416.42	0.713
416.62	0.708
416.83	0.709
417.03	0.708
417.24	0.708
417.44	0.705
417.65	0.704
417.86	0.705
418.06	0.703
418.27	0.701
418.47	0.702
418.68	0.703
418.88	0.704
419.09	0.703
419.29	0.703
419.50	0.704
419.70	0.703
419.91	0.703
420.11	0.700
420.32	0.702
420.52	0.702
420.73	0.701
420.93	0.701
421.14	0.703
421.34	0.701
421.55	0.698
421.75	0.698
421.96	0.699
422.16	0.699
422.37	0.698
422.57	0.695
422.78	0.697
422.98	0.694
423.19	0.691
423.39	0.689
423.60	0.693
423.80	0.694
424.01	0.693
424.21	0.695
424.42	0.696
424.62	0.696
424.83	0.695
425.03	0.695
425.23	0.697
425.44	0.697
425.64	0.698
425.85	0.696
426.05	0.697
426.26	0.697
426.46	0.694
426.67	0.693
426.87	0.698
427.08	0.698
427.28	0.696
427.49	0.697
427.69	0.697
427.90	0.696
428.10	0.694
428.31	0.694
428.51	0.695
428.71	0.694
428.92	0.695
429.12	0.692
429.33	0.693
429.53	0.697
429.74	0.701
429.94	0.702
430.15	0.701
430.35	0.701
430.56	0.697
430.76	0.697
430.96	0.698
431.17	0.695
431.37	0.692
431.58	0.691
431.78	0.687
431.99	0.679
432.19	0.682
432.40	0.684
432.60	0.684
432.80	0.687
433.01	0.685
433.21	0.685
433.42	0.687
433.62	0.687
433.83	0.687
434.03	0.690
434.23	0.693
434.44	0.692
434.64	0.690
434.85	0.695
435.05	0.696
435.26	0.696
435.46	0.694
435.66	0.694
435.87	0.694
436.07	0.693
436.28	0.689
436.48	0.686
436.69	0.685
436.89	0.684
437.09	0.678
437.30	0.676
437.50	0.676
437.71	0.688
437.91	0.687
438.11	0.688
438.32	0.692
438.52	0.692
438.73	0.691
438.93	0.690
439.13	0.690
439.34	0.694
439.54	0.692
439.75	0.692
439.95	0.682
440.15	0.686
440.36	0.685
440.56	0.682
440.77	0.683
440.97	0.683
441.17	0.682
441.38	0.682
441.58	0.679
441.79	0.679
441.99	0.678
442.19	0.677
442.40	0.674
442.60	0.674
442.81	0.672
443.01	0.671
443.21	0.672
443.42	0.672
443.62	0.671
443.82	0.670
444.03	0.672
444.23	0.672
444.44	0.672
444.64	0.671
444.84	0.672
445.05	0.671
445.25	0.669
445.45	0.669
445.66	0.671
445.86	0.671
446.06	0.672
446.27	0.672
446.47	0.675
446.68	0.673
446.88	0.672
447.08	0.672
447.29	0.674
447.49	0.674
447.69	0.674
447.90	0.673
448.10	0.676
448.30	0.673
448.51	0.674
448.71	0.672
448.91	0.674
449.12	0.673
449.32	0.674
449.52	0.672
449.73	0.676
449.93	0.675
450.14	0.675
450.34	0.674
450.54	0.676
450.75	0.673
450.95	0.673
451.15	0.673
451.36	0.675
451.56	0.672
451.76	0.671
451.97	0.669
452.17	0.669
452.37	0.667
452.58	0.664
452.78	0.664
452.98	0.666
453.19	0.666
453.39	0.666
453.59	0.665
453.79	0.666
454.00	0.666
454.20	0.665
454.40	0.666
454.61	0.668
454.81	0.668
455.01	0.666
455.22	0.667
455.42	0.669
455.62	0.667
455.83	0.666
456.03	0.669
456.23	0.671
456.44	0.672
456.64	0.670
456.84	0.670
457.04	0.671
457.25	0.671
457.45	0.668
457.65	0.666
457.86	0.667
458.06	0.666
458.26	0.662
458.47	0.661
458.67	0.662
458.87	0.662
459.07	0.660
459.28	0.661
459.48	0.663
459.68	0.663
459.89	0.661
460.09	0.660
460.29	0.662
460.49	0.663
460.70	0.662
460.90	0.661
461.10	0.662
461.31	0.662
461.51	0.660
461.71	0.662
461.91	0.663
462.12	0.664
462.32	0.663
462.52	0.663
462.72	0.665
462.93	0.665
463.13	0.664
463.33	0.665
463.53	0.666
463.74	0.665
463.94	0.660
464.14	0.660
464.35	0.661
464.55	0.661
464.75	0.659
464.95	0.657
465.16	0.659
465.36	0.657
465.56	0.656
465.76	0.655
465.97	0.656
466.17	0.657
466.37	0.656
466.57	0.656
466.78	0.657
466.98	0.656
467.18	0.654
467.38	0.653
467.59	0.655
467.79	0.657
467.99	0.656
468.19	0.657
468.39	0.659
468.60	0.659
468.80	0.658
469.00	0.659
469.20	0.660
469.41	0.661
469.61	0.660
469.81	0.660
470.01	0.660
470.22	0.660
470.42	0.658
470.62	0.656
470.82	0.658
471.02	0.657
471.23	0.655
471.43	0.655
471.63	0.658
471.83	0.658
472.04	0.656
472.24	0.655
472.44	0.661
472.64	0.660
472.84	0.659
473.05	0.658
473.25	0.661
473.45	0.660
473.65	0.659
473.85	0.659
474.06	0.660
474.26	0.660
474.46	0.661
474.66	0.657
474.86	0.659
475.07	0.659
475.27	0.657
475.47	0.654
475.67	0.655
475.87	0.657
476.08	0.654
476.28	0.655
476.48	0.656
476.68	0.654
476.88	0.652
477.09	0.653
477.29	0.654
477.49	0.654
477.69	0.653
477.89	0.653
478.09	0.653
478.30	0.655
478.50	0.652
478.70	0.651
478.90	0.652
479.10	0.655
479.31	0.655
479.51	0.654
479.71	0.654
479.91	0.654
480.11	0.653
480.31	0.653
480.52	0.652
480.72	0.652
480.92	0.652
481.12	0.651
481.32	0.648
481.52	0.646
481.72	0.646
481.93	0.650
482.13	0.651
482.33	0.650
482.53	0.648
482.73	0.649
482.93	0.650
483.14	0.650
483.34	0.649
483.54	0.649
483.74	0.649
483.94	0.648
484.14	0.644
484.34	0.644
484.55	0.644
484.75	0.644
484.95	0.642
485.15	0.642
485.35	0.642
485.55	0.641
485.75	0.640
485.96	0.640
486.16	0.641
486.36	0.641
486.56	0.639
486.76	0.639
486.96	0.640
487.16	0.639
487.36	0.637
487.57	0.637
487.77	0.638
487.97	0.638
488.17	0.637
488.37	0.636
488.57	0.636
488.77	0.637
488.97	0.635
489.18	0.635
489.38	0.637
489.58	0.638
489.78	0.637
489.98	0.636
490.18	0.636
490.38	0.637
490.58	0.636
490.78	0.637
490.98	0.638
491.19	0.639
491.39	0.638
491.59	0.636
491.79	0.639
491.99	0.639
492.19	0.639
492.39	0.643
492.59	0.643
492.79	0.645
492.99	0.645
493.20	0.645
493.40	0.645
493.60	0.646
493.80	0.645
494.00	0.642
494.20	0.643
494.40	0.642
494.60	0.639
494.80	0.644
495.00	0.642
495.20	0.641
495.40	0.639
495.61	0.641
495.81	0.641
496.01	0.644
496.21	0.646
496.41	0.645
496.61	0.646
496.81	0.645
497.01	0.640
497.21	0.639
497.41	0.640
497.61	0.639
497.81	0.637
498.01	0.637
498.21	0.635
498.41	0.632
498.61	0.633
498.82	0.634
499.02	0.636
499.22	0.637
499.42	0.636
499.62	0.637
499.82	0.639
500.02	0.639
500.22	0.638
500.42	0.640
500.62	0.641
500.82	0.641
501.02	0.639
501.22	0.639
501.42	0.639
501.62	0.641
501.82	0.640
502.02	0.640
502.22	0.640
502.42	0.641
502.62	0.639
502.82	0.639
503.02	0.640
503.22	0.639
503.42	0.637
503.63	0.637
503.83	0.634
504.03	0.633
504.23	0.632
504.43	0.633
504.63	0.633
504.83	0.634
505.03	0.633
505.23	0.635
505.43	0.636
505.63	0.637
505.83	0.637
506.03	0.639
506.23	0.641
506.43	0.641
506.63	0.641
506.83	0.639
507.03	0.641
507.23	0.641
507.43	0.639
507.63	0.640
507.83	0.640
508.03	0.641
508.23	0.640
508.43	0.639
508.63	0.641
508.83	0.641
509.03	0.643
509.23	0.641
509.43	0.642
509.63	0.642
509.83	0.640
510.03	0.643
510.23	0.644
510.43	0.645
510.63	0.645
510.83	0.644
511.03	0.645
511.23	0.643
511.43	0.643
511.63	0.644
511.83	0.646
512.03	0.646
512.22	0.643
512.42	0.642
512.62	0.643
512.82	0.643
513.02	0.643
513.22	0.643
513.42	0.645
513.62	0.647
513.82	0.645
514.02	0.644
514.22	0.646
514.42	0.647
514.62	0.647
514.82	0.647
515.02	0.649
515.22	0.652
515.42	0.650
515.62	0.653
515.82	0.652
516.02	0.653
516.22	0.653
516.42	0.654
516.62	0.656
516.82	0.657
517.01	0.656
517.21	0.655
517.41	0.659
517.61	0.659
517.81	0.655
518.01	0.655
518.21	0.655
518.41	0.654
518.61	0.653
518.81	0.653
519.01	0.653
519.21	0.653
519.41	0.651
519.61	0.646
519.81	0.648
520.00	0.648
520.20	0.649
520.40	0.652
520.60	0.652
520.80	0.651
521.00	0.652
521.20	0.653
521.40	0.658
521.60	0.659
521.80	0.658
522.00	0.659
522.20	0.661
522.39	0.660
522.59	0.657
522.79	0.659
522.99	0.661
523.19	0.659
523.39	0.656
523.59	0.654
523.79	0.657
523.99	0.658
524.19	0.657
524.38	0.656
524.58	0.657
524.78	0.658
524.98	0.657
525.18	0.659
525.38	0.660
525.58	0.661
525.78	0.658
525.98	0.657
526.18	0.657
526.37	0.657
526.57	0.658
526.77	0.658
526.97	0.659
527.17	0.659
527.37	0.655
527.57	0.658
527.77	0.660
527.96	0.660
528.16	0.659
528.36	0.660
528.56	0.662
528.76	0.659
528.96	0.659
529.16	0.660
529.36	0.662
529.55	0.662
529.75	0.659
529.95	0.660
530.15	0.660
530.35	0.664
530.55	0.661
530.75	0.662
530.94	0.663
531.14	0.663
531.34	0.662
531.54	0.660
531.74	0.663
531.94	0.666
532.13	0.663
532.33	0.665
532.53	0.664
532.73	0.664
532.93	0.662
533.13	0.663
533.33	0.663
533.52	0.664
533.72	0.667
533.92	0.666
534.12	0.664
534.32	0.665
534.52	0.663
534.71	0.664
534.91	0.667
535.11	0.669
535.31	0.666
535.51	0.668
535.71	0.670
535.90	0.666
536.10	0.667
536.30	0.669
536.50	0.669
536.70	0.669
536.89	0.667
537.09	0.666
537.29	0.667
537.49	0.667
537.69	0.665
537.89	0.666
538.08	0.666
538.28	0.664
538.48	0.664
538.68	0.666
538.88	0.668
539.07	0.668
539.27	0.667
539.47	0.666
539.67	0.666
539.87	0.668
540.06	0.665
540.26	0.666
540.46	0.669
540.66	0.666
540.86	0.664
541.05	0.663
541.25	0.665
541.45	0.666
541.65	0.665
541.84	0.666
542.04	0.667
542.24	0.667
542.44	0.666
542.64	0.668
542.83	0.670
543.03	0.671
543.23	0.669
543.43	0.670
543.62	0.671
543.82	0.671
544.02	0.670
544.22	0.670
544.42	0.673
544.61	0.674
544.81	0.671
545.01	0.669
545.21	0.671
545.40	0.671
545.60	0.670
545.80	0.672
546.00	0.672
546.19	0.671
546.39	0.670
546.59	0.668
546.79	0.669
546.98	0.670
547.18	0.670
547.38	0.670
547.58	0.673
547.77	0.673
547.97	0.670
548.17	0.672
548.37	0.673
548.56	0.673
548.76	0.672
548.96	0.674
549.16	0.676
549.35	0.676
549.55	0.673
549.75	0.674
549.95	0.678
550.14	0.678
550.34	0.676
550.54	0.681
550.73	0.685
550.93	0.685
551.13	0.683
551.33	0.682
551.52	0.683
551.72	0.683
551.92	0.681
552.12	0.680
552.31	0.681
552.51	0.681
552.71	0.676
552.90	0.675
553.10	0.676
553.30	0.675
553.50	0.675
553.69	0.676
553.89	0.677
554.09	0.677
554.28	0.674
554.48	0.675
554.68	0.677
554.87	0.677
555.07	0.675
555.27	0.675
555.47	0.676
555.66	0.677
555.86	0.674
556.06	0.676
556.25	0.677
556.45	0.685
556.65	0.683
556.84	0.686
557.04	0.690
557.24	0.691
557.43	0.691
557.63	0.694
557.83	0.696
558.02	0.697
558.22	0.700
558.42	0.701
558.61	0.694
558.81	0.695
559.01	0.691
559.21	0.690
559.40	0.691
559.60	0.691
559.80	0.687
559.99	0.688
560.19	0.690
560.39	0.685
560.58	0.683
560.78	0.682
560.97	0.686
561.17	0.684
561.37	0.683
561.56	0.684
561.76	0.686
561.96	0.686
562.15	0.683
562.35	0.685
562.55	0.686
562.74	0.686
562.94	0.685
563.14	0.683
563.33	0.684
563.53	0.684
563.73	0.682
563.92	0.683
564.12	0.685
564.31	0.688
564.51	0.687
564.71	0.688
564.90	0.691
565.10	0.691
565.30	0.695
565.49	0.695
565.69	0.698
565.89	0.698
566.08	0.695
566.28	0.697
566.47	0.698
566.67	0.696
566.87	0.693
567.06	0.695
567.26	0.702
567.46	0.698
567.65	0.697
567.85	0.699
568.04	0.701
568.24	0.701
568.44	0.699
568.63	0.697
568.83	0.698
569.02	0.696
569.22	0.692
569.42	0.688
569.61	0.690
569.81	0.689
570.00	0.687
570.20	0.688
570.40	0.689
570.59	0.689
570.79	0.687
570.98	0.685
571.18	0.687
571.38	0.686
571.57	0.683
571.77	0.680
571.96	0.683
572.16	0.681
572.35	0.676
572.55	0.677
572.75	0.675
572.94	0.675
573.14	0.673
573.33	0.673
573.53	0.673
573.73	0.673
573.92	0.672
574.12	0.670
574.31	0.673
574.51	0.674
574.70	0.671
574.90	0.673
575.09	0.675
575.29	0.675
575.49	0.672
575.68	0.673
575.88	0.675
576.07	0.676
576.27	0.673
576.46	0.672
576.66	0.671
576.86	0.670
577.05	0.668
577.25	0.666
577.44	0.667
577.64	0.667
577.83	0.665
578.03	0.666
578.22	0.665
578.42	0.665
578.61	0.663
578.81	0.664
579.00	0.664
579.20	0.663
579.40	0.663
579.59	0.662
579.79	0.663
579.98	0.663
580.18	0.662
580.37	0.662
580.57	0.664
580.76	0.669
580.96	0.667
581.15	0.668
581.35	0.670
581.54	0.669
581.74	0.669
581.93	0.670
582.13	0.671
582.32	0.669
582.52	0.667
582.71	0.666
582.91	0.662
583.10	0.662
583.30	0.661
583.49	0.660
583.69	0.664
583.88	0.664
584.08	0.663
584.27	0.665
584.47	0.668
584.66	0.670
584.86	0.669
585.05	0.671
585.25	0.673
585.44	0.673
585.64	0.671
585.83	0.668
586.03	0.668
586.22	0.667
586.42	0.663
586.61	0.664
586.81	0.666
587.00	0.666
587.20	0.663
587.39	0.664
587.59	0.665
587.78	0.666
587.98	0.667
588.17	0.668
588.37	0.671
588.56	0.673
588.76	0.669
588.95	0.670
589.15	0.674
589.34	0.676
589.54	0.675
589.73	0.676
589.92	0.679
590.12	0.679
590.31	0.677
590.51	0.682
590.70	0.683
590.90	0.684
591.09	0.681
591.29	0.680
591.48	0.680
591.68	0.681
591.87	0.680
592.06	0.679
592.26	0.682
592.45	0.682
592.65	0.675
592.84	0.675
593.04	0.678
593.23	0.680
593.43	0.677
593.62	0.676
593.81	0.676
594.01	0.674
594.20	0.672
594.40	0.671
594.59	0.672
594.79	0.673
594.98	0.671
595.17	0.670
595.37	0.672
595.56	0.674
595.76	0.674
595.95	0.675
596.14	0.679
596.34	0.680
596.53	0.679
596.73	0.681
596.92	0.682
597.12	0.685
597.31	0.685
597.50	0.683
597.70	0.685
597.89	0.684
598.09	0.680
598.28	0.681
598.47	0.684
598.67	0.683
598.86	0.678
599.06	0.680
599.25	0.680
599.44	0.678
599.64	0.676
599.83	0.673
600.03	0.676
600.22	0.677
600.41	0.677
600.61	0.675
600.80	0.677
601.00	0.678
601.19	0.673
601.38	0.672
601.58	0.675
601.77	0.676
601.96	0.678
602.16	0.678
602.35	0.687
602.55	0.684
602.74	0.686
602.93	0.687
603.13	0.691
603.32	0.693
603.51	0.693
603.71	0.697
603.90	0.699
604.09	0.700
604.29	0.696
604.48	0.690
604.68	0.692
604.87	0.690
605.06	0.686
605.26	0.683
605.45	0.684
605.64	0.683
605.84	0.678
606.03	0.677
606.22	0.675
606.42	0.675
606.61	0.672
606.80	0.672
607.00	0.674
607.19	0.675
607.38	0.673
607.58	0.674
607.77	0.676
607.96	0.676
608.16	0.675
608.35	0.680
608.54	0.683
608.74	0.685
608.93	0.690
609.12	0.693
609.32	0.695
609.51	0.698
609.70	0.697
609.90	0.698
610.09	0.703
610.28	0.708
610.48	0.702
610.67	0.703
610.86	0.703
611.06	0.698
611.25	0.696
611.44	0.697
611.64	0.697
611.83	0.700
612.02	0.696
612.21	0.696
612.41	0.695
612.60	0.694
612.79	0.691
612.99	0.691
613.18	0.693
613.37	0.691
613.57	0.688
613.76	0.690
613.95	0.687
614.14	0.687
614.34	0.685
614.53	0.685
614.72	0.688
614.92	0.688
615.11	0.685
615.30	0.681
615.49	0.682
615.69	0.684
615.88	0.681
616.07	0.683
616.26	0.685
616.46	0.685
616.65	0.682
616.84	0.680
617.04	0.681
617.23	0.685
617.42	0.685
617.61	0.688
617.81	0.689
618.00	0.690
618.19	0.689
618.38	0.692
618.58	0.697
618.77	0.698
618.96	0.698
619.15	0.700
619.35	0.701
619.54	0.703
619.73	0.698
619.92	0.700
620.12	0.705
620.31	0.705
620.50	0.701
620.69	0.700
620.89	0.703
621.08	0.704
621.27	0.704
621.46	0.703
621.66	0.707
621.85	0.707
622.04	0.703
622.23	0.704
622.43	0.705
622.62	0.704
622.81	0.703
623.00	0.703
623.19	0.707
623.39	0.705
623.58	0.702
623.77	0.701
623.96	0.704
624.16	0.704
624.35	0.698
624.54	0.701
624.73	0.705
624.92	0.704
625.12	0.701
625.31	0.701
625.50	0.704
625.69	0.704
625.88	0.701
626.08	0.700
626.27	0.701
626.46	0.701
626.65	0.698
626.84	0.698
627.04	0.703
627.23	0.703
627.42	0.699
627.61	0.701
627.80	0.705
628.00	0.705
628.19	0.704
628.38	0.707
628.57	0.710
628.76	0.709
628.96	0.705
629.15	0.706
629.34	0.709
629.53	0.709
629.72	0.704
629.91	0.704
630.11	0.708
630.30	0.708
630.49	0.711
630.68	0.711
630.87	0.714
631.06	0.717
631.26	0.712
631.45	0.713
631.64	0.721
631.83	0.723
632.02	0.721
632.21	0.720
632.41	0.727
632.60	0.721
632.79	0.719
632.98	0.721
633.17	0.722
633.36	0.724
633.55	0.720
633.75	0.716
633.94	0.717
634.13	0.717
634.32	0.714
634.51	0.708
634.70	0.710
634.89	0.709
635.09	0.706
635.28	0.705
635.47	0.706
635.66	0.710
635.85	0.705
636.04	0.707
636.23	0.712
636.43	0.713
636.62	0.712
636.81	0.712
637.00	0.714
637.19	0.716
637.38	0.713
637.57	0.714
637.76	0.714
637.95	0.715
638.15	0.711
638.34	0.708
638.53	0.711
638.72	0.713
638.91	0.710
639.10	0.708
639.29	0.708
639.48	0.709
639.67	0.709
639.87	0.708
640.06	0.714
640.25	0.714
640.44	0.716
640.63	0.716
640.82	0.718
641.01	0.719
641.20	0.718
641.39	0.720
641.58	0.722
641.78	0.720
641.97	0.716
642.16	0.730
642.35	0.729
642.54	0.727
642.73	0.723
642.92	0.721
643.11	0.725
643.30	0.725
643.49	0.720
643.68	0.723
643.87	0.724
644.06	0.724
644.25	0.704
644.45	0.708
644.64	0.709
644.83	0.709
645.02	0.706
645.21	0.704
645.40	0.706
645.59	0.706
645.78	0.702
645.97	0.704
646.16	0.705
646.35	0.704
646.54	0.702
646.73	0.703
646.92	0.705
647.11	0.704
647.30	0.701
647.49	0.702
647.68	0.701
647.88	0.700
648.07	0.693
648.26	0.697
648.45	0.699
648.64	0.695
648.83	0.693
649.02	0.695
649.21	0.706
649.40	0.705
649.59	0.700
649.78	0.702
649.97	0.715
650.16	0.714
650.35	0.708
650.54	0.710
650.73	0.718
650.92	0.715
651.11	0.708
651.30	0.705
651.49	0.709
651.68	0.709
651.87	0.707
652.06	0.697
652.25	0.701
652.44	0.704
652.63	0.703
652.82	0.704
653.01	0.705
653.20	0.703
653.39	0.692
653.58	0.690
653.77	0.690
653.96	0.685
654.15	0.677
654.34	0.675
654.53	0.669
654.72	0.663
654.91	0.653
655.10	0.649
655.29	0.646
655.48	0.644
655.67	0.639
655.86	0.636
656.05	0.635
656.24	0.634
656.43	0.629
656.62	0.628
656.81	0.628
657.00	0.625
657.19	0.622
657.38	0.621
657.57	0.620
657.76	0.622
657.95	0.620
658.14	0.623
658.33	0.625
658.51	0.630
658.70	0.630
658.89	0.632
659.08	0.641
659.27	0.649
659.46	0.650
659.65	0.656
659.84	0.660
660.03	0.663
660.22	0.664
660.41	0.668
660.60	0.668
660.79	0.670
660.98	0.676
661.17	0.675
661.36	0.674
661.55	0.675
661.74	0.672
661.92	0.675
662.11	0.677
662.30	0.676
662.49	0.669
662.68	0.668
662.87	0.671
663.06	0.664
663.25	0.665
663.44	0.666
663.63	0.668
663.82	0.667
664.01	0.661
664.20	0.660
664.38	0.661
664.57	0.662
664.76	0.661
664.95	0.662
665.14	0.666
665.33	0.662
665.52	0.668
665.71	0.671
665.90	0.671
666.09	0.673
666.28	0.670
666.46	0.669
666.65	0.670
666.84	0.668
667.03	0.663
667.22	0.661
667.41	0.664
667.60	0.654
667.79	0.647
667.98	0.648
668.16	0.648
668.35	0.649
668.54	0.645
668.73	0.646
668.92	0.647
669.11	0.646
669.30	0.640
669.49	0.637
669.67	0.639
669.86	0.641
670.05	0.639
670.24	0.637
670.43	0.635
670.62	0.634
670.81	0.629
671.00	0.630
671.18	0.630
671.37	0.629
671.56	0.628
671.75	0.627
671.94	0.623
672.13	0.621
672.32	0.617
672.50	0.616
672.69	0.617
672.88	0.618
673.07	0.612
673.26	0.614
673.45	0.615
673.63	0.615
673.82	0.611
674.01	0.612
674.20	0.612
674.39	0.611
674.58	0.611
674.76	0.611
674.95	0.609
675.14	0.609
675.33	0.605
675.52	0.603
675.71	0.603
675.89	0.602
676.08	0.599
676.27	0.598
676.46	0.598
676.65	0.598
676.84	0.597
677.02	0.599
677.21	0.601
677.40	0.601
677.59	0.598
677.78	0.600
677.96	0.602
678.15	0.602
678.34	0.599
678.53	0.600
678.72	0.600
678.90	0.596
679.09	0.592
679.28	0.588
679.47	0.589
679.66	0.588
679.84	0.585
680.03	0.581
680.22	0.581
680.41	0.582
680.60	0.579
680.78	0.578
680.97	0.580
681.16	0.580
681.35	0.580
681.53	0.578
681.72	0.580
681.91	0.582
682.10	0.581
682.29	0.583
682.47	0.581
682.66	0.581
682.85	0.580
683.04	0.578
683.22	0.578
683.41	0.580
683.60	0.579
683.79	0.579
683.97	0.578
684.16	0.577
684.35	0.573
684.54	0.575
684.72	0.574
684.91	0.575
685.10	0.573
685.29	0.574
685.47	0.571
685.66	0.571
685.85	0.568
686.04	0.566
686.22	0.568
686.41	0.571
686.60	0.568
686.79	0.572
686.97	0.573
687.16	0.573
687.35	0.571
687.54	0.574
687.72	0.577
687.91	0.577
688.10	0.579
688.29	0.579
688.47	0.577
688.66	0.577
688.85	0.573
689.03	0.571
689.22	0.576
689.41	0.577
689.60	0.573
689.78	0.570
689.97	0.570
690.16	0.568
690.34	0.564
690.53	0.564
690.72	0.563
690.91	0.561
691.09	0.559
691.28	0.552
691.47	0.550
691.65	0.549
691.84	0.546
692.03	0.545
692.21	0.543
692.40	0.543
692.59	0.540
692.77	0.539
692.96	0.541
693.15	0.542
693.34	0.540
693.52	0.540
693.71	0.541
693.90	0.542
694.08	0.542
694.27	0.543
694.46	0.552
694.64	0.553
694.83	0.553
695.02	0.552
695.20	0.551
695.39	0.550
695.58	0.550
695.76	0.551
695.95	0.550
696.14	0.549
696.32	0.546
696.51	0.537
696.70	0.537
696.88	0.538
697.07	0.536
697.26	0.537
697.44	0.539
697.63	0.538
697.81	0.536
698.00	0.536
698.19	0.535
698.37	0.536
698.56	0.535
698.75	0.535
698.93	0.535
699.12	0.535
699.31	0.534
699.49	0.533
699.68	0.534
699.87	0.536
700.05	0.536
700.24	0.535
700.42	0.536
700.61	0.536
700.80	0.534
700.98	0.535
701.17	0.536
701.36	0.535
701.54	0.535
701.73	0.536
701.91	0.534
702.10	0.534
702.29	0.532
702.47	0.531
702.66	0.533
702.84	0.534
703.03	0.532
703.22	0.534
703.40	0.533
703.59	0.534
703.77	0.534
703.96	0.534
704.15	0.534
704.33	0.534
704.52	0.533
704.70	0.532
704.89	0.531
705.08	0.530
705.26	0.526
705.45	0.526
705.63	0.526
705.82	0.522
706.00	0.521
706.19	0.521
706.38	0.521
706.56	0.521
706.75	0.519
706.93	0.518
707.12	0.519
707.30	0.519
707.49	0.517
707.68	0.515
707.86	0.515
708.05	0.515
708.23	0.512
708.42	0.512
708.60	0.514
708.79	0.514
708.98	0.513
709.16	0.513
709.35	0.515
709.53	0.519
709.72	0.518
709.90	0.520
710.09	0.521
710.27	0.523
710.46	0.527
710.64	0.525
710.83	0.527
711.02	0.529
711.20	0.528
711.39	0.526
711.57	0.524
711.76	0.525
711.94	0.524
712.13	0.525
712.31	0.524
712.50	0.520
712.68	0.518
712.87	0.518
713.05	0.519
713.24	0.519
713.42	0.518
713.61	0.519
713.79	0.519
713.98	0.519
714.16	0.519
714.35	0.519
714.54	0.520
714.72	0.520
714.91	0.518
715.09	0.524
715.28	0.527
715.46	0.526
715.65	0.524
715.83	0.523
716.02	0.526
716.20	0.522
716.39	0.523
716.57	0.524
716.76	0.526
716.94	0.525
717.12	0.517
717.31	0.518
717.49	0.521
717.68	0.523
717.86	0.523
718.05	0.525
718.23	0.527
718.42	0.529
718.60	0.529
718.79	0.537
718.97	0.539
719.16	0.540
719.34	0.537
719.53	0.537
719.71	0.536
719.90	0.538
720.08	0.535
720.27	0.534
720.45	0.534
720.63	0.533
720.82	0.527
721.00	0.530
721.19	0.533
721.37	0.532
721.56	0.532
721.74	0.535
721.93	0.543
722.11	0.550
722.30	0.551
722.48	0.555
722.66	0.557
722.85	0.557
723.03	0.558
723.22	0.556
723.40	0.559
723.59	0.559
723.77	0.564
723.95	0.557
724.14	0.558
724.32	0.559
724.51	0.559
724.69	0.560
724.88	0.560
725.06	0.559
725.24	0.560
725.43	0.561
725.61	0.564
725.80	0.558
725.98	0.556
726.16	0.552
726.35	0.557
726.53	0.556
726.72	0.555
726.90	0.564
727.09	0.564
727.27	0.570
727.45	0.567
727.64	0.576
727.82	0.584
728.01	0.588
728.19	0.586
728.37	0.591
728.56	0.595
728.74	0.601
728.92	0.591
729.11	0.593
729.29	0.592
729.48	0.595
729.66	0.584
729.84	0.584
730.03	0.590
730.21	0.592
730.40	0.583
730.58	0.583
730.76	0.583
730.95	0.584
731.13	0.584
731.31	0.596
731.50	0.605
731.68	0.608
731.86	0.603
732.05	0.615
732.23	0.616
732.42	0.619
732.60	0.623
732.78	0.629
732.97	0.646
733.15	0.653
733.33	0.643
733.52	0.649
733.70	0.658
733.88	0.667
734.07	0.654
734.25	0.679
734.43	0.686
734.62	0.688
734.80	0.683
734.98	0.674
735.17	0.680
735.35	0.685
735.53	0.673
735.72	0.678
735.90	0.701
736.08	0.719
736.27	0.697
736.45	0.708
736.63	0.719
736.82	0.728
737.00	0.728
737.18	0.738
737.37	0.768
737.55	0.792
737.73	0.788
737.92	0.787
738.10	0.786
738.28	0.807
738.46	0.797
738.65	0.811
738.83	0.831
739.01	0.883
739.20	0.874
739.38	0.854
739.56	0.844
739.75	0.845
739.93	0.817
740.11	0.838
740.29	0.834
740.48	0.839
740.66	0.816
740.84	0.815
741.03	0.778
741.21	0.789
741.39	0.775
741.57	0.786
741.76	0.802
741.94	0.805
742.12	0.771
742.31	0.777
742.49	0.795
742.67	0.820
742.85	0.829
743.04	0.833
743.22	0.840
743.40	0.885
743.58	0.870
743.77	0.883
743.95	0.916
744.13	0.964
744.31	0.952
744.50	0.948
744.68	0.948
744.86	0.924
745.04	0.937
745.23	0.998
745.41	0.980
745.59	0.985
745.77	0.951
745.96	0.938
746.14	0.945
746.32	0.936
746.50	0.924
746.69	0.905
746.87	0.914
747.05	0.899
747.23	0.831
747.42	0.818
747.60	0.843
747.78	0.849
747.96	0.872
748.14	0.833
748.33	0.862
748.51	0.858
748.69	0.852
748.87	0.873
749.06	0.871
749.24	0.870
749.42	0.861
749.60	0.844
749.78	0.852
749.97	0.810
750.15	0.804
750.33	0.804
750.51	0.827
750.69	0.834
750.88	0.843
751.06	0.852
751.24	0.877
751.42	0.867
751.60	0.862
751.79	0.929
751.97	0.976
752.15	0.973
752.33	0.941
752.51	0.997
752.69	1.004
752.88	0.971
753.06	1.013
753.24	0.993
753.42	1.024
753.60	1.172
753.78	1.047
753.97	1.061
754.15	1.081
754.33	1.108
754.51	1.000
754.69	0.988
754.87	1.014
755.06	0.947
755.24	0.949
755.42	0.959
755.60	0.866
755.78	0.875
755.96	0.825
756.15	0.825
756.33	0.831
756.51	0.848
756.69	0.837
756.87	0.808
757.05	0.824
757.23	0.809
757.42	0.777
757.60	0.775
757.78	0.764
757.96	0.762
758.14	0.745
758.32	0.731
758.50	0.739
758.69	0.741
758.87	0.733
759.05	0.735
759.23	0.744
759.41	0.746
759.59	0.738
759.77	0.758
759.95	0.784
760.13	0.832
760.32	0.831
760.50	0.827
760.68	0.846
760.86	0.848
761.04	0.825
761.22	0.829
761.40	0.871
761.58	0.872
761.76	0.848
761.95	0.829
762.13	0.786
762.31	0.788
762.49	0.760
762.67	0.776
762.85	0.785
763.03	0.779
763.21	0.761
763.39	0.744
763.57	0.748
763.75	0.742
763.94	0.730
764.12	0.731
764.30	0.751
764.48	0.757
764.66	0.726
764.84	0.726
765.02	0.760
765.20	0.770
765.38	0.752
765.56	0.757
765.74	0.795
765.92	0.795
766.10	0.799
766.28	0.792
766.46	0.818
766.65	0.819
766.83	0.809
767.01	0.796
767.19	0.798
767.37	0.800
767.55	0.786
767.73	0.765
767.91	0.768
768.09	0.758
768.27	0.748
768.45	0.737
768.63	0.740
768.81	0.741
768.99	0.717
769.17	0.739
769.35	0.752
769.53	0.753
769.71	0.735
769.89	0.742
770.07	0.748
770.25	0.733
770.43	0.714
770.61	0.735
770.79	0.740
770.97	0.750
771.15	0.720
771.33	0.721
771.51	0.721
771.69	0.731
771.87	0.740
772.05	0.746
772.24	0.750
772.42	0.757
772.60	0.736
772.78	0.790
772.96	0.813
773.14	0.810
773.32	0.791
773.49	0.801
773.67	0.795
773.85	0.775
774.03	0.764
774.21	0.796
774.39	0.804
774.57	0.829
774.75	0.761
774.93	0.755
775.11	0.778
775.29	0.783
775.47	0.780
775.65	0.792
775.83	0.807
776.01	0.827
776.19	0.787
776.37	0.789
776.55	0.787
776.73	0.786
776.91	0.786
777.09	0.768
777.27	0.768
777.45	0.761
777.63	0.741
777.81	0.738
777.99	0.728
778.17	0.725
778.35	0.706
778.53	0.695
778.71	0.699
778.89	0.687
779.07	0.677
779.24	0.679
779.42	0.679
779.60	0.696
779.78	0.692
779.96	0.694
780.14	0.703
780.32	0.722
780.50	0.708
780.68	0.706
780.86	0.698
781.04	0.715
781.22	0.721
781.40	0.730
781.58	0.722
781.75	0.714
781.93	0.699
782.11	0.698
782.29	0.684
782.47	0.683
782.65	0.673
782.83	0.698
783.01	0.693
783.19	0.687
783.37	0.675
783.55	0.674
783.72	0.691
783.90	0.702
784.08	0.696
784.26	0.709
784.44	0.727
784.62	0.731
784.80	0.701
784.98	0.706
785.16	0.710
785.33	0.724
785.51	0.713
785.69	0.699
785.87	0.699
786.05	0.710
786.23	0.705
786.41	0.704
786.59	0.710
786.77	0.712
786.94	0.699
787.12	0.702
787.30	0.702
787.48	0.698
787.66	0.689
787.84	0.690
788.02	0.679
788.19	0.678
788.37	0.666
788.55	0.666
788.73	0.664
788.91	0.660
789.09	0.645
789.27	0.634
789.44	0.645
789.62	0.651
789.80	0.660
789.98	0.683
790.16	0.670
790.34	0.666
790.51	0.656
790.69	0.674
790.87	0.680
791.05	0.678
791.23	0.674
791.41	0.676
791.58	0.681
791.76	0.661
791.94	0.632
792.12	0.639
792.30	0.641
792.48	0.638
792.65	0.632
792.83	0.636
793.01	0.642
793.19	0.640
793.37	0.625
793.54	0.623
793.72	0.632
793.90	0.632
794.08	0.622
794.26	0.623
794.43	0.630
794.61	0.615
794.79	0.605
794.97	0.604
795.15	0.609
795.32	0.613
795.50	0.604
795.68	0.599
795.86	0.602
796.04	0.604
796.21	0.599
796.39	0.597
796.57	0.610
796.75	0.617
796.92	0.618
797.10	0.622
797.28	0.623
797.46	0.625
797.64	0.628
797.81	0.634
797.99	0.639
798.17	0.642
798.35	0.638
798.52	0.640
798.70	0.637
798.88	0.646
799.06	0.647
799.23	0.650
799.41	0.657
799.59	0.651
799.77	0.641
799.94	0.649
800.12	0.659
800.30	0.674
800.48	0.675
800.65	0.675
800.83	0.664
801.01	0.656
801.19	0.657
801.36	0.654
801.54	0.657
801.72	0.667
801.90	0.652
802.07	0.647
802.25	0.633
802.43	0.616
802.60	0.614
802.78	0.619
802.96	0.624
803.14	0.618
803.31	0.616
803.49	0.616
803.67	0.612
803.84	0.617
804.02	0.608
804.20	0.612
804.38	0.615
804.55	0.613
804.73	0.602
804.91	0.601
805.08	0.613
805.26	0.609
805.44	0.671
805.61	0.673
805.79	0.673
805.97	0.674
806.15	0.668
806.32	0.665
806.50	0.670
806.68	0.671
806.85	0.662
807.03	0.655
807.21	0.670
807.38	0.603
807.56	0.593
807.74	0.603
807.91	0.607
808.09	0.608
808.27	0.627
808.44	0.652
808.62	0.659
808.80	0.662
808.97	0.656
809.15	0.651
809.33	0.668
809.50	0.674
809.68	0.663
809.86	0.670
810.03	0.698
810.21	0.677
810.39	0.662
810.56	0.669
810.74	0.690
810.91	0.756
811.09	0.748
811.27	0.768
811.44	0.773
811.62	0.774
811.80	0.757
811.97	0.729
812.15	0.729
812.33	0.724
812.50	0.709
812.68	0.699
812.85	0.646
813.03	0.647
813.21	0.617
813.38	0.612
813.56	0.614
813.74	0.622
813.91	0.630
814.09	0.658
814.26	0.652
814.44	0.654
814.62	0.645
814.79	0.647
814.97	0.652
815.14	0.655
815.32	0.658
815.50	0.676
815.67	0.679
815.85	0.671
816.02	0.662
816.20	0.670
816.38	0.684
816.55	0.690
816.73	0.691
816.90	0.701
817.08	0.728
817.26	0.733
817.43	0.715
817.61	0.739
817.78	0.757
817.96	0.736
818.13	0.723
818.31	0.723
818.49	0.733
818.66	0.723
818.84	0.708
819.01	0.691
819.19	0.694
819.36	0.696
819.54	0.668
819.71	0.707
819.89	0.718
820.07	0.732
820.24	0.727
820.42	0.727
820.59	0.746
820.77	0.770
820.94	0.761
821.12	0.779
821.29	0.791
821.47	0.795
821.64	0.735
821.82	0.749
822.00	0.746
822.17	0.743
822.35	0.739
822.52	0.739
822.70	0.729
822.87	0.742
823.05	0.723
823.22	0.733
823.40	0.757
823.57	0.776
823.75	0.760
823.92	0.781
824.10	0.801
824.27	0.840
824.45	0.832
824.62	0.881
824.80	0.888
824.97	0.901
825.15	0.894
825.32	0.906
825.50	0.907
825.67	0.912
825.85	0.891
826.02	0.904
826.20	0.916
826.37	1.019
826.55	0.959
826.72	1.130
826.90	1.191
827.07	1.236
827.25	1.180
827.42	1.325
827.60	1.455
827.77	1.597
827.95	1.560
828.12	1.631
828.30	1.346
828.47	1.459
828.65	1.152
828.82	1.191
829.00	1.237
829.17	1.303
829.34	1.282
829.52	1.299
829.69	-0.000
829.87	-0.000
830.04	-0.000
830.22	-0.000
830.39	-0.000
830.57	-0.000
830.74	-0.000
830.92	-0.000
831.09	-0.000
831.26	-0.000
831.44	-0.000
831.61	-0.000
831.79	-0.000
831.96	-0.000
832.14	-0.000
832.31	-0.000
832.49	-0.000
832.66	-0.000
832.83	-0.000
833.01	-0.000
833.18	-0.000
833.36	-0.000
833.53	-0.000
833.70	-0.000
833.88	-0.000
834.05	-0.000
834.23	-0.000
834.40	-0.000
834.58	-0.000
834.75	-0.000
834.92	-0.000
835.10	-0.000
835.27	-0.000
835.45	-0.000
835.62	-0.000
835.79	-0.000
835.97	-0.000
836.14	-0.000
836.32	-0.000
836.49	-0.000
836.66	-0.000
836.84	-0.000
837.01	-0.000
837.18	-0.000
837.36	-0.000
837.53	-0.000
837.71	-0.000
837.88	-0.000
838.05	-0.000
838.23	-0.000
838.40	-0.000
838.58	-0.000
838.75	-0.000
838.92	-0.000
839.10	-0.000
839.27	-0.000
839.44	-0.000
839.62	-0.000
839.79	-0.000
839.96	-0.000
840.14	-0.000
840.31	-0.000
840.48	-0.000
840.66	-0.000
840.83	-0.000
841.01	-0.000
841.18	-0.000
841.35	-0.000
841.53	-0.000
841.70	-0.000
841.87	-0.000
842.05	-0.000
842.22	-0.000
842.39	-0.000
842.57	-0.000
842.74	-0.000
842.91	-0.000
843.09	-0.000
843.26	-0.000
843.43	-0.000
843.60	-0.000
843.78	-0.000
843.95	-0.000
844.12	-0.000
844.30	-0.000
844.47	-0.000
844.64	-0.000
844.82	-0.000
844.99	-0.000
845.16	-0.000
845.34	-0.000
845.51	-0.000
845.68	-0.000
845.85	-0.000
846.03	-0.000
846.20	-0.000
846.37	-0.000
846.55	-0.000
846.72	-0.000
846.89	-0.000
847.06	-0.000
847.24	-0.000
847.41	-0.000
847.58	-0.000
847.76	-0.000
847.93	-0.000
848.10	-0.000
848.27	-0.000
848.45	-0.000
848.62	-0.000
848.79	-0.000
848.97	-0.000
849.14	-0.000
849.31	-0.000
849.48	-0.000
849.66	-0.000
849.83	-0.000
850.00	-0.000
850.17	-0.000
850.35	-0.000
850.52	-0.000
850.69	-0.000
850.86	-0.000
851.04	-0.000
851.21	-0.000
851.38	-0.000
851.55	-0.000
851.72	-0.000
851.90	-0.000
852.07	-0.000
852.24	-0.000
852.41	-0.000
852.59	-0.000
852.76	-0.000
852.93	-0.000
853.10	-0.000
853.28	-0.000
853.45	-0.000
853.62	-0.000
853.79	-0.000
853.96	-0.000
854.14	-0.000
854.31	-0.000
854.48	-0.000
854.65	-0.000
854.82	-0.000
855.00	-0.000
855.17	-0.000
855.34	-0.000
855.51	-0.000
855.68	-0.000
855.86	-0.000
856.03	-0.000
856.20	-0.000
856.37	-0.000
856.54	-0.000
856.72	-0.000
856.89	-0.000
857.06	-0.000
857.23	-0.000
857.40	-0.000
857.57	-0.000
857.75	-0.000
857.92	-0.000
858.09	-0.000
858.26	-0.000
858.43	-0.000
858.60	-0.000
858.78	-0.000
858.95	-0.000
859.12	-0.000
859.29	-0.000
859.46	-0.000
859.63	-0.000
859.81	-0.000
859.98	-0.000
860.15	-0.000
860.32	-0.000
860.49	-0.000
860.66	-0.000
860.83	-0.000
861.01	-0.000
861.18	-0.000
861.35	-0.000
861.52	-0.000
861.69	-0.000
861.86	-0.000
862.03	-0.000
862.21	-0.000
862.38	-0.000
862.55	-0.000
862.72	-0.000
862.89	-0.000
863.06	-0.000
863.23	-0.000
863.40	-0.000
863.58	-0.000
863.75	-0.000
863.92	-0.000
864.09	-0.000
864.26	-0.000
864.43	-0.000
864.60	-0.000
864.77	-0.000
864.94	-0.000
865.11	-0.000
865.29	-0.000
865.46	-0.000
865.63	-0.000
865.80	-0.000
865.97	-0.000
866.14	-0.000
866.31	-0.000
866.48	-0.000
866.65	-0.000
866.82	-0.000
866.99	-0.000
867.16	-0.000
867.34	-0.000
867.51	-0.000
867.68	-0.000
867.85	-0.000
868.02	-0.000
868.19	-0.000
868.36	-0.000
868.53	-0.000
868.70	-0.000
868.87	-0.000
869.04	-0.000
869.21	-0.000
869.38	-0.000
869.55	-0.000
869.72	-0.000
869.89	-0.000
870.06	-0.000
870.24	-0.000
870.41	-0.000
870.58	-0.000
870.75	-0.000
870.92	-0.000
871.09	-0.000
871.26	-0.000
871.43	-0.000
871.60	-0.000
871.77	-0.000
871.94	-0.000
872.11	-0.000
872.28	-0.000
872.45	-0.000
872.62	-0.000
872.79	-0.000
872.96	-0.000
873.13	-0.000
873.30	-0.000
873.47	-0.000
873.64	-0.000
873.81	-0.000
873.98	-0.000
874.15	-0.000
874.32	-0.000
874.49	-0.000
874.66	-0.000
874.83	-0.000
875.00	-0.000
875.17	-0.000
875.34	-0.000
875.51	-0.000
875.68	-0.000
875.85	-0.000
876.02	-0.000
876.19	-0.000
876.36	-0.000
876.53	-0.000
876.70	-0.000
876.87	-0.000
877.04	-0.000
877.21	-0.000
877.38	-0.000
877.55	-0.000
877.72	-0.000
877.89	-0.000
878.06	-0.000
878.23	-0.000
878.39	-0.000
878.56	-0.000
878.73	-0.000
878.90	-0.000
879.07	-0.000
879.24	-0.000
879.41	-0.000
879.58	-0.000
879.75	-0.000
879.92	-0.000
880.09	-0.000
880.26	-0.000
880.43	-0.000
880.60	-0.000
880.77	-0.000
880.94	-0.000
881.11	-0.000
881.27	-0.000
881.44	-0.000
881.61	-0.000
881.78	-0.000
881.95	-0.000
882.12	-0.000
882.29	-0.000
882.46	-0.000
882.63	-0.000
882.80	-0.000
882.97	-0.000
883.14	-0.000
883.30	-0.000
883.47	-0.000
883.64	-0.000
883.81	-0.000
883.98	-0.000
884.15	-0.000
884.32	-0.000
884.49	-0.000
884.66	-0.000
884.82	-0.000
884.99	-0.000
885.16	-0.000
885.33	-0.000
885.50	-0.000
885.67	-0.000
885.84	-0.000
886.01	-0.000
886.17	-0.000
886.34	-0.000
886.51	-0.000
886.68	-0.000
886.85	-0.000
887.02	-0.000
887.19	-0.000
887.36	-0.000
887.52	-0.000
887.69	-0.000
887.86	-0.000
888.03	-0.000
888.20	-0.000
888.37	-0.000
888.54	-0.000
888.70	-0.000
888.87	-0.000
889.04	-0.000
889.21	-0.000
889.38	-0.000
889.55	-0.000
889.71	-0.000
889.88	-0.000
890.05	-0.000
890.22	-0.000
890.39	-0.000
>>>>>End Processed Spectral Data<<<<<
