SpectraSuite Data File
++++++++++++++++++++++++++++++++++++
Date: Fri Jun 19 12:52:39 CEST 2015
User: introlabs
Dark Spectrum Present: Yes
Reference Spectrum Present: Yes
Number of Sampled Component Spectra: 1
Spectrometers: USB4H08886
Integration Time (usec): 745692 (USB4H08886)
Spectra Averaged: 5 (USB4H08886)
Boxcar Smoothing: 5 (USB4H08886)
Correct for Electrical Dark: Yes (USB4H08886)
Strobe/Lamp Enabled: No (USB4H08886)
Correct for Detector Non-linearity: Yes (USB4H08886)
Correct for Stray Light: Yes (USB4H08886)
Number of Pixels in Processed Spectrum: 3648
>>>>>Begin Processed Spectral Data<<<<<
178.14	-0.000
178.36	-0.000
178.57	-0.000
178.79	-0.000
179.01	-0.000
179.22	-0.000
179.44	-0.000
179.65	-0.000
179.87	-0.000
180.08	-0.000
180.30	-0.000
180.52	-0.000
180.73	-0.000
180.95	-0.000
181.16	-0.000
181.38	-0.000
181.59	-0.000
181.81	-0.000
182.03	-0.000
182.24	-0.000
182.46	-0.000
182.67	-0.000
182.89	-0.000
183.10	-0.000
183.32	-0.000
183.54	-0.000
183.75	-0.000
183.97	-0.000
184.18	-0.000
184.40	-0.000
184.61	-0.000
184.83	-0.000
185.04	-0.000
185.26	-0.000
185.48	-0.000
185.69	-0.000
185.91	-0.000
186.12	-0.000
186.34	-0.000
186.55	-0.000
186.77	-0.000
186.98	-0.000
187.20	-0.000
187.42	-0.000
187.63	-0.000
187.85	-0.000
188.06	-0.000
188.28	-0.000
188.49	-0.000
188.71	-0.000
188.92	-0.000
189.14	-0.000
189.36	-0.000
189.57	-0.000
189.79	-0.000
190.00	-0.000
190.22	-0.000
190.43	-0.000
190.65	-0.000
190.86	-0.000
191.08	-0.000
191.29	-0.000
191.51	-0.000
191.72	-0.000
191.94	-0.000
192.16	-0.000
192.37	-0.000
192.59	-0.000
192.80	-0.000
193.02	-0.000
193.23	-0.000
193.45	-0.000
193.66	-0.000
193.88	-0.000
194.09	-0.000
194.31	-0.000
194.52	-0.000
194.74	-0.000
194.95	-0.000
195.17	-0.000
195.38	-0.000
195.60	-0.000
195.81	-0.000
196.03	-0.000
196.25	-0.000
196.46	-0.000
196.68	-0.000
196.89	-0.000
197.11	-0.000
197.32	-0.000
197.54	-0.000
197.75	-0.000
197.97	-0.000
198.18	-0.000
198.40	-0.000
198.61	-0.000
198.83	-0.000
199.04	-0.000
199.26	-0.000
199.47	-0.000
199.69	-0.000
199.90	-0.000
200.12	-0.000
200.33	-0.000
200.55	-0.000
200.76	-0.000
200.98	-0.000
201.19	-0.000
201.41	-0.000
201.62	-0.000
201.84	-0.000
202.05	-0.000
202.27	-0.000
202.48	-0.000
202.70	-0.000
202.91	-0.000
203.13	-0.000
203.34	-0.000
203.56	-0.000
203.77	-0.000
203.99	-0.000
204.20	-0.000
204.42	-0.000
204.63	-0.000
204.85	-0.000
205.06	-0.000
205.28	-0.000
205.49	-0.000
205.71	-0.000
205.92	-0.000
206.14	-0.000
206.35	-0.000
206.56	-0.000
206.78	-0.000
206.99	-0.000
207.21	-0.000
207.42	-0.000
207.64	-0.000
207.85	-0.000
208.07	-0.000
208.28	-0.000
208.50	-0.000
208.71	-0.000
208.93	-0.000
209.14	-0.000
209.36	-0.000
209.57	-0.000
209.79	-0.000
210.00	-0.000
210.22	-0.000
210.43	-0.000
210.64	-0.000
210.86	-0.000
211.07	-0.000
211.29	-0.000
211.50	-0.000
211.72	-0.000
211.93	-0.000
212.15	-0.000
212.36	-0.000
212.58	-0.000
212.79	-0.000
213.01	-0.000
213.22	-0.000
213.43	-0.000
213.65	-0.000
213.86	-0.000
214.08	-0.000
214.29	-0.000
214.51	-0.000
214.72	-0.000
214.94	-0.000
215.15	-0.000
215.36	-0.000
215.58	-0.000
215.79	-0.000
216.01	-0.000
216.22	-0.000
216.44	-0.000
216.65	-0.000
216.87	-0.000
217.08	-0.000
217.29	-0.000
217.51	-0.000
217.72	-0.000
217.94	-0.000
218.15	-0.000
218.37	-0.000
218.58	-0.000
218.80	-0.000
219.01	-0.000
219.22	-0.000
219.44	-0.000
219.65	-0.000
219.87	-0.000
220.08	-0.000
220.30	-0.000
220.51	-0.000
220.72	-0.000
220.94	-0.000
221.15	-0.000
221.37	-0.000
221.58	-0.000
221.79	-0.000
222.01	-0.000
222.22	-0.000
222.44	-0.000
222.65	-0.000
222.87	-0.000
223.08	-0.000
223.29	-0.000
223.51	-0.000
223.72	-0.000
223.94	-0.000
224.15	-0.000
224.36	-0.000
224.58	-0.000
224.79	-0.000
225.01	-0.000
225.22	-0.000
225.44	-0.000
225.65	-0.000
225.86	-0.000
226.08	-0.000
226.29	-0.000
226.51	-0.000
226.72	-0.000
226.93	-0.000
227.15	-0.000
227.36	-0.000
227.58	-0.000
227.79	-0.000
228.00	-0.000
228.22	-0.000
228.43	-0.000
228.65	-0.000
228.86	-0.000
229.07	-0.000
229.29	-0.000
229.50	-0.000
229.72	-0.000
229.93	-0.000
230.14	-0.000
230.36	-0.000
230.57	-0.000
230.78	-0.000
231.00	-0.000
231.21	-0.000
231.43	-0.000
231.64	-0.000
231.85	-0.000
232.07	-0.000
232.28	-0.000
232.50	-0.000
232.71	-0.000
232.92	-0.000
233.14	-0.000
233.35	-0.000
233.56	-0.000
233.78	-0.000
233.99	-0.000
234.21	-0.000
234.42	-0.000
234.63	-0.000
234.85	-0.000
235.06	-0.000
235.27	-0.000
235.49	-0.000
235.70	-0.000
235.91	-0.000
236.13	-0.000
236.34	-0.000
236.56	-0.000
236.77	-0.000
236.98	-0.000
237.20	-0.000
237.41	-0.000
237.62	-0.000
237.84	-0.000
238.05	-0.000
238.26	-0.000
238.48	-0.000
238.69	-0.000
238.91	-0.000
239.12	-0.000
239.33	-0.000
239.55	-0.000
239.76	-0.000
239.97	-0.000
240.19	-0.000
240.40	-0.000
240.61	-0.000
240.83	-0.000
241.04	-0.000
241.25	-0.000
241.47	-0.000
241.68	-0.000
241.89	-0.000
242.11	-0.000
242.32	-0.000
242.53	-0.000
242.75	-0.000
242.96	-0.000
243.17	-0.000
243.39	-0.000
243.60	-0.000
243.81	-0.000
244.03	-0.000
244.24	-0.000
244.45	-0.000
244.67	-0.000
244.88	-0.000
245.09	-0.000
245.31	-0.000
245.52	-0.000
245.73	-0.000
245.95	-0.000
246.16	-0.000
246.37	-0.000
246.59	-0.000
246.80	-0.000
247.01	-0.000
247.23	-0.000
247.44	-0.000
247.65	-0.000
247.87	-0.000
248.08	-0.000
248.29	-0.000
248.51	-0.000
248.72	-0.000
248.93	-0.000
249.15	-0.000
249.36	-0.000
249.57	-0.000
249.78	-0.000
250.00	-0.000
250.21	-0.000
250.42	-0.000
250.64	-0.000
250.85	-0.000
251.06	-0.000
251.28	-0.000
251.49	-0.000
251.70	-0.000
251.92	-0.000
252.13	-0.000
252.34	-0.000
252.55	-0.000
252.77	-0.000
252.98	-0.000
253.19	-0.000
253.41	-0.000
253.62	-0.000
253.83	-0.000
254.05	-0.000
254.26	-0.000
254.47	-0.000
254.68	-0.000
254.90	-0.000
255.11	-0.000
255.32	-0.000
255.54	-0.000
255.75	-0.000
255.96	-0.000
256.17	-0.000
256.39	-0.000
256.60	-0.000
256.81	-0.000
257.03	-0.000
257.24	-0.000
257.45	-0.000
257.66	-0.000
257.88	-0.000
258.09	-0.000
258.30	-0.000
258.51	-0.000
258.73	-0.000
258.94	-0.000
259.15	-0.000
259.37	-0.000
259.58	-0.000
259.79	-0.000
260.00	-0.000
260.22	-0.000
260.43	-0.000
260.64	-0.000
260.85	-0.000
261.07	-0.000
261.28	-0.000
261.49	-0.000
261.71	-0.000
261.92	-0.000
262.13	-0.000
262.34	-0.000
262.56	-0.000
262.77	-0.000
262.98	-0.000
263.19	-0.000
263.41	-0.000
263.62	-0.000
263.83	-0.000
264.04	-0.000
264.26	-0.000
264.47	-0.000
264.68	-0.000
264.89	-0.000
265.11	-0.000
265.32	-0.000
265.53	-0.000
265.74	-0.000
265.96	-0.000
266.17	-0.000
266.38	-0.000
266.59	-0.000
266.81	-0.000
267.02	-0.000
267.23	-0.000
267.44	-0.000
267.65	-0.000
267.87	-0.000
268.08	-0.000
268.29	-0.000
268.50	-0.000
268.72	-0.000
268.93	-0.000
269.14	-0.000
269.35	-0.000
269.57	-0.000
269.78	-0.000
269.99	-0.000
270.20	-0.000
270.41	-0.000
270.63	-0.000
270.84	-0.000
271.05	-0.000
271.26	-0.000
271.48	-0.000
271.69	-0.000
271.90	-0.000
272.11	-0.000
272.32	-0.000
272.54	-0.000
272.75	-0.000
272.96	-0.000
273.17	-0.000
273.39	-0.000
273.60	-0.000
273.81	-0.000
274.02	-0.000
274.23	-0.000
274.45	-0.000
274.66	-0.000
274.87	-0.000
275.08	-0.000
275.29	-0.000
275.51	-0.000
275.72	-0.000
275.93	-0.000
276.14	-0.000
276.35	-0.000
276.57	-0.000
276.78	-0.000
276.99	-0.000
277.20	-0.000
277.41	-0.000
277.63	-0.000
277.84	-0.000
278.05	-0.000
278.26	-0.000
278.47	-0.000
278.69	-0.000
278.90	-0.000
279.11	-0.000
279.32	-0.000
279.53	-0.000
279.74	-0.000
279.96	-0.000
280.17	-0.000
280.38	-0.000
280.59	-0.000
280.80	-0.000
281.02	-0.000
281.23	-0.000
281.44	-0.000
281.65	-0.000
281.86	-0.000
282.07	-0.000
282.29	-0.000
282.50	-0.000
282.71	-0.000
282.92	-0.000
283.13	-0.000
283.35	-0.000
283.56	-0.000
283.77	-0.000
283.98	-0.000
284.19	-0.000
284.40	-0.000
284.62	-0.000
284.83	-0.000
285.04	-0.000
285.25	-0.000
285.46	-0.000
285.67	-0.000
285.88	-0.000
286.10	-0.000
286.31	-0.000
286.52	-0.000
286.73	-0.000
286.94	-0.000
287.15	-0.000
287.37	-0.000
287.58	-0.000
287.79	-0.000
288.00	-0.000
288.21	-0.000
288.42	-0.000
288.63	-0.000
288.85	-0.000
289.06	-0.000
289.27	-0.000
289.48	-0.000
289.69	-0.000
289.90	-0.000
290.11	-0.000
290.33	-0.000
290.54	-0.000
290.75	-0.000
290.96	-0.000
291.17	-0.000
291.38	-0.000
291.59	-0.000
291.81	-0.000
292.02	-0.000
292.23	-0.000
292.44	-0.000
292.65	-0.000
292.86	-0.000
293.07	-0.000
293.28	-0.000
293.50	-0.000
293.71	-0.000
293.92	-0.000
294.13	-0.000
294.34	-0.000
294.55	-0.000
294.76	-0.000
294.97	-0.000
295.19	-0.000
295.40	-0.000
295.61	-0.000
295.82	-0.000
296.03	-0.000
296.24	-0.000
296.45	-0.000
296.66	2.395
296.87	2.548
297.09	-0.000
297.30	-0.000
297.51	2.144
297.72	2.035
297.93	2.355
298.14	2.226
298.35	2.067
298.56	1.981
298.77	2.322
298.99	2.205
299.20	2.074
299.41	2.004
299.62	1.931
299.83	1.914
300.04	1.773
300.25	1.747
300.46	1.813
300.67	1.765
300.88	1.686
301.10	1.688
301.31	1.821
301.52	1.725
301.73	1.629
301.94	1.634
302.15	1.653
302.36	1.591
302.57	1.502
302.78	1.515
302.99	1.578
303.20	1.589
303.41	1.463
303.63	1.440
303.84	1.448
304.05	1.443
304.26	1.367
304.47	1.379
304.68	1.386
304.89	1.375
305.10	1.323
305.31	1.312
305.52	1.368
305.73	1.362
305.94	1.308
306.15	1.301
306.37	1.329
306.58	1.338
306.79	1.298
307.00	1.324
307.21	1.377
307.42	1.367
307.63	1.318
307.84	1.281
308.05	1.329
308.26	1.328
308.47	1.299
308.68	1.296
308.89	1.300
309.10	1.293
309.31	1.242
309.52	1.229
309.73	1.247
309.95	1.241
310.16	1.205
310.37	1.191
310.58	1.212
310.79	1.209
311.00	1.200
311.21	1.203
311.42	1.207
311.63	1.202
311.84	1.179
312.05	1.176
312.26	1.200
312.47	1.213
312.68	1.186
312.89	1.170
313.10	1.179
313.31	1.151
313.52	1.148
313.73	1.150
313.94	1.155
314.15	1.138
314.36	1.113
314.57	1.106
314.78	1.094
314.99	1.086
315.21	1.069
315.42	1.074
315.63	1.088
315.84	1.064
316.05	1.048
316.26	1.056
316.47	1.077
316.68	1.072
316.89	1.050
317.10	1.073
317.31	1.082
317.52	1.083
317.73	1.060
317.94	1.061
318.15	1.106
318.36	1.104
318.57	1.086
318.78	1.071
318.99	1.111
319.20	1.108
319.41	1.068
319.62	1.069
319.83	1.085
320.04	1.078
320.25	1.060
320.46	1.028
320.67	1.036
320.88	1.029
321.09	1.015
321.30	0.999
321.51	1.015
321.72	1.013
321.93	0.996
322.14	0.988
322.35	1.016
322.56	1.019
322.77	1.004
322.98	1.013
323.19	1.023
323.40	1.029
323.61	1.007
323.82	1.002
324.03	1.010
324.24	1.006
324.45	0.992
324.66	0.974
324.87	0.971
325.08	0.971
325.29	0.951
325.50	0.943
325.71	0.949
325.92	0.957
326.13	0.942
326.34	0.941
326.55	0.951
326.76	0.949
326.97	0.937
327.18	0.930
327.39	0.956
327.60	0.957
327.80	0.956
328.01	0.954
328.22	0.954
328.43	0.957
328.64	0.945
328.85	0.949
329.06	0.953
329.27	0.953
329.48	0.948
329.69	0.929
329.90	0.939
330.11	0.931
330.32	0.924
330.53	0.917
330.74	0.917
330.95	0.915
331.16	0.899
331.37	0.905
331.58	0.905
331.79	0.905
332.00	0.895
332.21	0.888
332.42	0.893
332.63	0.885
332.83	0.879
333.04	0.882
333.25	0.896
333.46	0.894
333.67	0.880
333.88	0.883
334.09	0.893
334.30	0.890
334.51	0.883
334.72	0.878
334.93	0.883
335.14	0.882
335.35	0.873
335.56	0.868
335.77	0.877
335.98	0.877
336.18	0.870
336.39	0.864
336.60	0.868
336.81	0.865
337.02	0.863
337.23	0.867
337.44	0.871
337.65	0.873
337.86	0.861
338.07	0.857
338.28	0.862
338.49	0.859
338.70	0.850
338.91	0.857
339.11	0.865
339.32	0.862
339.53	0.849
339.74	0.845
339.95	0.842
340.16	0.841
340.37	0.832
340.58	0.830
340.79	0.835
341.00	0.835
341.21	0.823
341.41	0.824
341.62	0.826
341.83	0.826
342.04	0.821
342.25	0.832
342.46	0.839
342.67	0.837
342.88	0.830
343.09	0.829
343.30	0.837
343.50	0.840
343.71	0.830
343.92	0.828
344.13	0.835
344.34	0.835
344.55	0.817
344.76	0.815
344.97	0.820
345.18	0.819
345.38	0.815
345.59	0.808
345.80	0.809
346.01	0.807
346.22	0.802
346.43	0.796
346.64	0.805
346.85	0.805
347.06	0.798
347.26	0.798
347.47	0.803
347.68	0.799
347.89	0.795
348.10	0.789
348.31	0.797
348.52	0.797
348.73	0.793
348.93	0.790
349.14	0.792
349.35	0.792
349.56	0.785
349.77	0.781
349.98	0.788
350.19	0.785
350.39	0.780
350.60	0.776
350.81	0.793
351.02	0.791
351.23	0.786
351.44	0.790
351.65	0.793
351.86	0.791
352.06	0.789
352.27	0.789
352.48	0.791
352.69	0.790
352.90	0.785
353.11	0.771
353.31	0.778
353.52	0.774
353.73	0.765
353.94	0.767
354.15	0.774
354.36	0.774
354.57	0.764
354.77	0.766
354.98	0.766
355.19	0.766
355.40	0.764
355.61	0.770
355.82	0.776
356.02	0.775
356.23	0.767
356.44	0.768
356.65	0.772
356.86	0.773
357.07	0.767
357.27	0.770
357.48	0.773
357.69	0.769
357.90	0.754
358.11	0.751
358.32	0.755
358.52	0.758
358.73	0.747
358.94	0.750
359.15	0.756
359.36	0.756
359.56	0.751
359.77	0.748
359.98	0.756
360.19	0.756
360.40	0.752
360.61	0.753
360.81	0.753
361.02	0.753
361.23	0.743
361.44	0.742
361.65	0.743
361.85	0.742
362.06	0.740
362.27	0.741
362.48	0.742
362.69	0.744
362.89	0.738
363.10	0.740
363.31	0.745
363.52	0.749
363.73	0.744
363.93	0.745
364.14	0.747
364.35	0.749
364.56	0.738
364.77	0.740
364.97	0.743
365.18	0.744
365.39	0.738
365.60	0.735
365.81	0.737
366.01	0.737
366.22	0.733
366.43	0.732
366.64	0.734
366.84	0.741
367.05	0.737
367.26	0.736
367.47	0.738
367.68	0.738
367.88	0.734
368.09	0.732
368.30	0.734
368.51	0.734
368.71	0.733
368.92	0.738
369.13	0.737
369.34	0.736
369.55	0.734
369.75	0.734
369.96	0.741
370.17	0.740
370.38	0.737
370.58	0.737
370.79	0.743
371.00	0.741
371.21	0.731
371.41	0.735
371.62	0.740
371.83	0.736
372.04	0.734
372.24	0.727
372.45	0.729
372.66	0.729
372.87	0.724
373.07	0.721
373.28	0.721
373.49	0.726
373.70	0.716
373.90	0.715
374.11	0.725
374.32	0.724
374.53	0.723
374.73	0.723
374.94	0.727
375.15	0.727
375.36	0.724
375.56	0.733
375.77	0.734
375.98	0.734
376.19	0.731
376.39	0.723
376.60	0.727
376.81	0.727
377.02	0.725
377.22	0.723
377.43	0.723
377.64	0.723
377.84	0.714
378.05	0.718
378.26	0.725
378.47	0.724
378.67	0.721
378.88	0.718
379.09	0.718
379.30	0.719
379.50	0.715
379.71	0.718
379.92	0.721
380.12	0.721
380.33	0.712
380.54	0.708
380.75	0.715
380.95	0.715
381.16	0.713
381.37	0.714
381.57	0.715
381.78	0.716
381.99	0.715
382.20	0.714
382.40	0.717
382.61	0.717
382.82	0.713
383.02	0.706
383.23	0.710
383.44	0.709
383.64	0.706
383.85	0.708
384.06	0.711
384.27	0.709
384.47	0.705
384.68	0.705
384.89	0.712
385.09	0.711
385.30	0.710
385.51	0.708
385.71	0.713
385.92	0.714
386.13	0.712
386.33	0.713
386.54	0.715
386.75	0.714
386.95	0.710
387.16	0.706
387.37	0.709
387.58	0.709
387.78	0.706
387.99	0.703
388.20	0.705
388.40	0.702
388.61	0.699
388.82	0.702
389.02	0.704
389.23	0.705
389.44	0.702
389.64	0.701
389.85	0.712
390.06	0.712
390.26	0.712
390.47	0.711
390.68	0.713
390.88	0.711
391.09	0.706
391.30	0.705
391.50	0.705
391.71	0.705
391.92	0.703
392.12	0.695
392.33	0.696
392.53	0.695
392.74	0.696
392.95	0.695
393.15	0.698
393.36	0.699
393.57	0.696
393.77	0.699
393.98	0.700
394.19	0.699
394.39	0.698
394.60	0.699
394.81	0.701
395.01	0.699
395.22	0.696
395.43	0.697
395.63	0.702
395.84	0.704
396.04	0.698
396.25	0.701
396.46	0.704
396.66	0.702
396.87	0.699
397.08	0.696
397.28	0.698
397.49	0.699
397.69	0.695
397.90	0.689
398.11	0.691
398.31	0.692
398.52	0.688
398.73	0.689
398.93	0.688
399.14	0.687
399.34	0.686
399.55	0.687
399.76	0.688
399.96	0.689
400.17	0.687
400.37	0.686
400.58	0.692
400.79	0.693
400.99	0.691
401.20	0.696
401.41	0.699
401.61	0.699
401.82	0.703
402.02	0.703
402.23	0.705
402.44	0.704
402.64	0.704
402.85	0.698
403.05	0.698
403.26	0.697
403.47	0.690
403.67	0.689
403.88	0.690
404.08	0.684
404.29	0.682
404.50	0.682
404.70	0.682
404.91	0.681
405.11	0.678
405.32	0.678
405.52	0.679
405.73	0.678
405.94	0.676
406.14	0.678
406.35	0.681
406.55	0.681
406.76	0.678
406.97	0.679
407.17	0.682
407.38	0.682
407.58	0.680
407.79	0.683
407.99	0.686
408.20	0.686
408.41	0.681
408.61	0.679
408.82	0.680
409.02	0.680
409.23	0.677
409.43	0.677
409.64	0.678
409.84	0.678
410.05	0.673
410.26	0.672
410.46	0.672
410.67	0.671
410.87	0.672
411.08	0.673
411.28	0.675
411.49	0.677
411.69	0.674
411.90	0.675
412.11	0.677
412.31	0.678
412.52	0.676
412.72	0.677
412.93	0.678
413.13	0.677
413.34	0.673
413.54	0.674
413.75	0.676
413.95	0.675
414.16	0.672
414.37	0.674
414.57	0.675
414.78	0.678
414.98	0.675
415.19	0.677
415.39	0.675
415.60	0.677
415.80	0.675
416.01	0.673
416.21	0.675
416.42	0.676
416.62	0.670
416.83	0.670
417.03	0.670
417.24	0.670
417.44	0.668
417.65	0.667
417.86	0.668
418.06	0.666
418.27	0.664
418.47	0.666
418.68	0.667
418.88	0.667
419.09	0.665
419.29	0.666
419.50	0.668
419.70	0.667
419.91	0.666
420.11	0.663
420.32	0.666
420.52	0.666
420.73	0.664
420.93	0.665
421.14	0.666
421.34	0.665
421.55	0.662
421.75	0.661
421.96	0.663
422.16	0.663
422.37	0.662
422.57	0.660
422.78	0.662
422.98	0.659
423.19	0.657
423.39	0.656
423.60	0.660
423.80	0.661
424.01	0.659
424.21	0.662
424.42	0.663
424.62	0.663
424.83	0.661
425.03	0.661
425.23	0.663
425.44	0.664
425.64	0.663
425.85	0.662
426.05	0.664
426.26	0.664
426.46	0.661
426.67	0.660
426.87	0.666
427.08	0.667
427.28	0.664
427.49	0.665
427.69	0.666
427.90	0.666
428.10	0.662
428.31	0.662
428.51	0.664
428.71	0.664
428.92	0.664
429.12	0.661
429.33	0.662
429.53	0.666
429.74	0.670
429.94	0.671
430.15	0.670
430.35	0.670
430.56	0.667
430.76	0.667
430.96	0.668
431.17	0.665
431.37	0.662
431.58	0.660
431.78	0.657
431.99	0.650
432.19	0.652
432.40	0.654
432.60	0.655
432.80	0.658
433.01	0.656
433.21	0.656
433.42	0.658
433.62	0.660
433.83	0.660
434.03	0.662
434.23	0.666
434.44	0.664
434.64	0.662
434.85	0.666
435.05	0.667
435.26	0.667
435.46	0.665
435.66	0.665
435.87	0.665
436.07	0.665
436.28	0.661
436.48	0.659
436.69	0.659
436.89	0.660
437.09	0.655
437.30	0.654
437.50	0.654
437.71	0.666
437.91	0.665
438.11	0.667
438.32	0.671
438.52	0.671
438.73	0.670
438.93	0.668
439.13	0.667
439.34	0.671
439.54	0.668
439.75	0.668
439.95	0.659
440.15	0.663
440.36	0.662
440.56	0.659
440.77	0.660
440.97	0.660
441.17	0.659
441.38	0.661
441.58	0.658
441.79	0.658
441.99	0.655
442.19	0.655
442.40	0.653
442.60	0.653
442.81	0.650
443.01	0.650
443.21	0.651
443.42	0.651
443.62	0.649
443.82	0.649
444.03	0.651
444.23	0.651
444.44	0.652
444.64	0.650
444.84	0.651
445.05	0.651
445.25	0.649
445.45	0.649
445.66	0.652
445.86	0.651
446.06	0.653
446.27	0.652
446.47	0.656
446.68	0.654
446.88	0.652
447.08	0.652
447.29	0.655
447.49	0.655
447.69	0.654
447.90	0.653
448.10	0.658
448.30	0.655
448.51	0.655
448.71	0.653
448.91	0.656
449.12	0.655
449.32	0.657
449.52	0.656
449.73	0.660
449.93	0.659
450.14	0.659
450.34	0.658
450.54	0.661
450.75	0.659
450.95	0.659
451.15	0.658
451.36	0.661
451.56	0.657
451.76	0.656
451.97	0.652
452.17	0.653
452.37	0.652
452.58	0.648
452.78	0.647
452.98	0.650
453.19	0.649
453.39	0.650
453.59	0.648
453.79	0.650
454.00	0.651
454.20	0.649
454.40	0.650
454.61	0.653
454.81	0.654
455.01	0.652
455.22	0.653
455.42	0.655
455.62	0.653
455.83	0.653
456.03	0.656
456.23	0.657
456.44	0.658
456.64	0.656
456.84	0.656
457.04	0.657
457.25	0.656
457.45	0.653
457.65	0.651
457.86	0.652
458.06	0.651
458.26	0.646
458.47	0.646
458.67	0.647
458.87	0.648
459.07	0.646
459.28	0.648
459.48	0.650
459.68	0.651
459.89	0.650
460.09	0.649
460.29	0.651
460.49	0.652
460.70	0.651
460.90	0.651
461.10	0.652
461.31	0.651
461.51	0.648
461.71	0.650
461.91	0.651
462.12	0.651
462.32	0.649
462.52	0.650
462.72	0.653
462.93	0.654
463.13	0.652
463.33	0.653
463.53	0.654
463.74	0.654
463.94	0.648
464.14	0.648
464.35	0.650
464.55	0.650
464.75	0.647
464.95	0.645
465.16	0.648
465.36	0.647
465.56	0.645
465.76	0.644
465.97	0.645
466.17	0.646
466.37	0.645
466.57	0.646
466.78	0.647
466.98	0.648
467.18	0.646
467.38	0.644
467.59	0.646
467.79	0.648
467.99	0.647
468.19	0.648
468.39	0.653
468.60	0.652
468.80	0.649
469.00	0.651
469.20	0.652
469.41	0.652
469.61	0.651
469.81	0.651
470.01	0.651
470.22	0.651
470.42	0.649
470.62	0.646
470.82	0.648
471.02	0.648
471.23	0.646
471.43	0.647
471.63	0.649
471.83	0.649
472.04	0.648
472.24	0.646
472.44	0.652
472.64	0.652
472.84	0.649
473.05	0.649
473.25	0.652
473.45	0.651
473.65	0.649
473.85	0.650
474.06	0.652
474.26	0.651
474.46	0.652
474.66	0.649
474.86	0.651
475.07	0.651
475.27	0.649
475.47	0.646
475.67	0.647
475.87	0.649
476.08	0.645
476.28	0.646
476.48	0.648
476.68	0.646
476.88	0.643
477.09	0.644
477.29	0.646
477.49	0.646
477.69	0.644
477.89	0.645
478.09	0.644
478.30	0.647
478.50	0.644
478.70	0.644
478.90	0.644
479.10	0.647
479.31	0.647
479.51	0.646
479.71	0.647
479.91	0.648
480.11	0.645
480.31	0.646
480.52	0.645
480.72	0.644
480.92	0.643
481.12	0.642
481.32	0.639
481.52	0.637
481.72	0.637
481.93	0.640
482.13	0.641
482.33	0.642
482.53	0.639
482.73	0.640
482.93	0.641
483.14	0.641
483.34	0.640
483.54	0.642
483.74	0.641
483.94	0.640
484.14	0.635
484.34	0.634
484.55	0.635
484.75	0.636
484.95	0.634
485.15	0.634
485.35	0.634
485.55	0.634
485.75	0.631
485.96	0.632
486.16	0.634
486.36	0.634
486.56	0.632
486.76	0.632
486.96	0.633
487.16	0.632
487.36	0.630
487.57	0.630
487.77	0.631
487.97	0.632
488.17	0.630
488.37	0.628
488.57	0.630
488.77	0.629
488.97	0.628
489.18	0.627
489.38	0.630
489.58	0.631
489.78	0.630
489.98	0.630
490.18	0.630
490.38	0.631
490.58	0.629
490.78	0.630
490.98	0.632
491.19	0.632
491.39	0.631
491.59	0.629
491.79	0.632
491.99	0.633
492.19	0.632
492.39	0.635
492.59	0.635
492.79	0.637
492.99	0.637
493.20	0.637
493.40	0.637
493.60	0.639
493.80	0.637
494.00	0.635
494.20	0.636
494.40	0.636
494.60	0.633
494.80	0.638
495.00	0.637
495.20	0.635
495.40	0.634
495.61	0.636
495.81	0.636
496.01	0.640
496.21	0.640
496.41	0.639
496.61	0.640
496.81	0.639
497.01	0.634
497.21	0.633
497.41	0.634
497.61	0.634
497.81	0.631
498.01	0.631
498.21	0.629
498.41	0.627
498.61	0.627
498.82	0.628
499.02	0.631
499.22	0.631
499.42	0.630
499.62	0.631
499.82	0.632
500.02	0.634
500.22	0.632
500.42	0.634
500.62	0.635
500.82	0.635
501.02	0.633
501.22	0.633
501.42	0.634
501.62	0.636
501.82	0.636
502.02	0.636
502.22	0.636
502.42	0.638
502.62	0.635
502.82	0.635
503.02	0.637
503.22	0.636
503.42	0.634
503.63	0.634
503.83	0.632
504.03	0.631
504.23	0.629
504.43	0.630
504.63	0.631
504.83	0.631
505.03	0.630
505.23	0.631
505.43	0.633
505.63	0.634
505.83	0.633
506.03	0.635
506.23	0.637
506.43	0.638
506.63	0.637
506.83	0.635
507.03	0.636
507.23	0.637
507.43	0.635
507.63	0.635
507.83	0.636
508.03	0.636
508.23	0.635
508.43	0.633
508.63	0.635
508.83	0.636
509.03	0.636
509.23	0.636
509.43	0.637
509.63	0.637
509.83	0.636
510.03	0.639
510.23	0.641
510.43	0.642
510.63	0.642
510.83	0.641
511.03	0.643
511.23	0.640
511.43	0.639
511.63	0.641
511.83	0.643
512.03	0.643
512.22	0.640
512.42	0.640
512.62	0.641
512.82	0.640
513.02	0.639
513.22	0.639
513.42	0.642
513.62	0.645
513.82	0.643
514.02	0.642
514.22	0.643
514.42	0.643
514.62	0.642
514.82	0.643
515.02	0.646
515.22	0.649
515.42	0.648
515.62	0.650
515.82	0.649
516.02	0.650
516.22	0.650
516.42	0.651
516.62	0.653
516.82	0.654
517.01	0.652
517.21	0.651
517.41	0.655
517.61	0.655
517.81	0.651
518.01	0.651
518.21	0.651
518.41	0.650
518.61	0.649
518.81	0.649
519.01	0.650
519.21	0.651
519.41	0.649
519.61	0.643
519.81	0.646
520.00	0.646
520.20	0.646
520.40	0.649
520.60	0.651
520.80	0.650
521.00	0.650
521.20	0.651
521.40	0.656
521.60	0.656
521.80	0.655
522.00	0.656
522.20	0.659
522.39	0.658
522.59	0.655
522.79	0.656
522.99	0.659
523.19	0.657
523.39	0.655
523.59	0.653
523.79	0.656
523.99	0.658
524.19	0.656
524.38	0.655
524.58	0.656
524.78	0.657
524.98	0.654
525.18	0.657
525.38	0.658
525.58	0.659
525.78	0.656
525.98	0.655
526.18	0.656
526.37	0.655
526.57	0.657
526.77	0.657
526.97	0.658
527.17	0.658
527.37	0.653
527.57	0.656
527.77	0.658
527.96	0.658
528.16	0.656
528.36	0.657
528.56	0.659
528.76	0.657
528.96	0.656
529.16	0.657
529.36	0.661
529.55	0.661
529.75	0.657
529.95	0.657
530.15	0.659
530.35	0.661
530.55	0.659
530.75	0.659
530.94	0.661
531.14	0.661
531.34	0.659
531.54	0.657
531.74	0.660
531.94	0.663
532.13	0.661
532.33	0.662
532.53	0.662
532.73	0.661
532.93	0.659
533.13	0.660
533.33	0.661
533.52	0.661
533.72	0.664
533.92	0.662
534.12	0.661
534.32	0.661
534.52	0.659
534.71	0.661
534.91	0.664
535.11	0.666
535.31	0.664
535.51	0.665
535.71	0.667
535.90	0.664
536.10	0.665
536.30	0.667
536.50	0.668
536.70	0.668
536.89	0.665
537.09	0.664
537.29	0.666
537.49	0.667
537.69	0.665
537.89	0.665
538.08	0.665
538.28	0.663
538.48	0.663
538.68	0.665
538.88	0.668
539.07	0.667
539.27	0.665
539.47	0.665
539.67	0.665
539.87	0.666
540.06	0.664
540.26	0.665
540.46	0.667
540.66	0.665
540.86	0.662
541.05	0.661
541.25	0.664
541.45	0.664
541.65	0.662
541.84	0.664
542.04	0.665
542.24	0.665
542.44	0.664
542.64	0.664
542.83	0.668
543.03	0.668
543.23	0.666
543.43	0.667
543.62	0.668
543.82	0.669
544.02	0.667
544.22	0.667
544.42	0.671
544.61	0.671
544.81	0.669
545.01	0.668
545.21	0.670
545.40	0.670
545.60	0.668
545.80	0.672
546.00	0.673
546.19	0.672
546.39	0.671
546.59	0.668
546.79	0.669
546.98	0.669
547.18	0.668
547.38	0.669
547.58	0.671
547.77	0.672
547.97	0.667
548.17	0.669
548.37	0.669
548.56	0.669
548.76	0.668
548.96	0.671
549.16	0.674
549.35	0.675
549.55	0.672
549.75	0.673
549.95	0.676
550.14	0.678
550.34	0.676
550.54	0.682
550.73	0.686
550.93	0.687
551.13	0.683
551.33	0.681
551.52	0.683
551.72	0.683
551.92	0.680
552.12	0.680
552.31	0.681
552.51	0.681
552.71	0.675
552.90	0.676
553.10	0.677
553.30	0.677
553.50	0.677
553.69	0.678
553.89	0.679
554.09	0.679
554.28	0.676
554.48	0.678
554.68	0.680
554.87	0.680
555.07	0.676
555.27	0.675
555.47	0.677
555.66	0.677
555.86	0.675
556.06	0.677
556.25	0.679
556.45	0.688
556.65	0.685
556.84	0.689
557.04	0.693
557.24	0.693
557.43	0.693
557.63	0.696
557.83	0.698
558.02	0.699
558.22	0.702
558.42	0.702
558.61	0.695
558.81	0.695
559.01	0.690
559.21	0.691
559.40	0.692
559.60	0.692
559.80	0.687
559.99	0.688
560.19	0.690
560.39	0.685
560.58	0.683
560.78	0.683
560.97	0.687
561.17	0.685
561.37	0.682
561.56	0.683
561.76	0.685
561.96	0.685
562.15	0.682
562.35	0.685
562.55	0.687
562.74	0.686
562.94	0.684
563.14	0.683
563.33	0.685
563.53	0.684
563.73	0.681
563.92	0.683
564.12	0.686
564.31	0.689
564.51	0.686
564.71	0.687
564.90	0.691
565.10	0.692
565.30	0.694
565.49	0.695
565.69	0.698
565.89	0.698
566.08	0.694
566.28	0.695
566.47	0.697
566.67	0.695
566.87	0.691
567.06	0.692
567.26	0.699
567.46	0.694
567.65	0.693
567.85	0.695
568.04	0.698
568.24	0.697
568.44	0.694
568.63	0.693
568.83	0.695
569.02	0.693
569.22	0.688
569.42	0.685
569.61	0.688
569.81	0.687
570.00	0.684
570.20	0.685
570.40	0.687
570.59	0.686
570.79	0.683
570.98	0.681
571.18	0.683
571.38	0.683
571.57	0.679
571.77	0.677
571.96	0.681
572.16	0.678
572.35	0.673
572.55	0.674
572.75	0.673
572.94	0.673
573.14	0.671
573.33	0.671
573.53	0.672
573.73	0.672
573.92	0.669
574.12	0.668
574.31	0.670
574.51	0.671
574.70	0.668
574.90	0.669
575.09	0.672
575.29	0.672
575.49	0.669
575.68	0.670
575.88	0.671
576.07	0.673
576.27	0.671
576.46	0.670
576.66	0.669
576.86	0.668
577.05	0.666
577.25	0.664
577.44	0.666
577.64	0.666
577.83	0.663
578.03	0.664
578.22	0.663
578.42	0.662
578.61	0.661
578.81	0.661
579.00	0.662
579.20	0.662
579.40	0.660
579.59	0.659
579.79	0.660
579.98	0.660
580.18	0.659
580.37	0.660
580.57	0.662
580.76	0.666
580.96	0.664
581.15	0.665
581.35	0.667
581.54	0.667
581.74	0.665
581.93	0.667
582.13	0.668
582.32	0.666
582.52	0.664
582.71	0.663
582.91	0.660
583.10	0.660
583.30	0.658
583.49	0.658
583.69	0.662
583.88	0.664
584.08	0.663
584.27	0.665
584.47	0.668
584.66	0.669
584.86	0.668
585.05	0.670
585.25	0.673
585.44	0.672
585.64	0.670
585.83	0.667
586.03	0.668
586.22	0.666
586.42	0.662
586.61	0.664
586.81	0.667
587.00	0.667
587.20	0.664
587.39	0.665
587.59	0.667
587.78	0.668
587.98	0.668
588.17	0.669
588.37	0.672
588.56	0.674
588.76	0.669
588.95	0.669
589.15	0.674
589.34	0.676
589.54	0.674
589.73	0.675
589.92	0.678
590.12	0.678
590.31	0.675
590.51	0.680
590.70	0.682
590.90	0.683
591.09	0.681
591.29	0.679
591.48	0.680
591.68	0.681
591.87	0.678
592.06	0.678
592.26	0.681
592.45	0.681
592.65	0.674
592.84	0.674
593.04	0.676
593.23	0.678
593.43	0.675
593.62	0.674
593.81	0.675
594.01	0.675
594.20	0.672
594.40	0.672
594.59	0.674
594.79	0.675
594.98	0.674
595.17	0.673
595.37	0.674
595.56	0.676
595.76	0.674
595.95	0.675
596.14	0.678
596.34	0.679
596.53	0.677
596.73	0.678
596.92	0.679
597.12	0.681
597.31	0.680
597.50	0.680
597.70	0.683
597.89	0.682
598.09	0.678
598.28	0.680
598.47	0.683
598.67	0.682
598.86	0.677
599.06	0.679
599.25	0.680
599.44	0.679
599.64	0.676
599.83	0.673
600.03	0.677
600.22	0.678
600.41	0.679
600.61	0.676
600.80	0.680
601.00	0.680
601.19	0.676
601.38	0.674
601.58	0.677
601.77	0.678
601.96	0.680
602.16	0.680
602.35	0.689
602.55	0.686
602.74	0.686
602.93	0.687
603.13	0.692
603.32	0.694
603.51	0.693
603.71	0.695
603.90	0.698
604.09	0.698
604.29	0.695
604.48	0.688
604.68	0.691
604.87	0.689
605.06	0.685
605.26	0.682
605.45	0.683
605.64	0.682
605.84	0.677
606.03	0.677
606.22	0.676
606.42	0.675
606.61	0.671
606.80	0.672
607.00	0.674
607.19	0.674
607.38	0.672
607.58	0.673
607.77	0.677
607.96	0.677
608.16	0.675
608.35	0.681
608.54	0.684
608.74	0.687
608.93	0.692
609.12	0.694
609.32	0.698
609.51	0.701
609.70	0.700
609.90	0.701
610.09	0.706
610.28	0.711
610.48	0.703
610.67	0.705
610.86	0.706
611.06	0.700
611.25	0.698
611.44	0.698
611.64	0.698
611.83	0.700
612.02	0.696
612.21	0.695
612.41	0.694
612.60	0.693
612.79	0.689
612.99	0.690
613.18	0.692
613.37	0.690
613.57	0.687
613.76	0.689
613.95	0.688
614.14	0.688
614.34	0.685
614.53	0.686
614.72	0.690
614.92	0.690
615.11	0.686
615.30	0.684
615.49	0.685
615.69	0.688
615.88	0.684
616.07	0.685
616.26	0.687
616.46	0.689
616.65	0.685
616.84	0.683
617.04	0.686
617.23	0.689
617.42	0.689
617.61	0.693
617.81	0.695
618.00	0.697
618.19	0.695
618.38	0.698
618.58	0.702
618.77	0.704
618.96	0.702
619.15	0.704
619.35	0.706
619.54	0.707
619.73	0.702
619.92	0.704
620.12	0.709
620.31	0.709
620.50	0.704
620.69	0.703
620.89	0.708
621.08	0.708
621.27	0.707
621.46	0.705
621.66	0.710
621.85	0.710
622.04	0.705
622.23	0.705
622.43	0.707
622.62	0.707
622.81	0.706
623.00	0.705
623.19	0.710
623.39	0.709
623.58	0.706
623.77	0.704
623.96	0.707
624.16	0.708
624.35	0.702
624.54	0.705
624.73	0.710
624.92	0.707
625.12	0.704
625.31	0.705
625.50	0.709
625.69	0.710
625.88	0.705
626.08	0.705
626.27	0.707
626.46	0.707
626.65	0.705
626.84	0.705
627.04	0.711
627.23	0.710
627.42	0.705
627.61	0.706
627.80	0.709
628.00	0.710
628.19	0.707
628.38	0.711
628.57	0.715
628.76	0.713
628.96	0.710
629.15	0.710
629.34	0.714
629.53	0.715
629.72	0.710
629.91	0.710
630.11	0.716
630.30	0.717
630.49	0.719
630.68	0.719
630.87	0.724
631.06	0.725
631.26	0.720
631.45	0.722
631.64	0.731
631.83	0.732
632.02	0.730
632.21	0.729
632.41	0.737
632.60	0.731
632.79	0.728
632.98	0.729
633.17	0.731
633.36	0.733
633.55	0.728
633.75	0.726
633.94	0.730
634.13	0.729
634.32	0.725
634.51	0.718
634.70	0.720
634.89	0.720
635.09	0.716
635.28	0.716
635.47	0.718
635.66	0.721
635.85	0.716
636.04	0.716
636.23	0.722
636.43	0.724
636.62	0.723
636.81	0.722
637.00	0.726
637.19	0.729
637.38	0.724
637.57	0.724
637.76	0.726
637.95	0.727
638.15	0.723
638.34	0.719
638.53	0.723
638.72	0.724
638.91	0.721
639.10	0.717
639.29	0.719
639.48	0.720
639.67	0.720
639.87	0.718
640.06	0.724
640.25	0.724
640.44	0.725
640.63	0.725
640.82	0.728
641.01	0.729
641.20	0.727
641.39	0.729
641.58	0.733
641.78	0.731
641.97	0.726
642.16	0.741
642.35	0.742
642.54	0.741
642.73	0.734
642.92	0.733
643.11	0.738
643.30	0.737
643.49	0.732
643.68	0.734
643.87	0.737
644.06	0.737
644.25	0.716
644.45	0.718
644.64	0.720
644.83	0.721
645.02	0.716
645.21	0.715
645.40	0.717
645.59	0.717
645.78	0.709
645.97	0.711
646.16	0.713
646.35	0.713
646.54	0.710
646.73	0.711
646.92	0.713
647.11	0.712
647.30	0.707
647.49	0.709
647.68	0.710
647.88	0.708
648.07	0.701
648.26	0.704
648.45	0.706
648.64	0.703
648.83	0.700
649.02	0.703
649.21	0.714
649.40	0.714
649.59	0.708
649.78	0.708
649.97	0.725
650.16	0.723
650.35	0.716
650.54	0.719
650.73	0.728
650.92	0.725
651.11	0.718
651.30	0.715
651.49	0.721
651.68	0.720
651.87	0.717
652.06	0.706
652.25	0.709
652.44	0.711
652.63	0.705
652.82	0.704
653.01	0.704
653.20	0.701
653.39	0.688
653.58	0.685
653.77	0.685
653.96	0.680
654.15	0.672
654.34	0.670
654.53	0.667
654.72	0.662
654.91	0.653
655.10	0.649
655.29	0.648
655.48	0.646
655.67	0.641
655.86	0.638
656.05	0.637
656.24	0.637
656.43	0.633
656.62	0.632
656.81	0.633
657.00	0.632
657.19	0.630
657.38	0.630
657.57	0.630
657.76	0.634
657.95	0.631
658.14	0.635
658.33	0.639
658.51	0.644
658.70	0.644
658.89	0.644
659.08	0.652
659.27	0.659
659.46	0.658
659.65	0.665
659.84	0.668
660.03	0.671
660.22	0.672
660.41	0.675
660.60	0.674
660.79	0.676
660.98	0.682
661.17	0.681
661.36	0.681
661.55	0.681
661.74	0.678
661.92	0.681
662.11	0.684
662.30	0.682
662.49	0.675
662.68	0.676
662.87	0.680
663.06	0.673
663.25	0.674
663.44	0.674
663.63	0.677
663.82	0.675
664.01	0.669
664.20	0.668
664.38	0.670
664.57	0.671
664.76	0.669
664.95	0.669
665.14	0.675
665.33	0.670
665.52	0.676
665.71	0.680
665.90	0.680
666.09	0.683
666.28	0.679
666.46	0.678
666.65	0.680
666.84	0.678
667.03	0.673
667.22	0.671
667.41	0.674
667.60	0.664
667.79	0.656
667.98	0.658
668.16	0.658
668.35	0.657
668.54	0.653
668.73	0.654
668.92	0.656
669.11	0.654
669.30	0.648
669.49	0.644
669.67	0.647
669.86	0.650
670.05	0.647
670.24	0.645
670.43	0.643
670.62	0.643
670.81	0.637
671.00	0.638
671.18	0.638
671.37	0.637
671.56	0.635
671.75	0.634
671.94	0.631
672.13	0.629
672.32	0.624
672.50	0.624
672.69	0.624
672.88	0.624
673.07	0.619
673.26	0.621
673.45	0.623
673.63	0.622
673.82	0.619
674.01	0.620
674.20	0.620
674.39	0.620
674.58	0.619
674.76	0.618
674.95	0.616
675.14	0.616
675.33	0.611
675.52	0.610
675.71	0.610
675.89	0.609
676.08	0.604
676.27	0.605
676.46	0.604
676.65	0.604
676.84	0.603
677.02	0.605
677.21	0.608
677.40	0.607
677.59	0.604
677.78	0.606
677.96	0.608
678.15	0.608
678.34	0.606
678.53	0.607
678.72	0.607
678.90	0.604
679.09	0.600
679.28	0.596
679.47	0.597
679.66	0.596
679.84	0.592
680.03	0.590
680.22	0.589
680.41	0.591
680.60	0.586
680.78	0.586
680.97	0.588
681.16	0.588
681.35	0.587
681.53	0.586
681.72	0.587
681.91	0.589
682.10	0.586
682.29	0.590
682.47	0.588
682.66	0.588
682.85	0.586
683.04	0.584
683.22	0.585
683.41	0.586
683.60	0.585
683.79	0.586
683.97	0.585
684.16	0.583
684.35	0.579
684.54	0.580
684.72	0.580
684.91	0.581
685.10	0.579
685.29	0.580
685.47	0.577
685.66	0.576
685.85	0.573
686.04	0.573
686.22	0.577
686.41	0.579
686.60	0.576
686.79	0.579
686.97	0.580
687.16	0.582
687.35	0.579
687.54	0.582
687.72	0.586
687.91	0.587
688.10	0.588
688.29	0.587
688.47	0.585
688.66	0.585
688.85	0.581
689.03	0.579
689.22	0.584
689.41	0.584
689.60	0.580
689.78	0.577
689.97	0.577
690.16	0.574
690.34	0.570
690.53	0.570
690.72	0.570
690.91	0.568
691.09	0.566
691.28	0.560
691.47	0.558
691.65	0.557
691.84	0.554
692.03	0.553
692.21	0.551
692.40	0.552
692.59	0.549
692.77	0.548
692.96	0.550
693.15	0.551
693.34	0.548
693.52	0.549
693.71	0.550
693.90	0.551
694.08	0.551
694.27	0.552
694.46	0.562
694.64	0.563
694.83	0.561
695.02	0.560
695.20	0.560
695.39	0.560
695.58	0.559
695.76	0.560
695.95	0.559
696.14	0.559
696.32	0.557
696.51	0.547
696.70	0.547
696.88	0.549
697.07	0.547
697.26	0.548
697.44	0.550
697.63	0.548
697.81	0.546
698.00	0.546
698.19	0.546
698.37	0.546
698.56	0.545
698.75	0.545
698.93	0.545
699.12	0.544
699.31	0.543
699.49	0.542
699.68	0.544
699.87	0.546
700.05	0.545
700.24	0.544
700.42	0.546
700.61	0.545
700.80	0.543
700.98	0.543
701.17	0.545
701.36	0.543
701.54	0.543
701.73	0.544
701.91	0.542
702.10	0.542
702.29	0.539
702.47	0.538
702.66	0.540
702.84	0.541
703.03	0.539
703.22	0.541
703.40	0.541
703.59	0.543
703.77	0.542
703.96	0.542
704.15	0.543
704.33	0.543
704.52	0.541
704.70	0.541
704.89	0.541
705.08	0.539
705.26	0.535
705.45	0.536
705.63	0.535
705.82	0.532
706.00	0.530
706.19	0.529
706.38	0.530
706.56	0.529
706.75	0.526
706.93	0.525
707.12	0.528
707.30	0.528
707.49	0.525
707.68	0.523
707.86	0.523
708.05	0.523
708.23	0.520
708.42	0.520
708.60	0.524
708.79	0.524
708.98	0.522
709.16	0.521
709.35	0.523
709.53	0.528
709.72	0.526
709.90	0.528
710.09	0.531
710.27	0.533
710.46	0.536
710.64	0.534
710.83	0.536
711.02	0.538
711.20	0.537
711.39	0.535
711.57	0.532
711.76	0.533
711.94	0.531
712.13	0.531
712.31	0.531
712.50	0.526
712.68	0.524
712.87	0.524
713.05	0.525
713.24	0.525
713.42	0.524
713.61	0.525
713.79	0.526
713.98	0.526
714.16	0.527
714.35	0.526
714.54	0.528
714.72	0.527
714.91	0.524
715.09	0.531
715.28	0.534
715.46	0.534
715.65	0.531
715.83	0.530
716.02	0.534
716.20	0.530
716.39	0.529
716.57	0.531
716.76	0.534
716.94	0.535
717.12	0.527
717.31	0.528
717.49	0.532
717.68	0.534
717.86	0.532
718.05	0.535
718.23	0.538
718.42	0.540
718.60	0.541
718.79	0.549
718.97	0.552
719.16	0.552
719.34	0.549
719.53	0.548
719.71	0.549
719.90	0.551
720.08	0.548
720.27	0.548
720.45	0.549
720.63	0.547
720.82	0.540
721.00	0.542
721.19	0.547
721.37	0.547
721.56	0.547
721.74	0.550
721.93	0.559
722.11	0.565
722.30	0.562
722.48	0.567
722.66	0.569
722.85	0.568
723.03	0.569
723.22	0.566
723.40	0.570
723.59	0.569
723.77	0.571
723.95	0.566
724.14	0.569
724.32	0.571
724.51	0.569
724.69	0.570
724.88	0.571
725.06	0.568
725.24	0.568
725.43	0.570
725.61	0.573
725.80	0.566
725.98	0.564
726.16	0.560
726.35	0.566
726.53	0.565
726.72	0.564
726.90	0.574
727.09	0.575
727.27	0.582
727.45	0.577
727.64	0.587
727.82	0.598
728.01	0.602
728.19	0.599
728.37	0.604
728.56	0.610
728.74	0.617
728.92	0.604
729.11	0.606
729.29	0.605
729.48	0.608
729.66	0.597
729.84	0.597
730.03	0.602
730.21	0.604
730.40	0.593
730.58	0.593
730.76	0.593
730.95	0.595
731.13	0.595
731.31	0.607
731.50	0.617
731.68	0.620
731.86	0.615
732.05	0.630
732.23	0.634
732.42	0.638
732.60	0.642
732.78	0.647
732.97	0.668
733.15	0.676
733.33	0.662
733.52	0.670
733.70	0.683
733.88	0.691
734.07	0.675
734.25	0.703
734.43	0.713
734.62	0.716
734.80	0.709
734.98	0.698
735.17	0.707
735.35	0.716
735.53	0.704
735.72	0.708
735.90	0.734
736.08	0.753
736.27	0.726
736.45	0.735
736.63	0.750
736.82	0.761
737.00	0.760
737.18	0.771
737.37	0.807
737.55	0.831
737.73	0.819
737.92	0.822
738.10	0.823
738.28	0.845
738.46	0.832
738.65	0.843
738.83	0.866
739.01	0.928
739.20	0.916
739.38	0.897
739.56	0.892
739.75	0.900
739.93	0.860
740.11	0.887
740.29	0.886
740.48	0.892
740.66	0.870
740.84	0.865
741.03	0.826
741.21	0.838
741.39	0.818
741.57	0.833
741.76	0.853
741.94	0.856
742.12	0.815
742.31	0.828
742.49	0.850
742.67	0.877
742.85	0.892
743.04	0.901
743.22	0.914
743.40	0.971
743.58	0.942
743.77	0.962
743.95	1.006
744.13	1.068
744.31	1.041
744.50	1.038
744.68	1.039
744.86	1.007
745.04	1.014
745.23	1.087
745.41	1.072
745.59	1.084
745.77	1.042
745.96	1.031
746.14	1.044
746.32	1.040
746.50	1.027
746.69	1.008
746.87	1.024
747.05	1.002
747.23	0.917
747.42	0.900
747.60	0.934
747.78	0.935
747.96	0.972
748.14	0.922
748.33	0.956
748.51	0.942
748.69	0.930
748.87	0.960
749.06	0.964
749.24	0.961
749.42	0.943
749.60	0.914
749.78	0.930
749.97	0.877
750.15	0.869
750.33	0.872
750.51	0.907
750.69	0.914
750.88	0.915
751.06	0.929
751.24	0.966
751.42	0.951
751.60	0.946
751.79	1.030
751.97	1.093
752.15	1.086
752.33	1.039
752.51	1.118
752.69	1.141
752.88	1.100
753.06	1.146
753.24	1.112
753.42	1.175
753.60	1.396
753.78	1.183
753.97	1.201
754.15	1.231
754.33	1.269
754.51	1.101
754.69	1.087
754.87	1.128
755.06	1.041
755.24	1.039
755.42	1.044
755.60	0.938
755.78	0.948
755.96	0.884
756.15	0.889
756.33	0.897
756.51	0.921
756.69	0.899
756.87	0.864
757.05	0.891
757.23	0.872
757.42	0.830
757.60	0.827
757.78	0.817
757.96	0.817
758.14	0.795
758.32	0.782
758.50	0.796
758.69	0.798
758.87	0.787
759.05	0.791
759.23	0.804
759.41	0.806
759.59	0.797
759.77	0.823
759.95	0.855
760.13	0.908
760.32	0.903
760.50	0.897
760.68	0.929
760.86	0.929
761.04	0.894
761.22	0.902
761.40	0.960
761.58	0.958
761.76	0.922
761.95	0.905
762.13	0.863
762.31	0.862
762.49	0.824
762.67	0.842
762.85	0.858
763.03	0.850
763.21	0.825
763.39	0.809
763.57	0.818
763.75	0.812
763.94	0.792
764.12	0.788
764.30	0.817
764.48	0.824
764.66	0.780
764.84	0.779
765.02	0.827
765.20	0.836
765.38	0.806
765.56	0.815
765.74	0.863
765.92	0.863
766.10	0.869
766.28	0.858
766.46	0.889
766.65	0.892
766.83	0.872
767.01	0.853
767.19	0.861
767.37	0.863
767.55	0.843
767.73	0.824
767.91	0.828
768.09	0.817
768.27	0.805
768.45	0.795
768.63	0.801
768.81	0.806
768.99	0.775
769.17	0.802
769.35	0.819
769.53	0.816
769.71	0.790
769.89	0.802
770.07	0.811
770.25	0.793
770.43	0.768
770.61	0.797
770.79	0.805
770.97	0.816
771.15	0.781
771.33	0.783
771.51	0.789
771.69	0.801
771.87	0.807
772.05	0.811
772.24	0.823
772.42	0.834
772.60	0.805
772.78	0.874
772.96	0.909
773.14	0.902
773.32	0.876
773.49	0.886
773.67	0.884
773.85	0.862
774.03	0.848
774.21	0.888
774.39	0.901
774.57	0.925
774.75	0.835
774.93	0.833
775.11	0.866
775.29	0.873
775.47	0.871
775.65	0.885
775.83	0.907
776.01	0.933
776.19	0.871
776.37	0.871
776.55	0.877
776.73	0.875
776.91	0.862
777.09	0.841
777.27	0.844
777.45	0.832
777.63	0.807
777.81	0.803
777.99	0.794
778.17	0.794
778.35	0.770
778.53	0.755
778.71	0.765
778.89	0.752
779.07	0.738
779.24	0.743
779.42	0.743
779.60	0.761
779.78	0.755
779.96	0.761
780.14	0.771
780.32	0.793
780.50	0.774
780.68	0.771
780.86	0.765
781.04	0.781
781.22	0.780
781.40	0.794
781.58	0.786
781.75	0.780
781.93	0.758
782.11	0.760
782.29	0.749
782.47	0.747
782.65	0.735
782.83	0.768
783.01	0.766
783.19	0.760
783.37	0.741
783.55	0.745
783.72	0.765
783.90	0.778
784.08	0.765
784.26	0.779
784.44	0.802
784.62	0.802
784.80	0.764
784.98	0.769
785.16	0.779
785.33	0.795
785.51	0.774
785.69	0.758
785.87	0.756
786.05	0.769
786.23	0.760
786.41	0.760
786.59	0.769
786.77	0.767
786.94	0.751
787.12	0.751
787.30	0.757
787.48	0.753
787.66	0.737
787.84	0.738
788.02	0.730
788.19	0.726
788.37	0.708
788.55	0.709
788.73	0.713
788.91	0.707
789.09	0.690
789.27	0.676
789.44	0.693
789.62	0.701
789.80	0.710
789.98	0.736
790.16	0.723
790.34	0.721
790.51	0.708
790.69	0.728
790.87	0.734
791.05	0.731
791.23	0.722
791.41	0.720
791.58	0.731
791.76	0.707
791.94	0.672
792.12	0.683
792.30	0.686
792.48	0.683
792.65	0.673
792.83	0.683
793.01	0.693
793.19	0.693
793.37	0.676
793.54	0.670
793.72	0.684
793.90	0.685
794.08	0.669
794.26	0.672
794.43	0.684
794.61	0.668
794.79	0.654
794.97	0.651
795.15	0.657
795.32	0.661
795.50	0.651
795.68	0.647
795.86	0.653
796.04	0.657
796.21	0.648
796.39	0.645
796.57	0.662
796.75	0.672
796.92	0.674
797.10	0.679
797.28	0.683
797.46	0.685
797.64	0.684
797.81	0.693
797.99	0.698
798.17	0.702
798.35	0.695
798.52	0.697
798.70	0.692
798.88	0.700
799.06	0.698
799.23	0.701
799.41	0.714
799.59	0.706
799.77	0.691
799.94	0.700
800.12	0.712
800.30	0.731
800.48	0.731
800.65	0.732
800.83	0.722
801.01	0.713
801.19	0.710
801.36	0.704
801.54	0.708
801.72	0.721
801.90	0.704
802.07	0.699
802.25	0.684
802.43	0.665
802.60	0.661
802.78	0.669
802.96	0.674
803.14	0.669
803.31	0.665
803.49	0.667
803.67	0.663
803.84	0.667
804.02	0.656
804.20	0.661
804.38	0.669
804.55	0.666
804.73	0.649
804.91	0.652
805.08	0.665
805.26	0.661
805.44	0.721
805.61	0.726
805.79	0.728
805.97	0.727
806.15	0.715
806.32	0.708
806.50	0.717
806.68	0.717
806.85	0.706
807.03	0.696
807.21	0.715
807.38	0.649
807.56	0.636
807.74	0.646
807.91	0.654
808.09	0.655
808.27	0.676
808.44	0.702
808.62	0.715
808.80	0.716
808.97	0.709
809.15	0.703
809.33	0.723
809.50	0.732
809.68	0.715
809.86	0.724
810.03	0.764
810.21	0.740
810.39	0.720
810.56	0.726
810.74	0.752
810.91	0.833
811.09	0.818
811.27	0.842
811.44	0.852
811.62	0.854
811.80	0.833
811.97	0.795
812.15	0.797
812.33	0.792
812.50	0.774
812.68	0.764
812.85	0.704
813.03	0.707
813.21	0.672
813.38	0.665
813.56	0.671
813.74	0.683
813.91	0.690
814.09	0.724
814.26	0.717
814.44	0.719
814.62	0.706
814.79	0.711
814.97	0.717
815.14	0.723
815.32	0.724
815.50	0.741
815.67	0.745
815.85	0.735
816.02	0.721
816.20	0.731
816.38	0.754
816.55	0.759
816.73	0.753
816.90	0.768
817.08	0.804
817.26	0.809
817.43	0.784
817.61	0.809
817.78	0.837
817.96	0.811
818.13	0.794
818.31	0.790
818.49	0.807
818.66	0.799
818.84	0.779
819.01	0.755
819.19	0.767
819.36	0.770
819.54	0.738
819.71	0.784
819.89	0.801
820.07	0.818
820.24	0.808
820.42	0.810
820.59	0.836
820.77	0.861
820.94	0.846
821.12	0.868
821.29	0.890
821.47	0.889
821.64	0.813
821.82	0.833
822.00	0.831
822.17	0.828
822.35	0.814
822.52	0.816
822.70	0.807
822.87	0.819
823.05	0.794
823.22	0.808
823.40	0.845
823.57	0.868
823.75	0.838
823.92	0.868
824.10	0.893
824.27	0.942
824.45	0.928
824.62	1.009
824.80	1.036
824.97	1.050
825.15	1.029
825.32	1.047
825.50	1.055
825.67	1.076
825.85	1.038
826.02	1.076
826.20	1.122
826.37	1.314
826.55	1.182
826.72	1.518
826.90	1.742
827.07	1.937
827.25	1.706
827.42	3.695
827.60	-0.000
827.77	-0.000
827.95	-0.000
828.12	-0.000
828.30	-0.000
828.47	-0.000
828.65	1.734
828.82	1.965
829.00	-0.000
829.17	-0.000
829.34	-0.000
829.52	-0.000
829.69	-0.000
829.87	-0.000
830.04	-0.000
830.22	-0.000
830.39	-0.000
830.57	-0.000
830.74	-0.000
830.92	-0.000
831.09	-0.000
831.26	-0.000
831.44	-0.000
831.61	-0.000
831.79	-0.000
831.96	-0.000
832.14	-0.000
832.31	-0.000
832.49	-0.000
832.66	-0.000
832.83	-0.000
833.01	-0.000
833.18	-0.000
833.36	-0.000
833.53	-0.000
833.70	-0.000
833.88	-0.000
834.05	-0.000
834.23	-0.000
834.40	-0.000
834.58	-0.000
834.75	-0.000
834.92	-0.000
835.10	-0.000
835.27	-0.000
835.45	-0.000
835.62	-0.000
835.79	-0.000
835.97	-0.000
836.14	-0.000
836.32	-0.000
836.49	-0.000
836.66	-0.000
836.84	-0.000
837.01	-0.000
837.18	-0.000
837.36	-0.000
837.53	-0.000
837.71	-0.000
837.88	-0.000
838.05	-0.000
838.23	-0.000
838.40	-0.000
838.58	-0.000
838.75	-0.000
838.92	-0.000
839.10	-0.000
839.27	-0.000
839.44	-0.000
839.62	-0.000
839.79	-0.000
839.96	-0.000
840.14	-0.000
840.31	-0.000
840.48	-0.000
840.66	-0.000
840.83	-0.000
841.01	-0.000
841.18	-0.000
841.35	-0.000
841.53	-0.000
841.70	-0.000
841.87	-0.000
842.05	-0.000
842.22	-0.000
842.39	-0.000
842.57	-0.000
842.74	-0.000
842.91	-0.000
843.09	-0.000
843.26	-0.000
843.43	-0.000
843.60	-0.000
843.78	-0.000
843.95	-0.000
844.12	-0.000
844.30	-0.000
844.47	-0.000
844.64	-0.000
844.82	-0.000
844.99	-0.000
845.16	-0.000
845.34	-0.000
845.51	-0.000
845.68	-0.000
845.85	-0.000
846.03	-0.000
846.20	-0.000
846.37	-0.000
846.55	-0.000
846.72	-0.000
846.89	-0.000
847.06	-0.000
847.24	-0.000
847.41	-0.000
847.58	-0.000
847.76	-0.000
847.93	-0.000
848.10	-0.000
848.27	-0.000
848.45	-0.000
848.62	-0.000
848.79	-0.000
848.97	-0.000
849.14	-0.000
849.31	-0.000
849.48	-0.000
849.66	-0.000
849.83	-0.000
850.00	-0.000
850.17	-0.000
850.35	-0.000
850.52	-0.000
850.69	-0.000
850.86	-0.000
851.04	-0.000
851.21	-0.000
851.38	-0.000
851.55	-0.000
851.72	-0.000
851.90	-0.000
852.07	-0.000
852.24	-0.000
852.41	-0.000
852.59	-0.000
852.76	-0.000
852.93	-0.000
853.10	-0.000
853.28	-0.000
853.45	-0.000
853.62	-0.000
853.79	-0.000
853.96	-0.000
854.14	-0.000
854.31	-0.000
854.48	-0.000
854.65	-0.000
854.82	-0.000
855.00	-0.000
855.17	-0.000
855.34	-0.000
855.51	-0.000
855.68	-0.000
855.86	-0.000
856.03	-0.000
856.20	-0.000
856.37	-0.000
856.54	-0.000
856.72	-0.000
856.89	-0.000
857.06	-0.000
857.23	-0.000
857.40	-0.000
857.57	-0.000
857.75	-0.000
857.92	-0.000
858.09	-0.000
858.26	-0.000
858.43	-0.000
858.60	-0.000
858.78	-0.000
858.95	-0.000
859.12	-0.000
859.29	-0.000
859.46	-0.000
859.63	-0.000
859.81	-0.000
859.98	-0.000
860.15	-0.000
860.32	-0.000
860.49	-0.000
860.66	-0.000
860.83	-0.000
861.01	-0.000
861.18	-0.000
861.35	-0.000
861.52	-0.000
861.69	-0.000
861.86	-0.000
862.03	-0.000
862.21	-0.000
862.38	-0.000
862.55	-0.000
862.72	-0.000
862.89	-0.000
863.06	-0.000
863.23	-0.000
863.40	-0.000
863.58	-0.000
863.75	-0.000
863.92	-0.000
864.09	-0.000
864.26	-0.000
864.43	-0.000
864.60	-0.000
864.77	-0.000
864.94	-0.000
865.11	-0.000
865.29	-0.000
865.46	-0.000
865.63	-0.000
865.80	-0.000
865.97	-0.000
866.14	-0.000
866.31	-0.000
866.48	-0.000
866.65	-0.000
866.82	-0.000
866.99	-0.000
867.16	-0.000
867.34	-0.000
867.51	-0.000
867.68	-0.000
867.85	-0.000
868.02	-0.000
868.19	-0.000
868.36	-0.000
868.53	-0.000
868.70	-0.000
868.87	-0.000
869.04	-0.000
869.21	-0.000
869.38	-0.000
869.55	-0.000
869.72	-0.000
869.89	-0.000
870.06	-0.000
870.24	-0.000
870.41	-0.000
870.58	-0.000
870.75	-0.000
870.92	-0.000
871.09	-0.000
871.26	-0.000
871.43	-0.000
871.60	-0.000
871.77	-0.000
871.94	-0.000
872.11	-0.000
872.28	-0.000
872.45	-0.000
872.62	-0.000
872.79	-0.000
872.96	-0.000
873.13	-0.000
873.30	-0.000
873.47	-0.000
873.64	-0.000
873.81	-0.000
873.98	-0.000
874.15	-0.000
874.32	-0.000
874.49	-0.000
874.66	-0.000
874.83	-0.000
875.00	-0.000
875.17	-0.000
875.34	-0.000
875.51	-0.000
875.68	-0.000
875.85	-0.000
876.02	-0.000
876.19	-0.000
876.36	-0.000
876.53	-0.000
876.70	-0.000
876.87	-0.000
877.04	-0.000
877.21	-0.000
877.38	-0.000
877.55	-0.000
877.72	-0.000
877.89	-0.000
878.06	-0.000
878.23	-0.000
878.39	-0.000
878.56	-0.000
878.73	-0.000
878.90	-0.000
879.07	-0.000
879.24	-0.000
879.41	-0.000
879.58	-0.000
879.75	-0.000
879.92	-0.000
880.09	-0.000
880.26	-0.000
880.43	-0.000
880.60	-0.000
880.77	-0.000
880.94	-0.000
881.11	-0.000
881.27	-0.000
881.44	-0.000
881.61	-0.000
881.78	-0.000
881.95	-0.000
882.12	-0.000
882.29	-0.000
882.46	-0.000
882.63	-0.000
882.80	-0.000
882.97	-0.000
883.14	-0.000
883.30	-0.000
883.47	-0.000
883.64	-0.000
883.81	-0.000
883.98	-0.000
884.15	-0.000
884.32	-0.000
884.49	-0.000
884.66	-0.000
884.82	-0.000
884.99	-0.000
885.16	-0.000
885.33	-0.000
885.50	-0.000
885.67	-0.000
885.84	-0.000
886.01	-0.000
886.17	-0.000
886.34	-0.000
886.51	-0.000
886.68	-0.000
886.85	-0.000
887.02	-0.000
887.19	-0.000
887.36	-0.000
887.52	-0.000
887.69	-0.000
887.86	-0.000
888.03	-0.000
888.20	-0.000
888.37	-0.000
888.54	-0.000
888.70	-0.000
888.87	-0.000
889.04	-0.000
889.21	-0.000
889.38	-0.000
889.55	-0.000
889.71	-0.000
889.88	-0.000
890.05	-0.000
890.22	-0.000
890.39	-0.000
>>>>>End Processed Spectral Data<<<<<
