SpectraSuite Data File
++++++++++++++++++++++++++++++++++++
Date: Fri Jun 19 13:54:25 CEST 2015
User: introlabs
Dark Spectrum Present: Yes
Reference Spectrum Present: Yes
Number of Sampled Component Spectra: 1
Spectrometers: USB4H08886
Integration Time (usec): 745692 (USB4H08886)
Spectra Averaged: 5 (USB4H08886)
Boxcar Smoothing: 5 (USB4H08886)
Correct for Electrical Dark: Yes (USB4H08886)
Strobe/Lamp Enabled: No (USB4H08886)
Correct for Detector Non-linearity: Yes (USB4H08886)
Correct for Stray Light: Yes (USB4H08886)
Number of Pixels in Processed Spectrum: 3648
>>>>>Begin Processed Spectral Data<<<<<
178.14	-0.000
178.36	-0.000
178.57	-0.000
178.79	-0.000
179.01	-0.000
179.22	-0.000
179.44	-0.000
179.65	-0.000
179.87	-0.000
180.08	-0.000
180.30	-0.000
180.52	-0.000
180.73	-0.000
180.95	-0.000
181.16	-0.000
181.38	-0.000
181.59	-0.000
181.81	-0.000
182.03	-0.000
182.24	-0.000
182.46	-0.000
182.67	-0.000
182.89	-0.000
183.10	-0.000
183.32	-0.000
183.54	-0.000
183.75	-0.000
183.97	-0.000
184.18	-0.000
184.40	-0.000
184.61	-0.000
184.83	-0.000
185.04	-0.000
185.26	-0.000
185.48	-0.000
185.69	-0.000
185.91	-0.000
186.12	-0.000
186.34	-0.000
186.55	-0.000
186.77	-0.000
186.98	-0.000
187.20	-0.000
187.42	-0.000
187.63	-0.000
187.85	-0.000
188.06	-0.000
188.28	-0.000
188.49	-0.000
188.71	-0.000
188.92	-0.000
189.14	-0.000
189.36	-0.000
189.57	-0.000
189.79	-0.000
190.00	-0.000
190.22	-0.000
190.43	-0.000
190.65	-0.000
190.86	-0.000
191.08	-0.000
191.29	-0.000
191.51	-0.000
191.72	-0.000
191.94	-0.000
192.16	-0.000
192.37	-0.000
192.59	-0.000
192.80	-0.000
193.02	-0.000
193.23	-0.000
193.45	-0.000
193.66	-0.000
193.88	-0.000
194.09	-0.000
194.31	-0.000
194.52	-0.000
194.74	-0.000
194.95	-0.000
195.17	-0.000
195.38	-0.000
195.60	-0.000
195.81	-0.000
196.03	-0.000
196.25	-0.000
196.46	-0.000
196.68	-0.000
196.89	-0.000
197.11	-0.000
197.32	-0.000
197.54	-0.000
197.75	-0.000
197.97	-0.000
198.18	-0.000
198.40	-0.000
198.61	-0.000
198.83	-0.000
199.04	-0.000
199.26	-0.000
199.47	-0.000
199.69	-0.000
199.90	-0.000
200.12	-0.000
200.33	-0.000
200.55	-0.000
200.76	-0.000
200.98	-0.000
201.19	-0.000
201.41	-0.000
201.62	-0.000
201.84	-0.000
202.05	-0.000
202.27	-0.000
202.48	-0.000
202.70	-0.000
202.91	-0.000
203.13	-0.000
203.34	-0.000
203.56	-0.000
203.77	-0.000
203.99	-0.000
204.20	-0.000
204.42	-0.000
204.63	-0.000
204.85	-0.000
205.06	-0.000
205.28	-0.000
205.49	-0.000
205.71	-0.000
205.92	-0.000
206.14	-0.000
206.35	-0.000
206.56	-0.000
206.78	-0.000
206.99	-0.000
207.21	-0.000
207.42	-0.000
207.64	-0.000
207.85	-0.000
208.07	-0.000
208.28	-0.000
208.50	-0.000
208.71	-0.000
208.93	-0.000
209.14	-0.000
209.36	-0.000
209.57	-0.000
209.79	-0.000
210.00	-0.000
210.22	-0.000
210.43	-0.000
210.64	-0.000
210.86	-0.000
211.07	-0.000
211.29	-0.000
211.50	-0.000
211.72	-0.000
211.93	-0.000
212.15	-0.000
212.36	-0.000
212.58	-0.000
212.79	-0.000
213.01	-0.000
213.22	-0.000
213.43	-0.000
213.65	-0.000
213.86	-0.000
214.08	-0.000
214.29	-0.000
214.51	-0.000
214.72	-0.000
214.94	-0.000
215.15	-0.000
215.36	-0.000
215.58	-0.000
215.79	-0.000
216.01	-0.000
216.22	-0.000
216.44	-0.000
216.65	-0.000
216.87	-0.000
217.08	-0.000
217.29	-0.000
217.51	-0.000
217.72	-0.000
217.94	-0.000
218.15	-0.000
218.37	-0.000
218.58	-0.000
218.80	-0.000
219.01	-0.000
219.22	-0.000
219.44	-0.000
219.65	-0.000
219.87	-0.000
220.08	-0.000
220.30	-0.000
220.51	-0.000
220.72	-0.000
220.94	-0.000
221.15	-0.000
221.37	-0.000
221.58	-0.000
221.79	-0.000
222.01	-0.000
222.22	-0.000
222.44	-0.000
222.65	-0.000
222.87	-0.000
223.08	-0.000
223.29	-0.000
223.51	-0.000
223.72	-0.000
223.94	-0.000
224.15	-0.000
224.36	-0.000
224.58	-0.000
224.79	-0.000
225.01	-0.000
225.22	-0.000
225.44	-0.000
225.65	-0.000
225.86	-0.000
226.08	-0.000
226.29	-0.000
226.51	-0.000
226.72	-0.000
226.93	-0.000
227.15	-0.000
227.36	-0.000
227.58	-0.000
227.79	-0.000
228.00	-0.000
228.22	-0.000
228.43	-0.000
228.65	-0.000
228.86	-0.000
229.07	-0.000
229.29	-0.000
229.50	-0.000
229.72	-0.000
229.93	-0.000
230.14	-0.000
230.36	-0.000
230.57	-0.000
230.78	-0.000
231.00	-0.000
231.21	-0.000
231.43	-0.000
231.64	-0.000
231.85	-0.000
232.07	-0.000
232.28	-0.000
232.50	-0.000
232.71	-0.000
232.92	-0.000
233.14	-0.000
233.35	-0.000
233.56	-0.000
233.78	-0.000
233.99	-0.000
234.21	-0.000
234.42	-0.000
234.63	-0.000
234.85	-0.000
235.06	-0.000
235.27	-0.000
235.49	-0.000
235.70	-0.000
235.91	-0.000
236.13	-0.000
236.34	-0.000
236.56	-0.000
236.77	-0.000
236.98	-0.000
237.20	-0.000
237.41	-0.000
237.62	-0.000
237.84	-0.000
238.05	-0.000
238.26	-0.000
238.48	-0.000
238.69	-0.000
238.91	-0.000
239.12	-0.000
239.33	-0.000
239.55	-0.000
239.76	-0.000
239.97	-0.000
240.19	-0.000
240.40	-0.000
240.61	-0.000
240.83	-0.000
241.04	-0.000
241.25	-0.000
241.47	-0.000
241.68	-0.000
241.89	-0.000
242.11	-0.000
242.32	-0.000
242.53	-0.000
242.75	-0.000
242.96	-0.000
243.17	-0.000
243.39	-0.000
243.60	-0.000
243.81	-0.000
244.03	-0.000
244.24	-0.000
244.45	-0.000
244.67	-0.000
244.88	-0.000
245.09	-0.000
245.31	-0.000
245.52	-0.000
245.73	-0.000
245.95	-0.000
246.16	-0.000
246.37	-0.000
246.59	-0.000
246.80	-0.000
247.01	-0.000
247.23	-0.000
247.44	-0.000
247.65	-0.000
247.87	-0.000
248.08	-0.000
248.29	-0.000
248.51	-0.000
248.72	-0.000
248.93	-0.000
249.15	-0.000
249.36	-0.000
249.57	-0.000
249.78	-0.000
250.00	-0.000
250.21	-0.000
250.42	-0.000
250.64	-0.000
250.85	-0.000
251.06	-0.000
251.28	-0.000
251.49	-0.000
251.70	-0.000
251.92	-0.000
252.13	-0.000
252.34	-0.000
252.55	-0.000
252.77	-0.000
252.98	-0.000
253.19	-0.000
253.41	-0.000
253.62	-0.000
253.83	-0.000
254.05	-0.000
254.26	-0.000
254.47	-0.000
254.68	-0.000
254.90	-0.000
255.11	-0.000
255.32	-0.000
255.54	-0.000
255.75	-0.000
255.96	-0.000
256.17	-0.000
256.39	-0.000
256.60	-0.000
256.81	-0.000
257.03	-0.000
257.24	-0.000
257.45	-0.000
257.66	-0.000
257.88	-0.000
258.09	-0.000
258.30	-0.000
258.51	-0.000
258.73	-0.000
258.94	-0.000
259.15	-0.000
259.37	-0.000
259.58	-0.000
259.79	-0.000
260.00	-0.000
260.22	-0.000
260.43	-0.000
260.64	-0.000
260.85	-0.000
261.07	-0.000
261.28	-0.000
261.49	-0.000
261.71	-0.000
261.92	-0.000
262.13	-0.000
262.34	-0.000
262.56	-0.000
262.77	-0.000
262.98	-0.000
263.19	-0.000
263.41	-0.000
263.62	-0.000
263.83	-0.000
264.04	-0.000
264.26	-0.000
264.47	-0.000
264.68	-0.000
264.89	-0.000
265.11	-0.000
265.32	-0.000
265.53	-0.000
265.74	-0.000
265.96	-0.000
266.17	-0.000
266.38	-0.000
266.59	-0.000
266.81	-0.000
267.02	-0.000
267.23	-0.000
267.44	-0.000
267.65	-0.000
267.87	-0.000
268.08	-0.000
268.29	-0.000
268.50	-0.000
268.72	-0.000
268.93	-0.000
269.14	-0.000
269.35	-0.000
269.57	-0.000
269.78	-0.000
269.99	-0.000
270.20	-0.000
270.41	-0.000
270.63	-0.000
270.84	-0.000
271.05	-0.000
271.26	-0.000
271.48	-0.000
271.69	-0.000
271.90	-0.000
272.11	-0.000
272.32	-0.000
272.54	-0.000
272.75	-0.000
272.96	-0.000
273.17	-0.000
273.39	-0.000
273.60	-0.000
273.81	-0.000
274.02	-0.000
274.23	-0.000
274.45	-0.000
274.66	-0.000
274.87	-0.000
275.08	-0.000
275.29	-0.000
275.51	-0.000
275.72	-0.000
275.93	-0.000
276.14	-0.000
276.35	-0.000
276.57	-0.000
276.78	-0.000
276.99	-0.000
277.20	-0.000
277.41	-0.000
277.63	-0.000
277.84	-0.000
278.05	-0.000
278.26	-0.000
278.47	-0.000
278.69	-0.000
278.90	-0.000
279.11	-0.000
279.32	-0.000
279.53	-0.000
279.74	-0.000
279.96	-0.000
280.17	-0.000
280.38	-0.000
280.59	-0.000
280.80	-0.000
281.02	-0.000
281.23	-0.000
281.44	-0.000
281.65	-0.000
281.86	-0.000
282.07	-0.000
282.29	-0.000
282.50	-0.000
282.71	-0.000
282.92	-0.000
283.13	-0.000
283.35	-0.000
283.56	-0.000
283.77	-0.000
283.98	-0.000
284.19	-0.000
284.40	-0.000
284.62	-0.000
284.83	-0.000
285.04	-0.000
285.25	-0.000
285.46	-0.000
285.67	-0.000
285.88	-0.000
286.10	-0.000
286.31	-0.000
286.52	-0.000
286.73	-0.000
286.94	-0.000
287.15	-0.000
287.37	-0.000
287.58	-0.000
287.79	-0.000
288.00	-0.000
288.21	-0.000
288.42	-0.000
288.63	-0.000
288.85	-0.000
289.06	-0.000
289.27	-0.000
289.48	-0.000
289.69	-0.000
289.90	-0.000
290.11	-0.000
290.33	-0.000
290.54	-0.000
290.75	-0.000
290.96	-0.000
291.17	-0.000
291.38	-0.000
291.59	-0.000
291.81	-0.000
292.02	-0.000
292.23	-0.000
292.44	-0.000
292.65	-0.000
292.86	-0.000
293.07	-0.000
293.28	-0.000
293.50	-0.000
293.71	-0.000
293.92	-0.000
294.13	-0.000
294.34	-0.000
294.55	-0.000
294.76	-0.000
294.97	-0.000
295.19	-0.000
295.40	-0.000
295.61	-0.000
295.82	-0.000
296.03	-0.000
296.24	-0.000
296.45	-0.000
296.66	2.628
296.87	2.795
297.09	-0.000
297.30	-0.000
297.51	2.229
297.72	2.123
297.93	2.406
298.14	2.222
298.35	2.068
298.56	2.010
298.77	2.393
298.99	2.314
299.20	2.192
299.41	2.131
299.62	2.036
299.83	2.021
300.04	1.861
300.25	1.853
300.46	1.967
300.67	1.928
300.88	1.807
301.10	1.799
301.31	1.940
301.52	1.815
301.73	1.704
301.94	1.703
302.15	1.725
302.36	1.654
302.57	1.556
302.78	1.561
302.99	1.621
303.20	1.649
303.41	1.526
303.63	1.492
303.84	1.501
304.05	1.496
304.26	1.417
304.47	1.423
304.68	1.426
304.89	1.413
305.10	1.361
305.31	1.340
305.52	1.395
305.73	1.383
305.94	1.338
306.15	1.329
306.37	1.357
306.58	1.363
306.79	1.324
307.00	1.348
307.21	1.396
307.42	1.391
307.63	1.349
307.84	1.305
308.05	1.345
308.26	1.345
308.47	1.319
308.68	1.313
308.89	1.314
309.10	1.311
309.31	1.268
309.52	1.258
309.73	1.270
309.95	1.262
310.16	1.229
310.37	1.220
310.58	1.240
310.79	1.236
311.00	1.232
311.21	1.234
311.42	1.238
311.63	1.233
311.84	1.210
312.05	1.210
312.26	1.236
312.47	1.248
312.68	1.218
312.89	1.199
313.10	1.209
313.31	1.176
313.52	1.174
313.73	1.176
313.94	1.178
314.15	1.158
314.36	1.134
314.57	1.126
314.78	1.115
314.99	1.110
315.21	1.094
315.42	1.097
315.63	1.111
315.84	1.091
316.05	1.072
316.26	1.079
316.47	1.099
316.68	1.093
316.89	1.073
317.10	1.095
317.31	1.101
317.52	1.103
317.73	1.080
317.94	1.081
318.15	1.127
318.36	1.127
318.57	1.109
318.78	1.096
318.99	1.135
319.20	1.133
319.41	1.094
319.62	1.096
319.83	1.111
320.04	1.107
320.25	1.089
320.46	1.051
320.67	1.055
320.88	1.048
321.09	1.034
321.30	1.016
321.51	1.031
321.72	1.030
321.93	1.012
322.14	1.003
322.35	1.031
322.56	1.037
322.77	1.025
322.98	1.038
323.19	1.046
323.40	1.054
323.61	1.032
323.82	1.025
324.03	1.031
324.24	1.029
324.45	1.015
324.66	0.993
324.87	0.989
325.08	0.988
325.29	0.967
325.50	0.958
325.71	0.964
325.92	0.973
326.13	0.960
326.34	0.961
326.55	0.970
326.76	0.970
326.97	0.960
327.18	0.954
327.39	0.982
327.60	0.984
327.80	0.985
328.01	0.982
328.22	0.984
328.43	0.987
328.64	0.973
328.85	0.978
329.06	0.979
329.27	0.977
329.48	0.971
329.69	0.951
329.90	0.961
330.11	0.955
330.32	0.947
330.53	0.939
330.74	0.939
330.95	0.937
331.16	0.920
331.37	0.929
331.58	0.930
331.79	0.929
332.00	0.920
332.21	0.913
332.42	0.916
332.63	0.907
332.83	0.902
333.04	0.904
333.25	0.918
333.46	0.916
333.67	0.901
333.88	0.906
334.09	0.916
334.30	0.912
334.51	0.903
334.72	0.900
334.93	0.903
335.14	0.903
335.35	0.895
335.56	0.890
335.77	0.899
335.98	0.898
336.18	0.889
336.39	0.882
336.60	0.887
336.81	0.885
337.02	0.884
337.23	0.889
337.44	0.892
337.65	0.893
337.86	0.882
338.07	0.876
338.28	0.882
338.49	0.879
338.70	0.871
338.91	0.878
339.11	0.885
339.32	0.881
339.53	0.869
339.74	0.866
339.95	0.864
340.16	0.862
340.37	0.854
340.58	0.852
340.79	0.856
341.00	0.856
341.21	0.845
341.41	0.845
341.62	0.847
341.83	0.848
342.04	0.843
342.25	0.855
342.46	0.860
342.67	0.859
342.88	0.853
343.09	0.853
343.30	0.861
343.50	0.864
343.71	0.853
343.92	0.852
344.13	0.856
344.34	0.856
344.55	0.839
344.76	0.838
344.97	0.842
345.18	0.841
345.38	0.836
345.59	0.831
345.80	0.830
346.01	0.828
346.22	0.822
346.43	0.815
346.64	0.823
346.85	0.821
347.06	0.814
347.26	0.813
347.47	0.817
347.68	0.813
347.89	0.808
348.10	0.802
348.31	0.810
348.52	0.810
348.73	0.807
348.93	0.804
349.14	0.806
349.35	0.806
349.56	0.800
349.77	0.795
349.98	0.801
350.19	0.798
350.39	0.793
350.60	0.789
350.81	0.805
351.02	0.805
351.23	0.800
351.44	0.804
351.65	0.807
351.86	0.805
352.06	0.804
352.27	0.804
352.48	0.806
352.69	0.806
352.90	0.801
353.11	0.787
353.31	0.795
353.52	0.791
353.73	0.782
353.94	0.784
354.15	0.791
354.36	0.791
354.57	0.781
354.77	0.784
354.98	0.784
355.19	0.783
355.40	0.783
355.61	0.788
355.82	0.793
356.02	0.792
356.23	0.785
356.44	0.785
356.65	0.789
356.86	0.789
357.07	0.781
357.27	0.785
357.48	0.787
357.69	0.783
357.90	0.767
358.11	0.764
358.32	0.768
358.52	0.771
358.73	0.761
358.94	0.763
359.15	0.767
359.36	0.768
359.56	0.763
359.77	0.760
359.98	0.768
360.19	0.767
360.40	0.764
360.61	0.764
360.81	0.764
361.02	0.765
361.23	0.757
361.44	0.755
361.65	0.756
361.85	0.755
362.06	0.752
362.27	0.754
362.48	0.755
362.69	0.756
362.89	0.749
363.10	0.751
363.31	0.756
363.52	0.759
363.73	0.754
363.93	0.754
364.14	0.757
364.35	0.759
364.56	0.748
364.77	0.750
364.97	0.754
365.18	0.754
365.39	0.748
365.60	0.744
365.81	0.745
366.01	0.745
366.22	0.741
366.43	0.740
366.64	0.742
366.84	0.748
367.05	0.744
367.26	0.743
367.47	0.745
367.68	0.746
367.88	0.743
368.09	0.741
368.30	0.744
368.51	0.745
368.71	0.744
368.92	0.748
369.13	0.746
369.34	0.745
369.55	0.744
369.75	0.744
369.96	0.751
370.17	0.750
370.38	0.747
370.58	0.746
370.79	0.751
371.00	0.750
371.21	0.740
371.41	0.746
371.62	0.751
371.83	0.745
372.04	0.744
372.24	0.737
372.45	0.738
372.66	0.738
372.87	0.734
373.07	0.730
373.28	0.731
373.49	0.735
373.70	0.725
373.90	0.724
374.11	0.733
374.32	0.732
374.53	0.730
374.73	0.730
374.94	0.733
375.15	0.734
375.36	0.731
375.56	0.741
375.77	0.741
375.98	0.742
376.19	0.739
376.39	0.733
376.60	0.737
376.81	0.737
377.02	0.735
377.22	0.734
377.43	0.733
377.64	0.733
377.84	0.724
378.05	0.727
378.26	0.733
378.47	0.732
378.67	0.729
378.88	0.727
379.09	0.728
379.30	0.728
379.50	0.725
379.71	0.728
379.92	0.731
380.12	0.730
380.33	0.722
380.54	0.720
380.75	0.726
380.95	0.727
381.16	0.725
381.37	0.725
381.57	0.726
381.78	0.726
381.99	0.727
382.20	0.726
382.40	0.730
382.61	0.729
382.82	0.725
383.02	0.719
383.23	0.722
383.44	0.722
383.64	0.721
383.85	0.723
384.06	0.726
384.27	0.723
384.47	0.721
384.68	0.722
384.89	0.728
385.09	0.728
385.30	0.727
385.51	0.725
385.71	0.729
385.92	0.729
386.13	0.727
386.33	0.730
386.54	0.731
386.75	0.730
386.95	0.724
387.16	0.720
387.37	0.722
387.58	0.722
387.78	0.719
387.99	0.717
388.20	0.719
388.40	0.716
388.61	0.712
388.82	0.715
389.02	0.717
389.23	0.717
389.44	0.715
389.64	0.715
389.85	0.727
390.06	0.727
390.26	0.727
390.47	0.726
390.68	0.728
390.88	0.726
391.09	0.721
391.30	0.720
391.50	0.720
391.71	0.721
391.92	0.718
392.12	0.711
392.33	0.712
392.53	0.712
392.74	0.712
392.95	0.712
393.15	0.716
393.36	0.718
393.57	0.715
393.77	0.718
393.98	0.720
394.19	0.719
394.39	0.718
394.60	0.719
394.81	0.721
395.01	0.719
395.22	0.716
395.43	0.717
395.63	0.722
395.84	0.723
396.04	0.719
396.25	0.721
396.46	0.723
396.66	0.721
396.87	0.718
397.08	0.715
397.28	0.717
397.49	0.718
397.69	0.714
397.90	0.709
398.11	0.711
398.31	0.711
398.52	0.707
398.73	0.709
398.93	0.708
399.14	0.706
399.34	0.706
399.55	0.707
399.76	0.706
399.96	0.707
400.17	0.706
400.37	0.704
400.58	0.711
400.79	0.713
400.99	0.711
401.20	0.717
401.41	0.720
401.61	0.720
401.82	0.725
402.02	0.725
402.23	0.727
402.44	0.726
402.64	0.726
402.85	0.720
403.05	0.718
403.26	0.717
403.47	0.710
403.67	0.709
403.88	0.710
404.08	0.704
404.29	0.702
404.50	0.702
404.70	0.702
404.91	0.701
405.11	0.698
405.32	0.698
405.52	0.698
405.73	0.698
405.94	0.696
406.14	0.699
406.35	0.701
406.55	0.700
406.76	0.698
406.97	0.699
407.17	0.702
407.38	0.701
407.58	0.700
407.79	0.703
407.99	0.706
408.20	0.707
408.41	0.702
408.61	0.700
408.82	0.702
409.02	0.701
409.23	0.699
409.43	0.698
409.64	0.700
409.84	0.699
410.05	0.695
410.26	0.694
410.46	0.693
410.67	0.692
410.87	0.694
411.08	0.695
411.28	0.697
411.49	0.699
411.69	0.696
411.90	0.697
412.11	0.699
412.31	0.700
412.52	0.698
412.72	0.699
412.93	0.700
413.13	0.699
413.34	0.695
413.54	0.697
413.75	0.698
413.95	0.697
414.16	0.694
414.37	0.696
414.57	0.697
414.78	0.699
414.98	0.697
415.19	0.698
415.39	0.696
415.60	0.698
415.80	0.697
416.01	0.695
416.21	0.697
416.42	0.697
416.62	0.693
416.83	0.693
417.03	0.693
417.24	0.694
417.44	0.691
417.65	0.691
417.86	0.691
418.06	0.690
418.27	0.688
418.47	0.690
418.68	0.690
418.88	0.690
419.09	0.688
419.29	0.689
419.50	0.689
419.70	0.689
419.91	0.687
420.11	0.685
420.32	0.688
420.52	0.687
420.73	0.685
420.93	0.686
421.14	0.688
421.34	0.687
421.55	0.683
421.75	0.683
421.96	0.685
422.16	0.685
422.37	0.684
422.57	0.681
422.78	0.682
422.98	0.679
423.19	0.677
423.39	0.675
423.60	0.679
423.80	0.680
424.01	0.679
424.21	0.682
424.42	0.682
424.62	0.682
424.83	0.681
425.03	0.682
425.23	0.685
425.44	0.685
425.64	0.686
425.85	0.685
426.05	0.686
426.26	0.686
426.46	0.682
426.67	0.681
426.87	0.686
427.08	0.686
427.28	0.683
427.49	0.684
427.69	0.685
427.90	0.684
428.10	0.681
428.31	0.681
428.51	0.683
428.71	0.682
428.92	0.684
429.12	0.682
429.33	0.683
429.53	0.687
429.74	0.690
429.94	0.691
430.15	0.691
430.35	0.690
430.56	0.687
430.76	0.686
430.96	0.687
431.17	0.684
431.37	0.681
431.58	0.679
431.78	0.676
431.99	0.669
432.19	0.671
432.40	0.673
432.60	0.674
432.80	0.676
433.01	0.674
433.21	0.675
433.42	0.677
433.62	0.678
433.83	0.678
434.03	0.680
434.23	0.683
434.44	0.682
434.64	0.679
434.85	0.684
435.05	0.685
435.26	0.685
435.46	0.683
435.66	0.683
435.87	0.683
436.07	0.683
436.28	0.679
436.48	0.676
436.69	0.676
436.89	0.676
437.09	0.670
437.30	0.669
437.50	0.669
437.71	0.681
437.91	0.680
438.11	0.681
438.32	0.685
438.52	0.685
438.73	0.684
438.93	0.682
439.13	0.682
439.34	0.685
439.54	0.683
439.75	0.683
439.95	0.673
440.15	0.677
440.36	0.675
440.56	0.673
440.77	0.674
440.97	0.674
441.17	0.673
441.38	0.675
441.58	0.672
441.79	0.672
441.99	0.670
442.19	0.669
442.40	0.667
442.60	0.667
442.81	0.664
443.01	0.665
443.21	0.666
443.42	0.666
443.62	0.664
443.82	0.664
444.03	0.665
444.23	0.666
444.44	0.666
444.64	0.665
444.84	0.667
445.05	0.666
445.25	0.664
445.45	0.663
445.66	0.666
445.86	0.665
446.06	0.666
446.27	0.665
446.47	0.669
446.68	0.667
446.88	0.666
447.08	0.665
447.29	0.667
447.49	0.667
447.69	0.667
447.90	0.665
448.10	0.669
448.30	0.666
448.51	0.668
448.71	0.665
448.91	0.668
449.12	0.666
449.32	0.668
449.52	0.667
449.73	0.670
449.93	0.669
450.14	0.670
450.34	0.669
450.54	0.672
450.75	0.669
450.95	0.669
451.15	0.668
451.36	0.670
451.56	0.667
451.76	0.666
451.97	0.663
452.17	0.664
452.37	0.662
452.58	0.659
452.78	0.658
452.98	0.660
453.19	0.659
453.39	0.660
453.59	0.659
453.79	0.660
454.00	0.661
454.20	0.660
454.40	0.661
454.61	0.664
454.81	0.664
455.01	0.663
455.22	0.664
455.42	0.666
455.62	0.664
455.83	0.663
456.03	0.666
456.23	0.668
456.44	0.669
456.64	0.667
456.84	0.667
457.04	0.668
457.25	0.667
457.45	0.663
457.65	0.662
457.86	0.662
458.06	0.661
458.26	0.656
458.47	0.655
458.67	0.656
458.87	0.656
459.07	0.653
459.28	0.655
459.48	0.658
459.68	0.658
459.89	0.657
460.09	0.656
460.29	0.658
460.49	0.659
460.70	0.658
460.90	0.657
461.10	0.658
461.31	0.658
461.51	0.655
461.71	0.657
461.91	0.659
462.12	0.659
462.32	0.658
462.52	0.659
462.72	0.662
462.93	0.662
463.13	0.660
463.33	0.661
463.53	0.663
463.74	0.662
463.94	0.658
464.14	0.658
464.35	0.659
464.55	0.660
464.75	0.657
464.95	0.655
465.16	0.657
465.36	0.656
465.56	0.655
465.76	0.654
465.97	0.655
466.17	0.656
466.37	0.654
466.57	0.655
466.78	0.656
466.98	0.657
467.18	0.654
467.38	0.653
467.59	0.655
467.79	0.656
467.99	0.655
468.19	0.656
468.39	0.659
468.60	0.659
468.80	0.657
469.00	0.658
469.20	0.659
469.41	0.659
469.61	0.659
469.81	0.659
470.01	0.658
470.22	0.659
470.42	0.657
470.62	0.655
470.82	0.657
471.02	0.656
471.23	0.654
471.43	0.655
471.63	0.657
471.83	0.656
472.04	0.655
472.24	0.654
472.44	0.659
472.64	0.660
472.84	0.657
473.05	0.657
473.25	0.660
473.45	0.659
473.65	0.657
473.85	0.657
474.06	0.659
474.26	0.658
474.46	0.659
474.66	0.656
474.86	0.657
475.07	0.657
475.27	0.655
475.47	0.652
475.67	0.653
475.87	0.656
476.08	0.652
476.28	0.653
476.48	0.654
476.68	0.652
476.88	0.650
477.09	0.651
477.29	0.653
477.49	0.653
477.69	0.652
477.89	0.652
478.09	0.651
478.30	0.653
478.50	0.651
478.70	0.650
478.90	0.652
479.10	0.654
479.31	0.655
479.51	0.653
479.71	0.653
479.91	0.653
480.11	0.652
480.31	0.652
480.52	0.651
480.72	0.651
480.92	0.650
481.12	0.648
481.32	0.646
481.52	0.644
481.72	0.644
481.93	0.648
482.13	0.649
482.33	0.648
482.53	0.646
482.73	0.647
482.93	0.648
483.14	0.648
483.34	0.647
483.54	0.648
483.74	0.647
483.94	0.646
484.14	0.642
484.34	0.642
484.55	0.643
484.75	0.643
484.95	0.641
485.15	0.641
485.35	0.641
485.55	0.640
485.75	0.638
485.96	0.638
486.16	0.640
486.36	0.639
486.56	0.638
486.76	0.638
486.96	0.638
487.16	0.637
487.36	0.636
487.57	0.636
487.77	0.637
487.97	0.637
488.17	0.635
488.37	0.634
488.57	0.635
488.77	0.635
488.97	0.634
489.18	0.633
489.38	0.636
489.58	0.636
489.78	0.635
489.98	0.634
490.18	0.634
490.38	0.635
490.58	0.634
490.78	0.634
490.98	0.636
491.19	0.637
491.39	0.636
491.59	0.635
491.79	0.638
491.99	0.638
492.19	0.638
492.39	0.642
492.59	0.641
492.79	0.643
492.99	0.643
493.20	0.643
493.40	0.642
493.60	0.644
493.80	0.642
494.00	0.640
494.20	0.641
494.40	0.641
494.60	0.637
494.80	0.642
495.00	0.641
495.20	0.640
495.40	0.639
495.61	0.641
495.81	0.641
496.01	0.644
496.21	0.644
496.41	0.643
496.61	0.644
496.81	0.643
497.01	0.638
497.21	0.637
497.41	0.638
497.61	0.638
497.81	0.635
498.01	0.635
498.21	0.633
498.41	0.631
498.61	0.631
498.82	0.632
499.02	0.634
499.22	0.635
499.42	0.634
499.62	0.636
499.82	0.637
500.02	0.638
500.22	0.637
500.42	0.639
500.62	0.640
500.82	0.641
501.02	0.639
501.22	0.639
501.42	0.639
501.62	0.642
501.82	0.640
502.02	0.640
502.22	0.640
502.42	0.642
502.62	0.639
502.82	0.639
503.02	0.640
503.22	0.639
503.42	0.637
503.63	0.637
503.83	0.635
504.03	0.634
504.23	0.633
504.43	0.633
504.63	0.634
504.83	0.634
505.03	0.633
505.23	0.635
505.43	0.637
505.63	0.637
505.83	0.637
506.03	0.639
506.23	0.641
506.43	0.641
506.63	0.640
506.83	0.638
507.03	0.641
507.23	0.641
507.43	0.638
507.63	0.638
507.83	0.639
508.03	0.639
508.23	0.639
508.43	0.637
508.63	0.639
508.83	0.640
509.03	0.641
509.23	0.639
509.43	0.641
509.63	0.641
509.83	0.640
510.03	0.643
510.23	0.644
510.43	0.645
510.63	0.645
510.83	0.645
511.03	0.647
511.23	0.644
511.43	0.644
511.63	0.645
511.83	0.647
512.03	0.647
512.22	0.644
512.42	0.644
512.62	0.644
512.82	0.644
513.02	0.644
513.22	0.643
513.42	0.645
513.62	0.648
513.82	0.646
514.02	0.645
514.22	0.646
514.42	0.646
514.62	0.646
514.82	0.646
515.02	0.648
515.22	0.652
515.42	0.650
515.62	0.653
515.82	0.652
516.02	0.653
516.22	0.653
516.42	0.655
516.62	0.656
516.82	0.658
517.01	0.655
517.21	0.655
517.41	0.658
517.61	0.659
517.81	0.654
518.01	0.653
518.21	0.653
518.41	0.652
518.61	0.650
518.81	0.651
519.01	0.652
519.21	0.652
519.41	0.650
519.61	0.645
519.81	0.648
520.00	0.648
520.20	0.649
520.40	0.652
520.60	0.654
520.80	0.653
521.00	0.654
521.20	0.655
521.40	0.660
521.60	0.661
521.80	0.660
522.00	0.660
522.20	0.663
522.39	0.661
522.59	0.658
522.79	0.659
522.99	0.661
523.19	0.659
523.39	0.657
523.59	0.655
523.79	0.658
523.99	0.660
524.19	0.659
524.38	0.658
524.58	0.660
524.78	0.660
524.98	0.658
525.18	0.660
525.38	0.662
525.58	0.662
525.78	0.660
525.98	0.658
526.18	0.659
526.37	0.658
526.57	0.659
526.77	0.659
526.97	0.661
527.17	0.661
527.37	0.657
527.57	0.660
527.77	0.662
527.96	0.661
528.16	0.660
528.36	0.661
528.56	0.663
528.76	0.661
528.96	0.660
529.16	0.661
529.36	0.664
529.55	0.663
529.75	0.659
529.95	0.659
530.15	0.661
530.35	0.664
530.55	0.662
530.75	0.662
530.94	0.664
531.14	0.664
531.34	0.662
531.54	0.660
531.74	0.663
531.94	0.666
532.13	0.664
532.33	0.666
532.53	0.664
532.73	0.664
532.93	0.662
533.13	0.664
533.33	0.664
533.52	0.665
533.72	0.668
533.92	0.666
534.12	0.665
534.32	0.665
534.52	0.663
534.71	0.664
534.91	0.668
535.11	0.669
535.31	0.667
535.51	0.669
535.71	0.671
535.90	0.668
536.10	0.669
536.30	0.671
536.50	0.671
536.70	0.672
536.89	0.670
537.09	0.669
537.29	0.670
537.49	0.671
537.69	0.669
537.89	0.670
538.08	0.670
538.28	0.667
538.48	0.668
538.68	0.670
538.88	0.671
539.07	0.672
539.27	0.669
539.47	0.668
539.67	0.668
539.87	0.669
540.06	0.667
540.26	0.669
540.46	0.671
540.66	0.669
540.86	0.665
541.05	0.665
541.25	0.667
541.45	0.667
541.65	0.665
541.84	0.667
542.04	0.668
542.24	0.669
542.44	0.668
542.64	0.669
542.83	0.672
543.03	0.673
543.23	0.671
543.43	0.672
543.62	0.673
543.82	0.673
544.02	0.672
544.22	0.672
544.42	0.675
544.61	0.676
544.81	0.672
545.01	0.671
545.21	0.673
545.40	0.673
545.60	0.671
545.80	0.674
546.00	0.675
546.19	0.674
546.39	0.672
546.59	0.670
546.79	0.671
546.98	0.672
547.18	0.672
547.38	0.672
547.58	0.675
547.77	0.675
547.97	0.672
548.17	0.674
548.37	0.675
548.56	0.675
548.76	0.673
548.96	0.676
549.16	0.678
549.35	0.678
549.55	0.675
549.75	0.676
549.95	0.680
550.14	0.680
550.34	0.678
550.54	0.683
550.73	0.687
550.93	0.688
551.13	0.685
551.33	0.682
551.52	0.683
551.72	0.684
551.92	0.681
552.12	0.681
552.31	0.682
552.51	0.681
552.71	0.677
552.90	0.677
553.10	0.678
553.30	0.678
553.50	0.678
553.69	0.679
553.89	0.680
554.09	0.680
554.28	0.677
554.48	0.678
554.68	0.680
554.87	0.680
555.07	0.677
555.27	0.677
555.47	0.679
555.66	0.680
555.86	0.678
556.06	0.680
556.25	0.681
556.45	0.689
556.65	0.687
556.84	0.690
557.04	0.694
557.24	0.695
557.43	0.695
557.63	0.697
557.83	0.699
558.02	0.699
558.22	0.704
558.42	0.704
558.61	0.697
558.81	0.698
559.01	0.693
559.21	0.693
559.40	0.694
559.60	0.695
559.80	0.691
559.99	0.692
560.19	0.695
560.39	0.688
560.58	0.686
560.78	0.686
560.97	0.690
561.17	0.688
561.37	0.685
561.56	0.687
561.76	0.688
561.96	0.687
562.15	0.684
562.35	0.686
562.55	0.688
562.74	0.688
562.94	0.686
563.14	0.684
563.33	0.685
563.53	0.686
563.73	0.683
563.92	0.685
564.12	0.688
564.31	0.690
564.51	0.689
564.71	0.690
564.90	0.693
565.10	0.694
565.30	0.697
565.49	0.699
565.69	0.701
565.89	0.700
566.08	0.697
566.28	0.698
566.47	0.700
566.67	0.698
566.87	0.694
567.06	0.696
567.26	0.703
567.46	0.698
567.65	0.697
567.85	0.699
568.04	0.702
568.24	0.701
568.44	0.698
568.63	0.696
568.83	0.698
569.02	0.697
569.22	0.692
569.42	0.687
569.61	0.690
569.81	0.688
570.00	0.686
570.20	0.687
570.40	0.688
570.59	0.688
570.79	0.686
570.98	0.684
571.18	0.686
571.38	0.686
571.57	0.683
571.77	0.681
571.96	0.684
572.16	0.682
572.35	0.676
572.55	0.678
572.75	0.676
572.94	0.675
573.14	0.673
573.33	0.674
573.53	0.674
573.73	0.674
573.92	0.673
574.12	0.670
574.31	0.673
574.51	0.674
574.70	0.671
574.90	0.673
575.09	0.675
575.29	0.675
575.49	0.672
575.68	0.673
575.88	0.674
576.07	0.675
576.27	0.673
576.46	0.671
576.66	0.670
576.86	0.670
577.05	0.667
577.25	0.665
577.44	0.667
577.64	0.667
577.83	0.665
578.03	0.667
578.22	0.666
578.42	0.665
578.61	0.663
578.81	0.664
579.00	0.664
579.20	0.664
579.40	0.663
579.59	0.662
579.79	0.662
579.98	0.662
580.18	0.660
580.37	0.661
580.57	0.663
580.76	0.668
580.96	0.666
581.15	0.667
581.35	0.669
581.54	0.669
581.74	0.668
581.93	0.670
582.13	0.671
582.32	0.668
582.52	0.666
582.71	0.666
582.91	0.662
583.10	0.662
583.30	0.662
583.49	0.661
583.69	0.665
583.88	0.666
584.08	0.665
584.27	0.667
584.47	0.670
584.66	0.671
584.86	0.670
585.05	0.672
585.25	0.674
585.44	0.674
585.64	0.672
585.83	0.669
586.03	0.670
586.22	0.668
586.42	0.665
586.61	0.666
586.81	0.668
587.00	0.668
587.20	0.666
587.39	0.667
587.59	0.669
587.78	0.669
587.98	0.670
588.17	0.670
588.37	0.673
588.56	0.675
588.76	0.671
588.95	0.672
589.15	0.676
589.34	0.678
589.54	0.677
589.73	0.677
589.92	0.681
590.12	0.681
590.31	0.679
590.51	0.684
590.70	0.685
590.90	0.686
591.09	0.683
591.29	0.681
591.48	0.681
591.68	0.682
591.87	0.680
592.06	0.678
592.26	0.681
592.45	0.680
592.65	0.674
592.84	0.674
593.04	0.676
593.23	0.678
593.43	0.676
593.62	0.675
593.81	0.676
594.01	0.676
594.20	0.673
594.40	0.672
594.59	0.674
594.79	0.676
594.98	0.674
595.17	0.673
595.37	0.674
595.56	0.676
595.76	0.675
595.95	0.676
596.14	0.680
596.34	0.681
596.53	0.679
596.73	0.680
596.92	0.682
597.12	0.685
597.31	0.685
597.50	0.685
597.70	0.687
597.89	0.686
598.09	0.682
598.28	0.683
598.47	0.686
598.67	0.685
598.86	0.681
599.06	0.682
599.25	0.682
599.44	0.680
599.64	0.677
599.83	0.675
600.03	0.679
600.22	0.680
600.41	0.679
600.61	0.677
600.80	0.679
601.00	0.680
601.19	0.675
601.38	0.674
601.58	0.677
601.77	0.679
601.96	0.681
602.16	0.681
602.35	0.690
602.55	0.688
602.74	0.689
602.93	0.690
603.13	0.695
603.32	0.697
603.51	0.697
603.71	0.700
603.90	0.702
604.09	0.702
604.29	0.699
604.48	0.693
604.68	0.695
604.87	0.694
605.06	0.690
605.26	0.686
605.45	0.686
605.64	0.686
605.84	0.680
606.03	0.679
606.22	0.678
606.42	0.678
606.61	0.674
606.80	0.674
607.00	0.675
607.19	0.676
607.38	0.675
607.58	0.676
607.77	0.678
607.96	0.678
608.16	0.676
608.35	0.681
608.54	0.684
608.74	0.688
608.93	0.693
609.12	0.696
609.32	0.699
609.51	0.703
609.70	0.702
609.90	0.704
610.09	0.709
610.28	0.714
610.48	0.708
610.67	0.709
610.86	0.710
611.06	0.704
611.25	0.701
611.44	0.701
611.64	0.702
611.83	0.705
612.02	0.701
612.21	0.699
612.41	0.698
612.60	0.697
612.79	0.693
612.99	0.693
613.18	0.695
613.37	0.692
613.57	0.690
613.76	0.692
613.95	0.689
614.14	0.689
614.34	0.686
614.53	0.687
614.72	0.690
614.92	0.690
615.11	0.687
615.30	0.684
615.49	0.686
615.69	0.688
615.88	0.683
616.07	0.685
616.26	0.687
616.46	0.688
616.65	0.685
616.84	0.684
617.04	0.686
617.23	0.690
617.42	0.690
617.61	0.693
617.81	0.695
618.00	0.697
618.19	0.695
618.38	0.699
618.58	0.703
618.77	0.705
618.96	0.704
619.15	0.706
619.35	0.706
619.54	0.707
619.73	0.702
619.92	0.704
620.12	0.708
620.31	0.708
620.50	0.702
620.69	0.703
620.89	0.705
621.08	0.706
621.27	0.706
621.46	0.706
621.66	0.710
621.85	0.711
622.04	0.706
622.23	0.707
622.43	0.708
622.62	0.708
622.81	0.706
623.00	0.707
623.19	0.711
623.39	0.708
623.58	0.705
623.77	0.704
623.96	0.707
624.16	0.708
624.35	0.703
624.54	0.706
624.73	0.711
624.92	0.709
625.12	0.706
625.31	0.707
625.50	0.711
625.69	0.711
625.88	0.707
626.08	0.707
626.27	0.708
626.46	0.707
626.65	0.704
626.84	0.704
627.04	0.710
627.23	0.710
627.42	0.705
627.61	0.707
627.80	0.710
628.00	0.712
628.19	0.709
628.38	0.713
628.57	0.716
628.76	0.716
628.96	0.712
629.15	0.712
629.34	0.715
629.53	0.715
629.72	0.710
629.91	0.711
630.11	0.715
630.30	0.716
630.49	0.718
630.68	0.719
630.87	0.723
631.06	0.726
631.26	0.721
631.45	0.723
631.64	0.731
631.83	0.733
632.02	0.730
632.21	0.729
632.41	0.736
632.60	0.731
632.79	0.728
632.98	0.729
633.17	0.729
633.36	0.731
633.55	0.727
633.75	0.724
633.94	0.726
634.13	0.726
634.32	0.723
634.51	0.716
634.70	0.719
634.89	0.718
635.09	0.714
635.28	0.715
635.47	0.717
635.66	0.720
635.85	0.714
636.04	0.716
636.23	0.721
636.43	0.722
636.62	0.721
636.81	0.719
637.00	0.723
637.19	0.726
637.38	0.723
637.57	0.723
637.76	0.725
637.95	0.726
638.15	0.721
638.34	0.718
638.53	0.722
638.72	0.724
638.91	0.722
639.10	0.719
639.29	0.719
639.48	0.721
639.67	0.720
639.87	0.718
640.06	0.725
640.25	0.725
640.44	0.725
640.63	0.725
640.82	0.728
641.01	0.728
641.20	0.727
641.39	0.729
641.58	0.731
641.78	0.730
641.97	0.726
642.16	0.742
642.35	0.744
642.54	0.743
642.73	0.737
642.92	0.736
643.11	0.739
643.30	0.738
643.49	0.732
643.68	0.734
643.87	0.735
644.06	0.734
644.25	0.712
644.45	0.714
644.64	0.716
644.83	0.716
645.02	0.712
645.21	0.712
645.40	0.714
645.59	0.715
645.78	0.709
645.97	0.711
646.16	0.713
646.35	0.713
646.54	0.710
646.73	0.711
646.92	0.713
647.11	0.712
647.30	0.708
647.49	0.710
647.68	0.710
647.88	0.708
648.07	0.702
648.26	0.705
648.45	0.707
648.64	0.704
648.83	0.701
649.02	0.704
649.21	0.714
649.40	0.713
649.59	0.709
649.78	0.709
649.97	0.725
650.16	0.724
650.35	0.717
650.54	0.721
650.73	0.729
650.92	0.726
651.11	0.719
651.30	0.718
651.49	0.722
651.68	0.722
651.87	0.718
652.06	0.708
652.25	0.711
652.44	0.714
652.63	0.710
652.82	0.709
653.01	0.709
653.20	0.707
653.39	0.694
653.58	0.691
653.77	0.691
653.96	0.685
654.15	0.677
654.34	0.675
654.53	0.670
654.72	0.664
654.91	0.655
655.10	0.651
655.29	0.648
655.48	0.647
655.67	0.641
655.86	0.638
656.05	0.637
656.24	0.637
656.43	0.632
656.62	0.631
656.81	0.631
657.00	0.629
657.19	0.627
657.38	0.627
657.57	0.627
657.76	0.630
657.95	0.628
658.14	0.632
658.33	0.635
658.51	0.640
658.70	0.640
658.89	0.641
659.08	0.650
659.27	0.658
659.46	0.657
659.65	0.664
659.84	0.667
660.03	0.671
660.22	0.671
660.41	0.677
660.60	0.677
660.79	0.678
660.98	0.685
661.17	0.685
661.36	0.684
661.55	0.686
661.74	0.683
661.92	0.687
662.11	0.689
662.30	0.687
662.49	0.679
662.68	0.678
662.87	0.682
663.06	0.675
663.25	0.675
663.44	0.676
663.63	0.676
663.82	0.674
664.01	0.669
664.20	0.667
664.38	0.669
664.57	0.670
664.76	0.670
664.95	0.670
665.14	0.675
665.33	0.669
665.52	0.676
665.71	0.680
665.90	0.680
666.09	0.682
666.28	0.680
666.46	0.679
666.65	0.679
666.84	0.678
667.03	0.672
667.22	0.670
667.41	0.674
667.60	0.664
667.79	0.657
667.98	0.659
668.16	0.659
668.35	0.658
668.54	0.654
668.73	0.654
668.92	0.655
669.11	0.654
669.30	0.649
669.49	0.644
669.67	0.646
669.86	0.647
670.05	0.645
670.24	0.643
670.43	0.641
670.62	0.640
670.81	0.635
671.00	0.636
671.18	0.636
671.37	0.635
671.56	0.633
671.75	0.633
671.94	0.630
672.13	0.627
672.32	0.622
672.50	0.622
672.69	0.621
672.88	0.622
673.07	0.617
673.26	0.620
673.45	0.621
673.63	0.621
673.82	0.617
674.01	0.618
674.20	0.618
674.39	0.618
674.58	0.618
674.76	0.618
674.95	0.618
675.14	0.617
675.33	0.612
675.52	0.612
675.71	0.612
675.89	0.612
676.08	0.607
676.27	0.607
676.46	0.607
676.65	0.607
676.84	0.606
677.02	0.607
677.21	0.610
677.40	0.608
677.59	0.605
677.78	0.606
677.96	0.609
678.15	0.608
678.34	0.606
678.53	0.607
678.72	0.606
678.90	0.602
679.09	0.598
679.28	0.594
679.47	0.595
679.66	0.594
679.84	0.590
680.03	0.588
680.22	0.587
680.41	0.589
680.60	0.585
680.78	0.585
680.97	0.588
681.16	0.587
681.35	0.586
681.53	0.586
681.72	0.588
681.91	0.589
682.10	0.588
682.29	0.591
682.47	0.588
682.66	0.589
682.85	0.587
683.04	0.585
683.22	0.585
683.41	0.587
683.60	0.585
683.79	0.586
683.97	0.585
684.16	0.584
684.35	0.579
684.54	0.581
684.72	0.581
684.91	0.582
685.10	0.580
685.29	0.581
685.47	0.579
685.66	0.578
685.85	0.575
686.04	0.574
686.22	0.577
686.41	0.579
686.60	0.576
686.79	0.579
686.97	0.580
687.16	0.581
687.35	0.578
687.54	0.582
687.72	0.586
687.91	0.586
688.10	0.587
688.29	0.586
688.47	0.584
688.66	0.583
688.85	0.579
689.03	0.577
689.22	0.582
689.41	0.582
689.60	0.577
689.78	0.574
689.97	0.575
690.16	0.573
690.34	0.568
690.53	0.568
690.72	0.569
690.91	0.567
691.09	0.565
691.28	0.558
691.47	0.557
691.65	0.556
691.84	0.553
692.03	0.552
692.21	0.550
692.40	0.550
692.59	0.548
692.77	0.547
692.96	0.548
693.15	0.549
693.34	0.546
693.52	0.546
693.71	0.546
693.90	0.548
694.08	0.548
694.27	0.550
694.46	0.559
694.64	0.560
694.83	0.559
695.02	0.559
695.20	0.558
695.39	0.559
695.58	0.558
695.76	0.559
695.95	0.559
696.14	0.558
696.32	0.555
696.51	0.545
696.70	0.545
696.88	0.547
697.07	0.545
697.26	0.547
697.44	0.548
697.63	0.547
697.81	0.545
698.00	0.544
698.19	0.544
698.37	0.545
698.56	0.544
698.75	0.544
698.93	0.544
699.12	0.543
699.31	0.542
699.49	0.541
699.68	0.542
699.87	0.544
700.05	0.544
700.24	0.544
700.42	0.545
700.61	0.544
700.80	0.542
700.98	0.542
701.17	0.544
701.36	0.543
701.54	0.542
701.73	0.543
701.91	0.541
702.10	0.540
702.29	0.538
702.47	0.538
702.66	0.540
702.84	0.541
703.03	0.539
703.22	0.540
703.40	0.540
703.59	0.542
703.77	0.541
703.96	0.541
704.15	0.542
704.33	0.542
704.52	0.542
704.70	0.541
704.89	0.540
705.08	0.539
705.26	0.535
705.45	0.535
705.63	0.535
705.82	0.531
706.00	0.530
706.19	0.529
706.38	0.529
706.56	0.528
706.75	0.525
706.93	0.524
707.12	0.526
707.30	0.526
707.49	0.523
707.68	0.521
707.86	0.521
708.05	0.521
708.23	0.519
708.42	0.519
708.60	0.522
708.79	0.522
708.98	0.521
709.16	0.520
709.35	0.523
709.53	0.527
709.72	0.526
709.90	0.528
710.09	0.530
710.27	0.532
710.46	0.535
710.64	0.534
710.83	0.536
711.02	0.537
711.20	0.536
711.39	0.534
711.57	0.532
711.76	0.532
711.94	0.530
712.13	0.531
712.31	0.531
712.50	0.526
712.68	0.523
712.87	0.524
713.05	0.525
713.24	0.525
713.42	0.524
713.61	0.525
713.79	0.525
713.98	0.526
714.16	0.527
714.35	0.526
714.54	0.528
714.72	0.528
714.91	0.525
715.09	0.531
715.28	0.535
715.46	0.535
715.65	0.532
715.83	0.532
716.02	0.534
716.20	0.531
716.39	0.530
716.57	0.531
716.76	0.534
716.94	0.534
717.12	0.526
717.31	0.527
717.49	0.530
717.68	0.532
717.86	0.531
718.05	0.533
718.23	0.536
718.42	0.538
718.60	0.540
718.79	0.548
718.97	0.550
719.16	0.551
719.34	0.548
719.53	0.548
719.71	0.548
719.90	0.549
720.08	0.546
720.27	0.546
720.45	0.546
720.63	0.545
720.82	0.539
721.00	0.542
721.19	0.546
721.37	0.545
721.56	0.546
721.74	0.550
721.93	0.558
722.11	0.566
722.30	0.565
722.48	0.569
722.66	0.571
722.85	0.570
723.03	0.570
723.22	0.568
723.40	0.571
723.59	0.571
723.77	0.574
723.95	0.568
724.14	0.569
724.32	0.570
724.51	0.570
724.69	0.571
724.88	0.573
725.06	0.571
725.24	0.572
725.43	0.573
725.61	0.577
725.80	0.570
725.98	0.569
726.16	0.566
726.35	0.573
726.53	0.572
726.72	0.571
726.90	0.581
727.09	0.582
727.27	0.589
727.45	0.584
727.64	0.593
727.82	0.602
728.01	0.607
728.19	0.603
728.37	0.608
728.56	0.612
728.74	0.619
728.92	0.606
729.11	0.608
729.29	0.607
729.48	0.610
729.66	0.599
729.84	0.600
730.03	0.602
730.21	0.605
730.40	0.595
730.58	0.597
730.76	0.597
730.95	0.599
731.13	0.598
731.31	0.612
731.50	0.622
731.68	0.626
731.86	0.621
732.05	0.637
732.23	0.640
732.42	0.643
732.60	0.647
732.78	0.652
732.97	0.673
733.15	0.682
733.33	0.669
733.52	0.675
733.70	0.686
733.88	0.696
734.07	0.681
734.25	0.711
734.43	0.722
734.62	0.724
734.80	0.719
734.98	0.709
735.17	0.716
735.35	0.725
735.53	0.716
735.72	0.719
735.90	0.743
736.08	0.763
736.27	0.738
736.45	0.746
736.63	0.760
736.82	0.772
737.00	0.772
737.18	0.786
737.37	0.820
737.55	0.845
737.73	0.842
737.92	0.846
738.10	0.845
738.28	0.868
738.46	0.859
738.65	0.876
738.83	0.903
739.01	0.968
739.20	0.954
739.38	0.934
739.56	0.926
739.75	0.930
739.93	0.888
740.11	0.919
740.29	0.918
740.48	0.926
740.66	0.899
740.84	0.890
741.03	0.849
741.21	0.860
741.39	0.837
741.57	0.854
741.76	0.874
741.94	0.881
742.12	0.839
742.31	0.846
742.49	0.866
742.67	0.896
742.85	0.913
743.04	0.920
743.22	0.933
743.40	1.001
743.58	0.975
743.77	0.995
743.95	1.044
744.13	1.110
744.31	1.085
744.50	1.077
744.68	1.069
744.86	1.040
745.04	1.054
745.23	1.137
745.41	1.110
745.59	1.120
745.77	1.075
745.96	1.058
746.14	1.065
746.32	1.070
746.50	1.057
746.69	1.033
746.87	1.047
747.05	1.020
747.23	0.933
747.42	0.917
747.60	0.946
747.78	0.949
747.96	0.985
748.14	0.938
748.33	0.967
748.51	0.961
748.69	0.961
748.87	0.995
749.06	1.001
749.24	1.000
749.42	0.986
749.60	0.967
749.78	0.976
749.97	0.916
750.15	0.909
750.33	0.910
750.51	0.944
750.69	0.947
750.88	0.950
751.06	0.963
751.24	0.996
751.42	0.984
751.60	0.968
751.79	1.058
751.97	1.128
752.15	1.126
752.33	1.085
752.51	1.164
752.69	1.199
752.88	1.146
753.06	1.203
753.24	1.165
753.42	1.212
753.60	1.484
753.78	1.252
753.97	1.271
754.15	1.298
754.33	1.337
754.51	1.154
754.69	1.122
754.87	1.165
755.06	1.067
755.24	1.069
755.42	1.080
755.60	0.963
755.78	0.969
755.96	0.907
756.15	0.908
756.33	0.914
756.51	0.936
756.69	0.921
756.87	0.880
757.05	0.905
757.23	0.885
757.42	0.845
757.60	0.840
757.78	0.832
757.96	0.828
758.14	0.808
758.32	0.793
758.50	0.806
758.69	0.801
758.87	0.795
759.05	0.800
759.23	0.810
759.41	0.813
759.59	0.806
759.77	0.830
759.95	0.863
760.13	0.918
760.32	0.915
760.50	0.910
760.68	0.941
760.86	0.938
761.04	0.902
761.22	0.910
761.40	0.964
761.58	0.962
761.76	0.928
761.95	0.906
762.13	0.862
762.31	0.860
762.49	0.826
762.67	0.846
762.85	0.865
763.03	0.860
763.21	0.839
763.39	0.818
763.57	0.824
763.75	0.816
763.94	0.797
764.12	0.794
764.30	0.823
764.48	0.827
764.66	0.787
764.84	0.779
765.02	0.822
765.20	0.826
765.38	0.805
765.56	0.811
765.74	0.856
765.92	0.860
766.10	0.868
766.28	0.860
766.46	0.891
766.65	0.893
766.83	0.881
767.01	0.861
767.19	0.871
767.37	0.871
767.55	0.854
767.73	0.835
767.91	0.836
768.09	0.828
768.27	0.813
768.45	0.801
768.63	0.806
768.81	0.813
768.99	0.783
769.17	0.808
769.35	0.825
769.53	0.822
769.71	0.800
769.89	0.812
770.07	0.815
770.25	0.798
770.43	0.774
770.61	0.799
770.79	0.806
770.97	0.817
771.15	0.783
771.33	0.784
771.51	0.787
771.69	0.799
771.87	0.806
772.05	0.812
772.24	0.822
772.42	0.835
772.60	0.810
772.78	0.874
772.96	0.908
773.14	0.902
773.32	0.876
773.49	0.884
773.67	0.881
773.85	0.861
774.03	0.848
774.21	0.883
774.39	0.900
774.57	0.926
774.75	0.845
774.93	0.839
775.11	0.866
775.29	0.872
775.47	0.874
775.65	0.885
775.83	0.903
776.01	0.928
776.19	0.875
776.37	0.875
776.55	0.872
776.73	0.867
776.91	0.862
777.09	0.844
777.27	0.847
777.45	0.834
777.63	0.807
777.81	0.803
777.99	0.790
778.17	0.786
778.35	0.763
778.53	0.752
778.71	0.759
778.89	0.743
779.07	0.732
779.24	0.738
779.42	0.741
779.60	0.762
779.78	0.755
779.96	0.760
780.14	0.769
780.32	0.791
780.50	0.771
780.68	0.770
780.86	0.763
781.04	0.780
781.22	0.787
781.40	0.797
781.58	0.788
781.75	0.785
781.93	0.766
782.11	0.769
782.29	0.754
782.47	0.751
782.65	0.737
782.83	0.767
783.01	0.762
783.19	0.750
783.37	0.735
783.55	0.736
783.72	0.755
783.90	0.764
784.08	0.753
784.26	0.766
784.44	0.788
784.62	0.791
784.80	0.757
784.98	0.764
785.16	0.772
785.33	0.787
785.51	0.771
785.69	0.754
785.87	0.755
786.05	0.768
786.23	0.761
786.41	0.760
786.59	0.767
786.77	0.765
786.94	0.747
787.12	0.749
787.30	0.753
787.48	0.751
787.66	0.738
787.84	0.739
788.02	0.729
788.19	0.726
788.37	0.710
788.55	0.711
788.73	0.712
788.91	0.707
789.09	0.688
789.27	0.675
789.44	0.686
789.62	0.692
789.80	0.701
789.98	0.727
790.16	0.716
790.34	0.713
790.51	0.702
790.69	0.720
790.87	0.725
791.05	0.725
791.23	0.720
791.41	0.723
791.58	0.731
791.76	0.707
791.94	0.674
792.12	0.682
792.30	0.685
792.48	0.683
792.65	0.677
792.83	0.687
793.01	0.693
793.19	0.690
793.37	0.674
793.54	0.671
793.72	0.684
793.90	0.682
794.08	0.671
794.26	0.672
794.43	0.681
794.61	0.666
794.79	0.651
794.97	0.649
795.15	0.654
795.32	0.658
795.50	0.646
795.68	0.643
795.86	0.649
796.04	0.650
796.21	0.644
796.39	0.639
796.57	0.653
796.75	0.663
796.92	0.663
797.10	0.670
797.28	0.671
797.46	0.675
797.64	0.675
797.81	0.683
797.99	0.687
798.17	0.691
798.35	0.686
798.52	0.690
798.70	0.686
798.88	0.696
799.06	0.695
799.23	0.700
799.41	0.710
799.59	0.702
799.77	0.690
799.94	0.698
800.12	0.708
800.30	0.728
800.48	0.726
800.65	0.726
800.83	0.715
801.01	0.705
801.19	0.702
801.36	0.696
801.54	0.699
801.72	0.709
801.90	0.695
802.07	0.692
802.25	0.677
802.43	0.660
802.60	0.656
802.78	0.662
802.96	0.669
803.14	0.663
803.31	0.663
803.49	0.665
803.67	0.659
803.84	0.662
804.02	0.653
804.20	0.656
804.38	0.661
804.55	0.660
804.73	0.646
804.91	0.646
805.08	0.659
805.26	0.654
805.44	0.724
805.61	0.728
805.79	0.730
805.97	0.729
806.15	0.719
806.32	0.713
806.50	0.720
806.68	0.717
806.85	0.708
807.03	0.696
807.21	0.715
807.38	0.641
807.56	0.631
807.74	0.641
807.91	0.648
808.09	0.650
808.27	0.669
808.44	0.698
808.62	0.709
808.80	0.712
808.97	0.707
809.15	0.702
809.33	0.719
809.50	0.725
809.68	0.710
809.86	0.719
810.03	0.755
810.21	0.733
810.39	0.711
810.56	0.716
810.74	0.741
810.91	0.818
811.09	0.804
811.27	0.830
811.44	0.841
811.62	0.843
811.80	0.823
811.97	0.792
812.15	0.794
812.33	0.789
812.50	0.775
812.68	0.764
812.85	0.706
813.03	0.709
813.21	0.671
813.38	0.664
813.56	0.668
813.74	0.680
813.91	0.686
814.09	0.716
814.26	0.711
814.44	0.714
814.62	0.703
814.79	0.703
814.97	0.709
815.14	0.717
815.32	0.720
815.50	0.738
815.67	0.742
815.85	0.731
816.02	0.721
816.20	0.729
816.38	0.746
816.55	0.750
816.73	0.752
816.90	0.763
817.08	0.797
817.26	0.804
817.43	0.778
817.61	0.804
817.78	0.828
817.96	0.803
818.13	0.790
818.31	0.790
818.49	0.805
818.66	0.793
818.84	0.778
819.01	0.753
819.19	0.761
819.36	0.766
819.54	0.733
819.71	0.780
819.89	0.797
820.07	0.808
820.24	0.802
820.42	0.802
820.59	0.827
820.77	0.855
820.94	0.849
821.12	0.870
821.29	0.892
821.47	0.896
821.64	0.819
821.82	0.831
822.00	0.835
822.17	0.833
822.35	0.823
822.52	0.824
822.70	0.810
822.87	0.819
823.05	0.795
823.22	0.804
823.40	0.833
823.57	0.858
823.75	0.842
823.92	0.871
824.10	0.893
824.27	0.941
824.45	0.929
824.62	1.007
824.80	1.033
824.97	1.054
825.15	1.042
825.32	1.067
825.50	1.076
825.67	1.092
825.85	1.062
826.02	1.100
826.20	1.132
826.37	1.328
826.55	1.203
826.72	1.546
826.90	1.704
827.07	1.931
827.25	1.716
827.42	2.839
827.60	-0.000
827.77	-0.000
827.95	-0.000
828.12	-0.000
828.30	-0.000
828.47	-0.000
828.65	1.807
828.82	2.458
829.00	-0.000
829.17	-0.000
829.34	-0.000
829.52	-0.000
829.69	-0.000
829.87	-0.000
830.04	-0.000
830.22	-0.000
830.39	-0.000
830.57	-0.000
830.74	-0.000
830.92	-0.000
831.09	-0.000
831.26	-0.000
831.44	-0.000
831.61	-0.000
831.79	-0.000
831.96	-0.000
832.14	-0.000
832.31	-0.000
832.49	-0.000
832.66	-0.000
832.83	-0.000
833.01	-0.000
833.18	-0.000
833.36	-0.000
833.53	-0.000
833.70	-0.000
833.88	-0.000
834.05	-0.000
834.23	-0.000
834.40	-0.000
834.58	-0.000
834.75	-0.000
834.92	-0.000
835.10	-0.000
835.27	-0.000
835.45	-0.000
835.62	-0.000
835.79	-0.000
835.97	-0.000
836.14	-0.000
836.32	-0.000
836.49	-0.000
836.66	-0.000
836.84	-0.000
837.01	-0.000
837.18	-0.000
837.36	-0.000
837.53	-0.000
837.71	-0.000
837.88	-0.000
838.05	-0.000
838.23	-0.000
838.40	-0.000
838.58	-0.000
838.75	-0.000
838.92	-0.000
839.10	-0.000
839.27	-0.000
839.44	-0.000
839.62	-0.000
839.79	-0.000
839.96	-0.000
840.14	-0.000
840.31	-0.000
840.48	-0.000
840.66	-0.000
840.83	-0.000
841.01	-0.000
841.18	-0.000
841.35	-0.000
841.53	-0.000
841.70	-0.000
841.87	-0.000
842.05	-0.000
842.22	-0.000
842.39	-0.000
842.57	-0.000
842.74	-0.000
842.91	-0.000
843.09	-0.000
843.26	-0.000
843.43	-0.000
843.60	-0.000
843.78	-0.000
843.95	-0.000
844.12	-0.000
844.30	-0.000
844.47	-0.000
844.64	-0.000
844.82	-0.000
844.99	-0.000
845.16	-0.000
845.34	-0.000
845.51	-0.000
845.68	-0.000
845.85	-0.000
846.03	-0.000
846.20	-0.000
846.37	-0.000
846.55	-0.000
846.72	-0.000
846.89	-0.000
847.06	-0.000
847.24	-0.000
847.41	-0.000
847.58	-0.000
847.76	-0.000
847.93	-0.000
848.10	-0.000
848.27	-0.000
848.45	-0.000
848.62	-0.000
848.79	-0.000
848.97	-0.000
849.14	-0.000
849.31	-0.000
849.48	-0.000
849.66	-0.000
849.83	-0.000
850.00	-0.000
850.17	-0.000
850.35	-0.000
850.52	-0.000
850.69	-0.000
850.86	-0.000
851.04	-0.000
851.21	-0.000
851.38	-0.000
851.55	-0.000
851.72	-0.000
851.90	-0.000
852.07	-0.000
852.24	-0.000
852.41	-0.000
852.59	-0.000
852.76	-0.000
852.93	-0.000
853.10	-0.000
853.28	-0.000
853.45	-0.000
853.62	-0.000
853.79	-0.000
853.96	-0.000
854.14	-0.000
854.31	-0.000
854.48	-0.000
854.65	-0.000
854.82	-0.000
855.00	-0.000
855.17	-0.000
855.34	-0.000
855.51	-0.000
855.68	-0.000
855.86	-0.000
856.03	-0.000
856.20	-0.000
856.37	-0.000
856.54	-0.000
856.72	-0.000
856.89	-0.000
857.06	-0.000
857.23	-0.000
857.40	-0.000
857.57	-0.000
857.75	-0.000
857.92	-0.000
858.09	-0.000
858.26	-0.000
858.43	-0.000
858.60	-0.000
858.78	-0.000
858.95	-0.000
859.12	-0.000
859.29	-0.000
859.46	-0.000
859.63	-0.000
859.81	-0.000
859.98	-0.000
860.15	-0.000
860.32	-0.000
860.49	-0.000
860.66	-0.000
860.83	-0.000
861.01	-0.000
861.18	-0.000
861.35	-0.000
861.52	-0.000
861.69	-0.000
861.86	-0.000
862.03	-0.000
862.21	-0.000
862.38	-0.000
862.55	-0.000
862.72	-0.000
862.89	-0.000
863.06	-0.000
863.23	-0.000
863.40	-0.000
863.58	-0.000
863.75	-0.000
863.92	-0.000
864.09	-0.000
864.26	-0.000
864.43	-0.000
864.60	-0.000
864.77	-0.000
864.94	-0.000
865.11	-0.000
865.29	-0.000
865.46	-0.000
865.63	-0.000
865.80	-0.000
865.97	-0.000
866.14	-0.000
866.31	-0.000
866.48	-0.000
866.65	-0.000
866.82	-0.000
866.99	-0.000
867.16	-0.000
867.34	-0.000
867.51	-0.000
867.68	-0.000
867.85	-0.000
868.02	-0.000
868.19	-0.000
868.36	-0.000
868.53	-0.000
868.70	-0.000
868.87	-0.000
869.04	-0.000
869.21	-0.000
869.38	-0.000
869.55	-0.000
869.72	-0.000
869.89	-0.000
870.06	-0.000
870.24	-0.000
870.41	-0.000
870.58	-0.000
870.75	-0.000
870.92	-0.000
871.09	-0.000
871.26	-0.000
871.43	-0.000
871.60	-0.000
871.77	-0.000
871.94	-0.000
872.11	-0.000
872.28	-0.000
872.45	-0.000
872.62	-0.000
872.79	-0.000
872.96	-0.000
873.13	-0.000
873.30	-0.000
873.47	-0.000
873.64	-0.000
873.81	-0.000
873.98	-0.000
874.15	-0.000
874.32	-0.000
874.49	-0.000
874.66	-0.000
874.83	-0.000
875.00	-0.000
875.17	-0.000
875.34	-0.000
875.51	-0.000
875.68	-0.000
875.85	-0.000
876.02	-0.000
876.19	-0.000
876.36	-0.000
876.53	-0.000
876.70	-0.000
876.87	-0.000
877.04	-0.000
877.21	-0.000
877.38	-0.000
877.55	-0.000
877.72	-0.000
877.89	-0.000
878.06	-0.000
878.23	-0.000
878.39	-0.000
878.56	-0.000
878.73	-0.000
878.90	-0.000
879.07	-0.000
879.24	-0.000
879.41	-0.000
879.58	-0.000
879.75	-0.000
879.92	-0.000
880.09	-0.000
880.26	-0.000
880.43	-0.000
880.60	-0.000
880.77	-0.000
880.94	-0.000
881.11	-0.000
881.27	-0.000
881.44	-0.000
881.61	-0.000
881.78	-0.000
881.95	-0.000
882.12	-0.000
882.29	-0.000
882.46	-0.000
882.63	-0.000
882.80	-0.000
882.97	-0.000
883.14	-0.000
883.30	-0.000
883.47	-0.000
883.64	-0.000
883.81	-0.000
883.98	-0.000
884.15	-0.000
884.32	-0.000
884.49	-0.000
884.66	-0.000
884.82	-0.000
884.99	-0.000
885.16	-0.000
885.33	-0.000
885.50	-0.000
885.67	-0.000
885.84	-0.000
886.01	-0.000
886.17	-0.000
886.34	-0.000
886.51	-0.000
886.68	-0.000
886.85	-0.000
887.02	-0.000
887.19	-0.000
887.36	-0.000
887.52	-0.000
887.69	-0.000
887.86	-0.000
888.03	-0.000
888.20	-0.000
888.37	-0.000
888.54	-0.000
888.70	-0.000
888.87	-0.000
889.04	-0.000
889.21	-0.000
889.38	-0.000
889.55	-0.000
889.71	-0.000
889.88	-0.000
890.05	-0.000
890.22	-0.000
890.39	-0.000
>>>>>End Processed Spectral Data<<<<<
