SpectraSuite Data File
++++++++++++++++++++++++++++++++++++
Date: Fri Jun 19 14:02:06 CEST 2015
User: introlabs
Dark Spectrum Present: Yes
Reference Spectrum Present: Yes
Number of Sampled Component Spectra: 1
Spectrometers: USB4H08886
Integration Time (usec): 745692 (USB4H08886)
Spectra Averaged: 5 (USB4H08886)
Boxcar Smoothing: 5 (USB4H08886)
Correct for Electrical Dark: Yes (USB4H08886)
Strobe/Lamp Enabled: No (USB4H08886)
Correct for Detector Non-linearity: Yes (USB4H08886)
Correct for Stray Light: Yes (USB4H08886)
Number of Pixels in Processed Spectrum: 3648
>>>>>Begin Processed Spectral Data<<<<<
178.14	-0.000
178.36	-0.000
178.57	-0.000
178.79	-0.000
179.01	-0.000
179.22	-0.000
179.44	-0.000
179.65	-0.000
179.87	-0.000
180.08	-0.000
180.30	-0.000
180.52	-0.000
180.73	-0.000
180.95	-0.000
181.16	-0.000
181.38	-0.000
181.59	-0.000
181.81	-0.000
182.03	-0.000
182.24	-0.000
182.46	-0.000
182.67	-0.000
182.89	-0.000
183.10	-0.000
183.32	-0.000
183.54	-0.000
183.75	-0.000
183.97	-0.000
184.18	-0.000
184.40	-0.000
184.61	-0.000
184.83	-0.000
185.04	-0.000
185.26	-0.000
185.48	-0.000
185.69	-0.000
185.91	-0.000
186.12	-0.000
186.34	-0.000
186.55	-0.000
186.77	-0.000
186.98	-0.000
187.20	-0.000
187.42	-0.000
187.63	-0.000
187.85	-0.000
188.06	-0.000
188.28	-0.000
188.49	-0.000
188.71	-0.000
188.92	-0.000
189.14	-0.000
189.36	-0.000
189.57	-0.000
189.79	-0.000
190.00	-0.000
190.22	-0.000
190.43	-0.000
190.65	-0.000
190.86	-0.000
191.08	-0.000
191.29	-0.000
191.51	-0.000
191.72	-0.000
191.94	-0.000
192.16	-0.000
192.37	-0.000
192.59	-0.000
192.80	-0.000
193.02	-0.000
193.23	-0.000
193.45	-0.000
193.66	-0.000
193.88	-0.000
194.09	-0.000
194.31	-0.000
194.52	-0.000
194.74	-0.000
194.95	-0.000
195.17	-0.000
195.38	-0.000
195.60	-0.000
195.81	-0.000
196.03	-0.000
196.25	-0.000
196.46	-0.000
196.68	-0.000
196.89	-0.000
197.11	-0.000
197.32	-0.000
197.54	-0.000
197.75	-0.000
197.97	-0.000
198.18	-0.000
198.40	-0.000
198.61	-0.000
198.83	-0.000
199.04	-0.000
199.26	-0.000
199.47	-0.000
199.69	-0.000
199.90	-0.000
200.12	-0.000
200.33	-0.000
200.55	-0.000
200.76	-0.000
200.98	-0.000
201.19	-0.000
201.41	-0.000
201.62	-0.000
201.84	-0.000
202.05	-0.000
202.27	-0.000
202.48	-0.000
202.70	-0.000
202.91	-0.000
203.13	-0.000
203.34	-0.000
203.56	-0.000
203.77	-0.000
203.99	-0.000
204.20	-0.000
204.42	-0.000
204.63	-0.000
204.85	-0.000
205.06	-0.000
205.28	-0.000
205.49	-0.000
205.71	-0.000
205.92	-0.000
206.14	-0.000
206.35	-0.000
206.56	-0.000
206.78	-0.000
206.99	-0.000
207.21	-0.000
207.42	-0.000
207.64	-0.000
207.85	-0.000
208.07	-0.000
208.28	-0.000
208.50	-0.000
208.71	-0.000
208.93	-0.000
209.14	-0.000
209.36	-0.000
209.57	-0.000
209.79	-0.000
210.00	-0.000
210.22	-0.000
210.43	-0.000
210.64	-0.000
210.86	-0.000
211.07	-0.000
211.29	-0.000
211.50	-0.000
211.72	-0.000
211.93	-0.000
212.15	-0.000
212.36	-0.000
212.58	-0.000
212.79	-0.000
213.01	-0.000
213.22	-0.000
213.43	-0.000
213.65	-0.000
213.86	-0.000
214.08	-0.000
214.29	-0.000
214.51	-0.000
214.72	-0.000
214.94	-0.000
215.15	-0.000
215.36	-0.000
215.58	-0.000
215.79	-0.000
216.01	-0.000
216.22	-0.000
216.44	-0.000
216.65	-0.000
216.87	-0.000
217.08	-0.000
217.29	-0.000
217.51	-0.000
217.72	-0.000
217.94	-0.000
218.15	-0.000
218.37	-0.000
218.58	-0.000
218.80	-0.000
219.01	-0.000
219.22	-0.000
219.44	-0.000
219.65	-0.000
219.87	-0.000
220.08	-0.000
220.30	-0.000
220.51	-0.000
220.72	-0.000
220.94	-0.000
221.15	-0.000
221.37	-0.000
221.58	-0.000
221.79	-0.000
222.01	-0.000
222.22	-0.000
222.44	-0.000
222.65	-0.000
222.87	-0.000
223.08	-0.000
223.29	-0.000
223.51	-0.000
223.72	-0.000
223.94	-0.000
224.15	-0.000
224.36	-0.000
224.58	-0.000
224.79	-0.000
225.01	-0.000
225.22	-0.000
225.44	-0.000
225.65	-0.000
225.86	-0.000
226.08	-0.000
226.29	-0.000
226.51	-0.000
226.72	-0.000
226.93	-0.000
227.15	-0.000
227.36	-0.000
227.58	-0.000
227.79	-0.000
228.00	-0.000
228.22	-0.000
228.43	-0.000
228.65	-0.000
228.86	-0.000
229.07	-0.000
229.29	-0.000
229.50	-0.000
229.72	-0.000
229.93	-0.000
230.14	-0.000
230.36	-0.000
230.57	-0.000
230.78	-0.000
231.00	-0.000
231.21	-0.000
231.43	-0.000
231.64	-0.000
231.85	-0.000
232.07	-0.000
232.28	-0.000
232.50	-0.000
232.71	-0.000
232.92	-0.000
233.14	-0.000
233.35	-0.000
233.56	-0.000
233.78	-0.000
233.99	-0.000
234.21	-0.000
234.42	-0.000
234.63	-0.000
234.85	-0.000
235.06	-0.000
235.27	-0.000
235.49	-0.000
235.70	-0.000
235.91	-0.000
236.13	-0.000
236.34	-0.000
236.56	-0.000
236.77	-0.000
236.98	-0.000
237.20	-0.000
237.41	-0.000
237.62	-0.000
237.84	-0.000
238.05	-0.000
238.26	-0.000
238.48	-0.000
238.69	-0.000
238.91	-0.000
239.12	-0.000
239.33	-0.000
239.55	-0.000
239.76	-0.000
239.97	-0.000
240.19	-0.000
240.40	-0.000
240.61	-0.000
240.83	-0.000
241.04	-0.000
241.25	-0.000
241.47	-0.000
241.68	-0.000
241.89	-0.000
242.11	-0.000
242.32	-0.000
242.53	-0.000
242.75	-0.000
242.96	-0.000
243.17	-0.000
243.39	-0.000
243.60	-0.000
243.81	-0.000
244.03	-0.000
244.24	-0.000
244.45	-0.000
244.67	-0.000
244.88	-0.000
245.09	-0.000
245.31	-0.000
245.52	-0.000
245.73	-0.000
245.95	-0.000
246.16	-0.000
246.37	-0.000
246.59	-0.000
246.80	-0.000
247.01	-0.000
247.23	-0.000
247.44	-0.000
247.65	-0.000
247.87	-0.000
248.08	-0.000
248.29	-0.000
248.51	-0.000
248.72	-0.000
248.93	-0.000
249.15	-0.000
249.36	-0.000
249.57	-0.000
249.78	-0.000
250.00	-0.000
250.21	-0.000
250.42	-0.000
250.64	-0.000
250.85	-0.000
251.06	-0.000
251.28	-0.000
251.49	-0.000
251.70	-0.000
251.92	-0.000
252.13	-0.000
252.34	-0.000
252.55	-0.000
252.77	-0.000
252.98	-0.000
253.19	-0.000
253.41	-0.000
253.62	-0.000
253.83	-0.000
254.05	-0.000
254.26	-0.000
254.47	-0.000
254.68	-0.000
254.90	-0.000
255.11	-0.000
255.32	-0.000
255.54	-0.000
255.75	-0.000
255.96	-0.000
256.17	-0.000
256.39	-0.000
256.60	-0.000
256.81	-0.000
257.03	-0.000
257.24	-0.000
257.45	-0.000
257.66	-0.000
257.88	-0.000
258.09	-0.000
258.30	-0.000
258.51	-0.000
258.73	-0.000
258.94	-0.000
259.15	-0.000
259.37	-0.000
259.58	-0.000
259.79	-0.000
260.00	-0.000
260.22	-0.000
260.43	-0.000
260.64	-0.000
260.85	-0.000
261.07	-0.000
261.28	-0.000
261.49	-0.000
261.71	-0.000
261.92	-0.000
262.13	-0.000
262.34	-0.000
262.56	-0.000
262.77	-0.000
262.98	-0.000
263.19	-0.000
263.41	-0.000
263.62	-0.000
263.83	-0.000
264.04	-0.000
264.26	-0.000
264.47	-0.000
264.68	-0.000
264.89	-0.000
265.11	-0.000
265.32	-0.000
265.53	-0.000
265.74	-0.000
265.96	-0.000
266.17	-0.000
266.38	-0.000
266.59	-0.000
266.81	-0.000
267.02	-0.000
267.23	-0.000
267.44	-0.000
267.65	-0.000
267.87	-0.000
268.08	-0.000
268.29	-0.000
268.50	-0.000
268.72	-0.000
268.93	-0.000
269.14	-0.000
269.35	-0.000
269.57	-0.000
269.78	-0.000
269.99	-0.000
270.20	-0.000
270.41	-0.000
270.63	-0.000
270.84	-0.000
271.05	-0.000
271.26	-0.000
271.48	-0.000
271.69	-0.000
271.90	-0.000
272.11	-0.000
272.32	-0.000
272.54	-0.000
272.75	-0.000
272.96	-0.000
273.17	-0.000
273.39	-0.000
273.60	-0.000
273.81	-0.000
274.02	-0.000
274.23	-0.000
274.45	-0.000
274.66	-0.000
274.87	-0.000
275.08	-0.000
275.29	-0.000
275.51	-0.000
275.72	-0.000
275.93	-0.000
276.14	-0.000
276.35	-0.000
276.57	-0.000
276.78	-0.000
276.99	-0.000
277.20	-0.000
277.41	-0.000
277.63	-0.000
277.84	-0.000
278.05	-0.000
278.26	-0.000
278.47	-0.000
278.69	-0.000
278.90	-0.000
279.11	-0.000
279.32	-0.000
279.53	-0.000
279.74	-0.000
279.96	-0.000
280.17	-0.000
280.38	-0.000
280.59	-0.000
280.80	-0.000
281.02	-0.000
281.23	-0.000
281.44	-0.000
281.65	-0.000
281.86	-0.000
282.07	-0.000
282.29	-0.000
282.50	-0.000
282.71	-0.000
282.92	-0.000
283.13	-0.000
283.35	-0.000
283.56	-0.000
283.77	-0.000
283.98	-0.000
284.19	-0.000
284.40	-0.000
284.62	-0.000
284.83	-0.000
285.04	-0.000
285.25	-0.000
285.46	-0.000
285.67	-0.000
285.88	-0.000
286.10	-0.000
286.31	-0.000
286.52	-0.000
286.73	-0.000
286.94	-0.000
287.15	-0.000
287.37	-0.000
287.58	-0.000
287.79	-0.000
288.00	-0.000
288.21	-0.000
288.42	-0.000
288.63	-0.000
288.85	-0.000
289.06	-0.000
289.27	-0.000
289.48	-0.000
289.69	-0.000
289.90	-0.000
290.11	-0.000
290.33	-0.000
290.54	-0.000
290.75	-0.000
290.96	-0.000
291.17	-0.000
291.38	-0.000
291.59	-0.000
291.81	-0.000
292.02	-0.000
292.23	-0.000
292.44	-0.000
292.65	-0.000
292.86	-0.000
293.07	-0.000
293.28	-0.000
293.50	-0.000
293.71	-0.000
293.92	-0.000
294.13	-0.000
294.34	-0.000
294.55	-0.000
294.76	-0.000
294.97	-0.000
295.19	-0.000
295.40	-0.000
295.61	-0.000
295.82	-0.000
296.03	-0.000
296.24	-0.000
296.45	-0.000
296.66	2.115
296.87	2.155
297.09	2.317
297.30	-0.000
297.51	1.950
297.72	1.884
297.93	2.032
298.14	1.971
298.35	1.907
298.56	1.850
298.77	2.083
298.99	2.034
299.20	1.944
299.41	1.922
299.62	1.852
299.83	1.832
300.04	1.739
300.25	1.728
300.46	1.778
300.67	1.733
300.88	1.664
301.10	1.659
301.31	1.756
301.52	1.683
301.73	1.605
301.94	1.608
302.15	1.630
302.36	1.566
302.57	1.491
302.78	1.496
302.99	1.543
303.20	1.564
303.41	1.455
303.63	1.430
303.84	1.436
304.05	1.427
304.26	1.360
304.47	1.366
304.68	1.373
304.89	1.361
305.10	1.320
305.31	1.305
305.52	1.347
305.73	1.341
305.94	1.301
306.15	1.290
306.37	1.317
306.58	1.325
306.79	1.287
307.00	1.306
307.21	1.347
307.42	1.332
307.63	1.294
307.84	1.261
308.05	1.299
308.26	1.295
308.47	1.274
308.68	1.268
308.89	1.264
309.10	1.262
309.31	1.220
309.52	1.213
309.73	1.231
309.95	1.226
310.16	1.197
310.37	1.186
310.58	1.206
310.79	1.203
311.00	1.196
311.21	1.201
311.42	1.204
311.63	1.199
311.84	1.178
312.05	1.175
312.26	1.195
312.47	1.207
312.68	1.180
312.89	1.161
313.10	1.169
313.31	1.143
313.52	1.141
313.73	1.140
313.94	1.142
314.15	1.125
314.36	1.104
314.57	1.098
314.78	1.084
314.99	1.079
315.21	1.067
315.42	1.071
315.63	1.084
315.84	1.062
316.05	1.050
316.26	1.059
316.47	1.077
316.68	1.075
316.89	1.054
317.10	1.075
317.31	1.082
317.52	1.082
317.73	1.062
317.94	1.060
318.15	1.104
318.36	1.103
318.57	1.084
318.78	1.074
318.99	1.108
319.20	1.107
319.41	1.072
319.62	1.074
319.83	1.088
320.04	1.080
320.25	1.068
320.46	1.035
320.67	1.037
320.88	1.033
321.09	1.019
321.30	1.004
321.51	1.018
321.72	1.017
321.93	1.000
322.14	0.993
322.35	1.021
322.56	1.021
322.77	1.008
322.98	1.020
323.19	1.028
323.40	1.033
323.61	1.013
323.82	1.008
324.03	1.012
324.24	1.009
324.45	0.996
324.66	0.976
324.87	0.972
325.08	0.972
325.29	0.951
325.50	0.944
325.71	0.950
325.92	0.957
326.13	0.943
326.34	0.944
326.55	0.953
326.76	0.952
326.97	0.941
327.18	0.937
327.39	0.961
327.60	0.962
327.80	0.962
328.01	0.960
328.22	0.959
328.43	0.964
328.64	0.952
328.85	0.955
329.06	0.956
329.27	0.957
329.48	0.951
329.69	0.932
329.90	0.942
330.11	0.935
330.32	0.928
330.53	0.921
330.74	0.920
330.95	0.918
331.16	0.904
331.37	0.912
331.58	0.913
331.79	0.912
332.00	0.904
332.21	0.897
332.42	0.901
332.63	0.893
332.83	0.889
333.04	0.891
333.25	0.904
333.46	0.903
333.67	0.889
333.88	0.892
334.09	0.903
334.30	0.901
334.51	0.892
334.72	0.888
334.93	0.891
335.14	0.890
335.35	0.883
335.56	0.877
335.77	0.886
335.98	0.885
336.18	0.877
336.39	0.868
336.60	0.873
336.81	0.871
337.02	0.869
337.23	0.874
337.44	0.877
337.65	0.879
337.86	0.868
338.07	0.864
338.28	0.869
338.49	0.867
338.70	0.860
338.91	0.866
339.11	0.875
339.32	0.871
339.53	0.859
339.74	0.856
339.95	0.854
340.16	0.853
340.37	0.845
340.58	0.843
340.79	0.847
341.00	0.847
341.21	0.837
341.41	0.837
341.62	0.838
341.83	0.839
342.04	0.834
342.25	0.844
342.46	0.848
342.67	0.847
342.88	0.841
343.09	0.839
343.30	0.846
343.50	0.848
343.71	0.837
343.92	0.836
344.13	0.840
344.34	0.839
344.55	0.824
344.76	0.823
344.97	0.826
345.18	0.824
345.38	0.822
345.59	0.816
345.80	0.816
346.01	0.814
346.22	0.810
346.43	0.805
346.64	0.813
346.85	0.812
347.06	0.805
347.26	0.805
347.47	0.809
347.68	0.805
347.89	0.802
348.10	0.797
348.31	0.804
348.52	0.802
348.73	0.799
348.93	0.796
349.14	0.799
349.35	0.799
349.56	0.792
349.77	0.788
349.98	0.792
350.19	0.790
350.39	0.785
350.60	0.781
350.81	0.797
351.02	0.796
351.23	0.793
351.44	0.794
351.65	0.797
351.86	0.795
352.06	0.794
352.27	0.795
352.48	0.797
352.69	0.796
352.90	0.791
353.11	0.778
353.31	0.786
353.52	0.782
353.73	0.774
353.94	0.775
354.15	0.781
354.36	0.780
354.57	0.771
354.77	0.773
354.98	0.772
355.19	0.772
355.40	0.771
355.61	0.775
355.82	0.780
356.02	0.779
356.23	0.773
356.44	0.774
356.65	0.778
356.86	0.779
357.07	0.773
357.27	0.776
357.48	0.780
357.69	0.775
357.90	0.760
358.11	0.756
358.32	0.760
358.52	0.763
358.73	0.752
358.94	0.755
359.15	0.760
359.36	0.761
359.56	0.755
359.77	0.752
359.98	0.760
360.19	0.760
360.40	0.757
360.61	0.758
360.81	0.757
361.02	0.757
361.23	0.749
361.44	0.746
361.65	0.747
361.85	0.747
362.06	0.745
362.27	0.746
362.48	0.746
362.69	0.748
362.89	0.741
363.10	0.743
363.31	0.748
363.52	0.751
363.73	0.746
363.93	0.746
364.14	0.749
364.35	0.750
364.56	0.741
364.77	0.742
364.97	0.745
365.18	0.745
365.39	0.739
365.60	0.735
365.81	0.736
366.01	0.737
366.22	0.733
366.43	0.732
366.64	0.735
366.84	0.741
367.05	0.737
367.26	0.736
367.47	0.738
367.68	0.739
367.88	0.736
368.09	0.734
368.30	0.737
368.51	0.736
368.71	0.735
368.92	0.738
369.13	0.736
369.34	0.736
369.55	0.735
369.75	0.735
369.96	0.742
370.17	0.743
370.38	0.739
370.58	0.738
370.79	0.743
371.00	0.743
371.21	0.734
371.41	0.740
371.62	0.744
371.83	0.740
372.04	0.738
372.24	0.732
372.45	0.732
372.66	0.732
372.87	0.729
373.07	0.726
373.28	0.726
373.49	0.729
373.70	0.719
373.90	0.718
374.11	0.727
374.32	0.726
374.53	0.725
374.73	0.726
374.94	0.728
375.15	0.728
375.36	0.725
375.56	0.735
375.77	0.735
375.98	0.735
376.19	0.733
376.39	0.726
376.60	0.729
376.81	0.729
377.02	0.727
377.22	0.726
377.43	0.727
377.64	0.728
377.84	0.718
378.05	0.723
378.26	0.730
378.47	0.729
378.67	0.725
378.88	0.723
379.09	0.724
379.30	0.724
379.50	0.721
379.71	0.723
379.92	0.725
380.12	0.724
380.33	0.715
380.54	0.712
380.75	0.718
380.95	0.718
381.16	0.716
381.37	0.716
381.57	0.718
381.78	0.718
381.99	0.718
382.20	0.717
382.40	0.720
382.61	0.720
382.82	0.717
383.02	0.710
383.23	0.714
383.44	0.715
383.64	0.713
383.85	0.716
384.06	0.719
384.27	0.717
384.47	0.715
384.68	0.717
384.89	0.722
385.09	0.722
385.30	0.721
385.51	0.720
385.71	0.723
385.92	0.724
386.13	0.722
386.33	0.724
386.54	0.725
386.75	0.724
386.95	0.719
387.16	0.714
387.37	0.717
387.58	0.718
387.78	0.716
387.99	0.713
388.20	0.715
388.40	0.711
388.61	0.707
388.82	0.711
389.02	0.713
389.23	0.714
389.44	0.712
389.64	0.711
389.85	0.722
390.06	0.722
390.26	0.722
390.47	0.721
390.68	0.724
390.88	0.722
391.09	0.717
391.30	0.717
391.50	0.717
391.71	0.717
391.92	0.715
392.12	0.707
392.33	0.707
392.53	0.707
392.74	0.707
392.95	0.706
393.15	0.709
393.36	0.711
393.57	0.708
393.77	0.711
393.98	0.712
394.19	0.712
394.39	0.711
394.60	0.714
394.81	0.715
395.01	0.713
395.22	0.711
395.43	0.712
395.63	0.717
395.84	0.718
396.04	0.713
396.25	0.716
396.46	0.718
396.66	0.716
396.87	0.713
397.08	0.711
397.28	0.713
397.49	0.714
397.69	0.710
397.90	0.705
398.11	0.707
398.31	0.707
398.52	0.704
398.73	0.705
398.93	0.703
399.14	0.703
399.34	0.701
399.55	0.702
399.76	0.702
399.96	0.704
400.17	0.702
400.37	0.700
400.58	0.707
400.79	0.708
400.99	0.706
401.20	0.711
401.41	0.714
401.61	0.715
401.82	0.720
402.02	0.719
402.23	0.720
402.44	0.720
402.64	0.720
402.85	0.714
403.05	0.713
403.26	0.712
403.47	0.706
403.67	0.705
403.88	0.707
404.08	0.701
404.29	0.699
404.50	0.699
404.70	0.699
404.91	0.698
405.11	0.696
405.32	0.696
405.52	0.697
405.73	0.696
405.94	0.694
406.14	0.696
406.35	0.699
406.55	0.698
406.76	0.696
406.97	0.697
407.17	0.699
407.38	0.698
407.58	0.697
407.79	0.700
407.99	0.703
408.20	0.703
408.41	0.699
408.61	0.697
408.82	0.699
409.02	0.699
409.23	0.696
409.43	0.696
409.64	0.697
409.84	0.697
410.05	0.693
410.26	0.691
410.46	0.690
410.67	0.690
410.87	0.691
411.08	0.693
411.28	0.694
411.49	0.695
411.69	0.693
411.90	0.694
412.11	0.696
412.31	0.697
412.52	0.696
412.72	0.697
412.93	0.698
413.13	0.697
413.34	0.693
413.54	0.695
413.75	0.697
413.95	0.696
414.16	0.693
414.37	0.695
414.57	0.695
414.78	0.697
414.98	0.695
415.19	0.696
415.39	0.693
415.60	0.695
415.80	0.694
416.01	0.692
416.21	0.694
416.42	0.694
416.62	0.689
416.83	0.690
417.03	0.690
417.24	0.690
417.44	0.687
417.65	0.687
417.86	0.687
418.06	0.686
418.27	0.684
418.47	0.686
418.68	0.686
418.88	0.687
419.09	0.685
419.29	0.686
419.50	0.686
419.70	0.686
419.91	0.685
420.11	0.683
420.32	0.686
420.52	0.685
420.73	0.684
420.93	0.685
421.14	0.686
421.34	0.685
421.55	0.682
421.75	0.681
421.96	0.682
422.16	0.682
422.37	0.681
422.57	0.678
422.78	0.680
422.98	0.676
423.19	0.674
423.39	0.672
423.60	0.676
423.80	0.677
424.01	0.676
424.21	0.678
424.42	0.679
424.62	0.679
424.83	0.678
425.03	0.678
425.23	0.681
425.44	0.681
425.64	0.682
425.85	0.681
426.05	0.682
426.26	0.682
426.46	0.679
426.67	0.678
426.87	0.684
427.08	0.684
427.28	0.682
427.49	0.682
427.69	0.683
427.90	0.683
428.10	0.680
428.31	0.680
428.51	0.681
428.71	0.680
428.92	0.681
429.12	0.678
429.33	0.679
429.53	0.682
429.74	0.686
429.94	0.686
430.15	0.685
430.35	0.684
430.56	0.682
430.76	0.680
430.96	0.681
431.17	0.678
431.37	0.676
431.58	0.674
431.78	0.671
431.99	0.664
432.19	0.666
432.40	0.669
432.60	0.670
432.80	0.673
433.01	0.671
433.21	0.672
433.42	0.674
433.62	0.675
433.83	0.675
434.03	0.677
434.23	0.680
434.44	0.680
434.64	0.677
434.85	0.682
435.05	0.682
435.26	0.683
435.46	0.681
435.66	0.681
435.87	0.680
436.07	0.680
436.28	0.675
436.48	0.672
436.69	0.672
436.89	0.672
437.09	0.666
437.30	0.665
437.50	0.665
437.71	0.677
437.91	0.676
438.11	0.678
438.32	0.682
438.52	0.683
438.73	0.682
438.93	0.680
439.13	0.680
439.34	0.683
439.54	0.680
439.75	0.680
439.95	0.670
440.15	0.675
440.36	0.674
440.56	0.671
440.77	0.672
440.97	0.672
441.17	0.671
441.38	0.673
441.58	0.671
441.79	0.670
441.99	0.669
442.19	0.667
442.40	0.664
442.60	0.663
442.81	0.661
443.01	0.662
443.21	0.663
443.42	0.663
443.62	0.661
443.82	0.661
444.03	0.663
444.23	0.663
444.44	0.663
444.64	0.662
444.84	0.664
445.05	0.663
445.25	0.661
445.45	0.660
445.66	0.662
445.86	0.662
446.06	0.663
446.27	0.662
446.47	0.665
446.68	0.664
446.88	0.663
447.08	0.662
447.29	0.664
447.49	0.664
447.69	0.664
447.90	0.663
448.10	0.666
448.30	0.664
448.51	0.665
448.71	0.662
448.91	0.664
449.12	0.664
449.32	0.665
449.52	0.664
449.73	0.667
449.93	0.667
450.14	0.667
450.34	0.666
450.54	0.668
450.75	0.665
450.95	0.665
451.15	0.664
451.36	0.667
451.56	0.663
451.76	0.662
451.97	0.659
452.17	0.660
452.37	0.658
452.58	0.655
452.78	0.655
452.98	0.657
453.19	0.657
453.39	0.658
453.59	0.656
453.79	0.658
454.00	0.659
454.20	0.657
454.40	0.657
454.61	0.660
454.81	0.660
455.01	0.658
455.22	0.659
455.42	0.661
455.62	0.659
455.83	0.659
456.03	0.662
456.23	0.663
456.44	0.664
456.64	0.662
456.84	0.662
457.04	0.664
457.25	0.663
457.45	0.660
457.65	0.658
457.86	0.659
458.06	0.658
458.26	0.653
458.47	0.653
458.67	0.655
458.87	0.655
459.07	0.652
459.28	0.654
459.48	0.657
459.68	0.657
459.89	0.656
460.09	0.655
460.29	0.656
460.49	0.657
460.70	0.656
460.90	0.655
461.10	0.656
461.31	0.656
461.51	0.653
461.71	0.655
461.91	0.656
462.12	0.656
462.32	0.655
462.52	0.656
462.72	0.659
462.93	0.659
463.13	0.657
463.33	0.658
463.53	0.660
463.74	0.659
463.94	0.655
464.14	0.655
464.35	0.657
464.55	0.657
464.75	0.655
464.95	0.653
465.16	0.655
465.36	0.654
465.56	0.653
465.76	0.652
465.97	0.653
466.17	0.654
466.37	0.652
466.57	0.653
466.78	0.654
466.98	0.653
467.18	0.651
467.38	0.650
467.59	0.651
467.79	0.652
467.99	0.651
468.19	0.653
468.39	0.655
468.60	0.655
468.80	0.653
469.00	0.654
469.20	0.655
469.41	0.655
469.61	0.654
469.81	0.655
470.01	0.655
470.22	0.655
470.42	0.653
470.62	0.651
470.82	0.653
471.02	0.652
471.23	0.650
471.43	0.651
471.63	0.653
471.83	0.653
472.04	0.651
472.24	0.650
472.44	0.655
472.64	0.655
472.84	0.653
473.05	0.653
473.25	0.656
473.45	0.655
473.65	0.654
473.85	0.654
474.06	0.655
474.26	0.655
474.46	0.656
474.66	0.653
474.86	0.654
475.07	0.654
475.27	0.652
475.47	0.649
475.67	0.649
475.87	0.651
476.08	0.648
476.28	0.650
476.48	0.651
476.68	0.649
476.88	0.647
477.09	0.649
477.29	0.650
477.49	0.650
477.69	0.649
477.89	0.649
478.09	0.648
478.30	0.651
478.50	0.647
478.70	0.646
478.90	0.647
479.10	0.649
479.31	0.650
479.51	0.648
479.71	0.649
479.91	0.649
480.11	0.648
480.31	0.648
480.52	0.647
480.72	0.648
480.92	0.647
481.12	0.645
481.32	0.643
481.52	0.641
481.72	0.641
481.93	0.645
482.13	0.645
482.33	0.645
482.53	0.642
482.73	0.643
482.93	0.644
483.14	0.643
483.34	0.643
483.54	0.644
483.74	0.643
483.94	0.642
484.14	0.638
484.34	0.638
484.55	0.639
484.75	0.639
484.95	0.637
485.15	0.637
485.35	0.637
485.55	0.637
485.75	0.634
485.96	0.635
486.16	0.636
486.36	0.636
486.56	0.634
486.76	0.635
486.96	0.635
487.16	0.634
487.36	0.632
487.57	0.632
487.77	0.633
487.97	0.633
488.17	0.631
488.37	0.630
488.57	0.632
488.77	0.632
488.97	0.630
489.18	0.630
489.38	0.632
489.58	0.634
489.78	0.633
489.98	0.633
490.18	0.633
490.38	0.634
490.58	0.633
490.78	0.633
490.98	0.635
491.19	0.635
491.39	0.634
491.59	0.633
491.79	0.636
491.99	0.636
492.19	0.635
492.39	0.638
492.59	0.638
492.79	0.640
492.99	0.640
493.20	0.640
493.40	0.640
493.60	0.642
493.80	0.640
494.00	0.638
494.20	0.638
494.40	0.638
494.60	0.636
494.80	0.640
495.00	0.639
495.20	0.637
495.40	0.636
495.61	0.638
495.81	0.638
496.01	0.641
496.21	0.642
496.41	0.641
496.61	0.641
496.81	0.641
497.01	0.636
497.21	0.635
497.41	0.636
497.61	0.636
497.81	0.633
498.01	0.634
498.21	0.632
498.41	0.629
498.61	0.630
498.82	0.631
499.02	0.634
499.22	0.634
499.42	0.633
499.62	0.634
499.82	0.636
500.02	0.637
500.22	0.635
500.42	0.636
500.62	0.637
500.82	0.637
501.02	0.636
501.22	0.635
501.42	0.636
501.62	0.638
501.82	0.637
502.02	0.637
502.22	0.636
502.42	0.638
502.62	0.635
502.82	0.636
503.02	0.636
503.22	0.636
503.42	0.634
503.63	0.634
503.83	0.632
504.03	0.631
504.23	0.630
504.43	0.631
504.63	0.633
504.83	0.632
505.03	0.631
505.23	0.633
505.43	0.634
505.63	0.636
505.83	0.635
506.03	0.636
506.23	0.638
506.43	0.639
506.63	0.638
506.83	0.636
507.03	0.637
507.23	0.637
507.43	0.635
507.63	0.636
507.83	0.636
508.03	0.636
508.23	0.635
508.43	0.634
508.63	0.636
508.83	0.636
509.03	0.638
509.23	0.637
509.43	0.638
509.63	0.638
509.83	0.636
510.03	0.639
510.23	0.640
510.43	0.641
510.63	0.641
510.83	0.641
511.03	0.642
511.23	0.639
511.43	0.638
511.63	0.640
511.83	0.643
512.03	0.643
512.22	0.640
512.42	0.640
512.62	0.641
512.82	0.641
513.02	0.639
513.22	0.639
513.42	0.641
513.62	0.644
513.82	0.642
514.02	0.641
514.22	0.642
514.42	0.643
514.62	0.643
514.82	0.643
515.02	0.645
515.22	0.649
515.42	0.647
515.62	0.650
515.82	0.649
516.02	0.651
516.22	0.650
516.42	0.651
516.62	0.653
516.82	0.654
517.01	0.652
517.21	0.652
517.41	0.655
517.61	0.656
517.81	0.651
518.01	0.650
518.21	0.650
518.41	0.650
518.61	0.649
518.81	0.649
519.01	0.650
519.21	0.650
519.41	0.650
519.61	0.644
519.81	0.647
520.00	0.647
520.20	0.648
520.40	0.651
520.60	0.651
520.80	0.650
521.00	0.650
521.20	0.651
521.40	0.656
521.60	0.656
521.80	0.655
522.00	0.655
522.20	0.658
522.39	0.657
522.59	0.654
522.79	0.656
522.99	0.659
523.19	0.657
523.39	0.655
523.59	0.653
523.79	0.656
523.99	0.658
524.19	0.657
524.38	0.656
524.58	0.657
524.78	0.657
524.98	0.656
525.18	0.658
525.38	0.658
525.58	0.658
525.78	0.656
525.98	0.655
526.18	0.655
526.37	0.655
526.57	0.657
526.77	0.657
526.97	0.658
527.17	0.658
527.37	0.653
527.57	0.656
527.77	0.659
527.96	0.659
528.16	0.657
528.36	0.658
528.56	0.660
528.76	0.658
528.96	0.657
529.16	0.658
529.36	0.662
529.55	0.662
529.75	0.658
529.95	0.658
530.15	0.659
530.35	0.662
530.55	0.659
530.75	0.659
530.94	0.661
531.14	0.662
531.34	0.660
531.54	0.658
531.74	0.661
531.94	0.665
532.13	0.663
532.33	0.664
532.53	0.663
532.73	0.663
532.93	0.661
533.13	0.662
533.33	0.662
533.52	0.661
533.72	0.664
533.92	0.663
534.12	0.661
534.32	0.661
534.52	0.659
534.71	0.662
534.91	0.664
535.11	0.665
535.31	0.663
535.51	0.665
535.71	0.667
535.90	0.664
536.10	0.665
536.30	0.667
536.50	0.668
536.70	0.668
536.89	0.665
537.09	0.665
537.29	0.667
537.49	0.668
537.69	0.666
537.89	0.666
538.08	0.667
538.28	0.665
538.48	0.665
538.68	0.667
538.88	0.669
539.07	0.669
539.27	0.667
539.47	0.666
539.67	0.666
539.87	0.668
540.06	0.665
540.26	0.666
540.46	0.668
540.66	0.665
540.86	0.663
541.05	0.663
541.25	0.665
541.45	0.665
541.65	0.663
541.84	0.666
542.04	0.666
542.24	0.667
542.44	0.666
542.64	0.667
542.83	0.670
543.03	0.670
543.23	0.667
543.43	0.668
543.62	0.670
543.82	0.670
544.02	0.668
544.22	0.669
544.42	0.672
544.61	0.673
544.81	0.670
545.01	0.668
545.21	0.670
545.40	0.671
545.60	0.669
545.80	0.671
546.00	0.672
546.19	0.671
546.39	0.669
546.59	0.667
546.79	0.669
546.98	0.669
547.18	0.668
547.38	0.670
547.58	0.673
547.77	0.673
547.97	0.669
548.17	0.671
548.37	0.672
548.56	0.672
548.76	0.671
548.96	0.672
549.16	0.675
549.35	0.675
549.55	0.673
549.75	0.673
549.95	0.678
550.14	0.678
550.34	0.677
550.54	0.681
550.73	0.685
550.93	0.686
551.13	0.682
551.33	0.681
551.52	0.682
551.72	0.682
551.92	0.680
552.12	0.679
552.31	0.680
552.51	0.679
552.71	0.675
552.90	0.674
553.10	0.675
553.30	0.675
553.50	0.674
553.69	0.675
553.89	0.675
554.09	0.675
554.28	0.673
554.48	0.673
554.68	0.675
554.87	0.676
555.07	0.673
555.27	0.673
555.47	0.676
555.66	0.676
555.86	0.675
556.06	0.678
556.25	0.679
556.45	0.687
556.65	0.686
556.84	0.689
557.04	0.692
557.24	0.693
557.43	0.692
557.63	0.695
557.83	0.697
558.02	0.697
558.22	0.701
558.42	0.701
558.61	0.694
558.81	0.694
559.01	0.691
559.21	0.690
559.40	0.691
559.60	0.692
559.80	0.688
559.99	0.690
560.19	0.692
560.39	0.685
560.58	0.683
560.78	0.683
560.97	0.686
561.17	0.685
561.37	0.683
561.56	0.684
561.76	0.686
561.96	0.685
562.15	0.682
562.35	0.684
562.55	0.685
562.74	0.685
562.94	0.684
563.14	0.682
563.33	0.683
563.53	0.683
563.73	0.681
563.92	0.682
564.12	0.685
564.31	0.687
564.51	0.685
564.71	0.687
564.90	0.690
565.10	0.692
565.30	0.694
565.49	0.695
565.69	0.697
565.89	0.698
566.08	0.695
566.28	0.696
566.47	0.697
566.67	0.696
566.87	0.693
567.06	0.695
567.26	0.700
567.46	0.695
567.65	0.694
567.85	0.696
568.04	0.699
568.24	0.698
568.44	0.695
568.63	0.693
568.83	0.694
569.02	0.693
569.22	0.688
569.42	0.685
569.61	0.687
569.81	0.686
570.00	0.684
570.20	0.685
570.40	0.686
570.59	0.686
570.79	0.684
570.98	0.682
571.18	0.684
571.38	0.684
571.57	0.681
571.77	0.679
571.96	0.682
572.16	0.680
572.35	0.674
572.55	0.675
572.75	0.674
572.94	0.673
573.14	0.671
573.33	0.671
573.53	0.672
573.73	0.671
573.92	0.669
574.12	0.666
574.31	0.669
574.51	0.670
574.70	0.667
574.90	0.668
575.09	0.671
575.29	0.671
575.49	0.668
575.68	0.669
575.88	0.670
576.07	0.672
576.27	0.670
576.46	0.669
576.66	0.668
576.86	0.668
577.05	0.666
577.25	0.664
577.44	0.666
577.64	0.666
577.83	0.664
578.03	0.665
578.22	0.664
578.42	0.663
578.61	0.661
578.81	0.662
579.00	0.663
579.20	0.663
579.40	0.661
579.59	0.660
579.79	0.661
579.98	0.660
580.18	0.660
580.37	0.660
580.57	0.663
580.76	0.667
580.96	0.665
581.15	0.666
581.35	0.668
581.54	0.668
581.74	0.667
581.93	0.669
582.13	0.670
582.32	0.666
582.52	0.665
582.71	0.664
582.91	0.660
583.10	0.660
583.30	0.658
583.49	0.657
583.69	0.661
583.88	0.662
584.08	0.661
584.27	0.663
584.47	0.667
584.66	0.667
584.86	0.666
585.05	0.669
585.25	0.671
585.44	0.671
585.64	0.669
585.83	0.666
586.03	0.667
586.22	0.665
586.42	0.661
586.61	0.663
586.81	0.666
587.00	0.665
587.20	0.663
587.39	0.664
587.59	0.666
587.78	0.667
587.98	0.667
588.17	0.668
588.37	0.671
588.56	0.673
588.76	0.669
588.95	0.670
589.15	0.674
589.34	0.676
589.54	0.673
589.73	0.675
589.92	0.678
590.12	0.678
590.31	0.676
590.51	0.680
590.70	0.682
590.90	0.683
591.09	0.681
591.29	0.679
591.48	0.680
591.68	0.681
591.87	0.678
592.06	0.678
592.26	0.680
592.45	0.679
592.65	0.673
592.84	0.672
593.04	0.674
593.23	0.676
593.43	0.673
593.62	0.672
593.81	0.673
594.01	0.672
594.20	0.670
594.40	0.669
594.59	0.671
594.79	0.673
594.98	0.672
595.17	0.671
595.37	0.672
595.56	0.674
595.76	0.673
595.95	0.675
596.14	0.678
596.34	0.680
596.53	0.678
596.73	0.679
596.92	0.680
597.12	0.683
597.31	0.682
597.50	0.681
597.70	0.684
597.89	0.683
598.09	0.679
598.28	0.681
598.47	0.683
598.67	0.682
598.86	0.678
599.06	0.680
599.25	0.681
599.44	0.679
599.64	0.676
599.83	0.674
600.03	0.677
600.22	0.678
600.41	0.677
600.61	0.675
600.80	0.677
601.00	0.678
601.19	0.674
601.38	0.672
601.58	0.675
601.77	0.676
601.96	0.678
602.16	0.678
602.35	0.687
602.55	0.685
602.74	0.686
602.93	0.687
603.13	0.692
603.32	0.694
603.51	0.694
603.71	0.697
603.90	0.699
604.09	0.700
604.29	0.697
604.48	0.691
604.68	0.693
604.87	0.692
605.06	0.688
605.26	0.684
605.45	0.685
605.64	0.684
605.84	0.679
606.03	0.677
606.22	0.676
606.42	0.675
606.61	0.671
606.80	0.671
607.00	0.673
607.19	0.673
607.38	0.671
607.58	0.673
607.77	0.675
607.96	0.675
608.16	0.674
608.35	0.679
608.54	0.683
608.74	0.686
608.93	0.691
609.12	0.694
609.32	0.697
609.51	0.701
609.70	0.700
609.90	0.702
610.09	0.707
610.28	0.712
610.48	0.705
610.67	0.706
610.86	0.707
611.06	0.702
611.25	0.700
611.44	0.700
611.64	0.700
611.83	0.702
612.02	0.698
612.21	0.697
612.41	0.695
612.60	0.695
612.79	0.690
612.99	0.690
613.18	0.693
613.37	0.690
613.57	0.687
613.76	0.689
613.95	0.687
614.14	0.686
614.34	0.683
614.53	0.684
614.72	0.688
614.92	0.688
615.11	0.685
615.30	0.682
615.49	0.683
615.69	0.686
615.88	0.681
616.07	0.682
616.26	0.686
616.46	0.687
616.65	0.684
616.84	0.682
617.04	0.683
617.23	0.687
617.42	0.688
617.61	0.692
617.81	0.693
618.00	0.696
618.19	0.694
618.38	0.697
618.58	0.701
618.77	0.702
618.96	0.701
619.15	0.703
619.35	0.705
619.54	0.706
619.73	0.700
619.92	0.703
620.12	0.707
620.31	0.708
620.50	0.702
620.69	0.702
620.89	0.705
621.08	0.705
621.27	0.705
621.46	0.704
621.66	0.708
621.85	0.708
622.04	0.704
622.23	0.705
622.43	0.705
622.62	0.705
622.81	0.705
623.00	0.704
623.19	0.708
623.39	0.707
623.58	0.704
623.77	0.704
623.96	0.706
624.16	0.707
624.35	0.702
624.54	0.705
624.73	0.710
624.92	0.707
625.12	0.704
625.31	0.705
625.50	0.709
625.69	0.710
625.88	0.705
626.08	0.704
626.27	0.705
626.46	0.705
626.65	0.702
626.84	0.702
627.04	0.707
627.23	0.707
627.42	0.703
627.61	0.705
627.80	0.708
628.00	0.708
628.19	0.706
628.38	0.710
628.57	0.713
628.76	0.711
628.96	0.708
629.15	0.709
629.34	0.712
629.53	0.712
629.72	0.707
629.91	0.708
630.11	0.713
630.30	0.714
630.49	0.716
630.68	0.717
630.87	0.722
631.06	0.723
631.26	0.718
631.45	0.719
631.64	0.728
631.83	0.730
632.02	0.727
632.21	0.725
632.41	0.731
632.60	0.725
632.79	0.723
632.98	0.723
633.17	0.725
633.36	0.728
633.55	0.723
633.75	0.719
633.94	0.721
634.13	0.721
634.32	0.718
634.51	0.713
634.70	0.716
634.89	0.715
635.09	0.711
635.28	0.712
635.47	0.712
635.66	0.716
635.85	0.712
636.04	0.713
636.23	0.716
636.43	0.718
636.62	0.717
636.81	0.715
637.00	0.719
637.19	0.722
637.38	0.718
637.57	0.719
637.76	0.720
637.95	0.721
638.15	0.718
638.34	0.715
638.53	0.720
638.72	0.721
638.91	0.718
639.10	0.715
639.29	0.715
639.48	0.717
639.67	0.716
639.87	0.715
640.06	0.720
640.25	0.720
640.44	0.720
640.63	0.720
640.82	0.724
641.01	0.723
641.20	0.722
641.39	0.724
641.58	0.726
641.78	0.725
641.97	0.721
642.16	0.735
642.35	0.736
642.54	0.735
642.73	0.729
642.92	0.726
643.11	0.731
643.30	0.731
643.49	0.726
643.68	0.729
643.87	0.730
644.06	0.730
644.25	0.709
644.45	0.712
644.64	0.714
644.83	0.716
645.02	0.711
645.21	0.710
645.40	0.712
645.59	0.711
645.78	0.705
645.97	0.708
646.16	0.710
646.35	0.709
646.54	0.707
646.73	0.709
646.92	0.711
647.11	0.710
647.30	0.705
647.49	0.708
647.68	0.708
647.88	0.706
648.07	0.700
648.26	0.703
648.45	0.705
648.64	0.702
648.83	0.699
649.02	0.701
649.21	0.712
649.40	0.712
649.59	0.706
649.78	0.707
649.97	0.722
650.16	0.720
650.35	0.714
650.54	0.716
650.73	0.725
650.92	0.722
651.11	0.714
651.30	0.712
651.49	0.716
651.68	0.717
651.87	0.713
652.06	0.702
652.25	0.705
652.44	0.708
652.63	0.705
652.82	0.705
653.01	0.705
653.20	0.703
653.39	0.691
653.58	0.689
653.77	0.688
653.96	0.684
654.15	0.676
654.34	0.674
654.53	0.669
654.72	0.663
654.91	0.653
655.10	0.649
655.29	0.647
655.48	0.644
655.67	0.639
655.86	0.637
656.05	0.636
656.24	0.635
656.43	0.630
656.62	0.629
656.81	0.629
657.00	0.627
657.19	0.625
657.38	0.624
657.57	0.624
657.76	0.626
657.95	0.624
658.14	0.628
658.33	0.631
658.51	0.636
658.70	0.637
658.89	0.638
659.08	0.648
659.27	0.656
659.46	0.656
659.65	0.663
659.84	0.667
660.03	0.670
660.22	0.670
660.41	0.675
660.60	0.675
660.79	0.677
660.98	0.683
661.17	0.682
661.36	0.682
661.55	0.683
661.74	0.680
661.92	0.682
662.11	0.684
662.30	0.683
662.49	0.675
662.68	0.673
662.87	0.677
663.06	0.670
663.25	0.670
663.44	0.670
663.63	0.671
663.82	0.669
664.01	0.664
664.20	0.664
664.38	0.665
664.57	0.667
664.76	0.666
664.95	0.667
665.14	0.672
665.33	0.667
665.52	0.674
665.71	0.679
665.90	0.679
666.09	0.680
666.28	0.677
666.46	0.676
666.65	0.676
666.84	0.675
667.03	0.669
667.22	0.668
667.41	0.671
667.60	0.660
667.79	0.653
667.98	0.655
668.16	0.656
668.35	0.655
668.54	0.651
668.73	0.653
668.92	0.655
669.11	0.654
669.30	0.648
669.49	0.644
669.67	0.646
669.86	0.648
670.05	0.645
670.24	0.643
670.43	0.641
670.62	0.639
670.81	0.634
671.00	0.634
671.18	0.634
671.37	0.633
671.56	0.631
671.75	0.630
671.94	0.627
672.13	0.625
672.32	0.620
672.50	0.619
672.69	0.620
672.88	0.620
673.07	0.615
673.26	0.617
673.45	0.619
673.63	0.619
673.82	0.615
674.01	0.617
674.20	0.616
674.39	0.616
674.58	0.615
674.76	0.615
674.95	0.614
675.14	0.614
675.33	0.609
675.52	0.607
675.71	0.607
675.89	0.606
676.08	0.602
676.27	0.601
676.46	0.603
676.65	0.602
676.84	0.602
677.02	0.604
677.21	0.606
677.40	0.605
677.59	0.602
677.78	0.604
677.96	0.607
678.15	0.606
678.34	0.604
678.53	0.605
678.72	0.605
678.90	0.601
679.09	0.597
679.28	0.593
679.47	0.593
679.66	0.593
679.84	0.589
680.03	0.586
680.22	0.586
680.41	0.587
680.60	0.583
680.78	0.583
680.97	0.585
681.16	0.586
681.35	0.584
681.53	0.583
681.72	0.584
681.91	0.586
682.10	0.584
682.29	0.587
682.47	0.585
682.66	0.585
682.85	0.582
683.04	0.581
683.22	0.581
683.41	0.583
683.60	0.582
683.79	0.583
683.97	0.583
684.16	0.582
684.35	0.577
684.54	0.579
684.72	0.578
684.91	0.579
685.10	0.577
685.29	0.579
685.47	0.575
685.66	0.574
685.85	0.571
686.04	0.570
686.22	0.572
686.41	0.575
686.60	0.572
686.79	0.576
686.97	0.577
687.16	0.578
687.35	0.575
687.54	0.579
687.72	0.583
687.91	0.583
688.10	0.584
688.29	0.584
688.47	0.582
688.66	0.582
688.85	0.578
689.03	0.575
689.22	0.580
689.41	0.580
689.60	0.575
689.78	0.572
689.97	0.573
690.16	0.571
690.34	0.567
690.53	0.566
690.72	0.566
690.91	0.564
691.09	0.562
691.28	0.556
691.47	0.554
691.65	0.553
691.84	0.551
692.03	0.549
692.21	0.547
692.40	0.546
692.59	0.544
692.77	0.543
692.96	0.544
693.15	0.545
693.34	0.542
693.52	0.543
693.71	0.543
693.90	0.544
694.08	0.545
694.27	0.546
694.46	0.556
694.64	0.557
694.83	0.557
695.02	0.556
695.20	0.556
695.39	0.555
695.58	0.555
695.76	0.556
695.95	0.556
696.14	0.555
696.32	0.553
696.51	0.543
696.70	0.544
696.88	0.544
697.07	0.543
697.26	0.544
697.44	0.545
697.63	0.544
697.81	0.542
698.00	0.541
698.19	0.541
698.37	0.541
698.56	0.541
698.75	0.540
698.93	0.540
699.12	0.539
699.31	0.539
699.49	0.538
699.68	0.540
699.87	0.542
700.05	0.542
700.24	0.541
700.42	0.542
700.61	0.542
700.80	0.540
700.98	0.540
701.17	0.542
701.36	0.541
701.54	0.540
701.73	0.541
701.91	0.539
702.10	0.538
702.29	0.536
702.47	0.535
702.66	0.536
702.84	0.537
703.03	0.536
703.22	0.537
703.40	0.537
703.59	0.538
703.77	0.537
703.96	0.537
704.15	0.538
704.33	0.538
704.52	0.537
704.70	0.536
704.89	0.536
705.08	0.534
705.26	0.530
705.45	0.530
705.63	0.530
705.82	0.527
706.00	0.525
706.19	0.525
706.38	0.525
706.56	0.525
706.75	0.523
706.93	0.521
707.12	0.523
707.30	0.524
707.49	0.521
707.68	0.519
707.86	0.519
708.05	0.519
708.23	0.517
708.42	0.517
708.60	0.519
708.79	0.520
708.98	0.518
709.16	0.518
709.35	0.520
709.53	0.524
709.72	0.523
709.90	0.524
710.09	0.526
710.27	0.528
710.46	0.531
710.64	0.530
710.83	0.533
711.02	0.534
711.20	0.533
711.39	0.531
711.57	0.529
711.76	0.529
711.94	0.527
712.13	0.528
712.31	0.528
712.50	0.523
712.68	0.520
712.87	0.521
713.05	0.522
713.24	0.522
713.42	0.521
713.61	0.522
713.79	0.523
713.98	0.523
714.16	0.524
714.35	0.524
714.54	0.526
714.72	0.526
714.91	0.524
715.09	0.530
715.28	0.534
715.46	0.533
715.65	0.530
715.83	0.529
716.02	0.532
716.20	0.529
716.39	0.528
716.57	0.529
716.76	0.532
716.94	0.532
717.12	0.523
717.31	0.525
717.49	0.528
717.68	0.531
717.86	0.531
718.05	0.532
718.23	0.534
718.42	0.536
718.60	0.537
718.79	0.544
718.97	0.547
719.16	0.547
719.34	0.545
719.53	0.544
719.71	0.545
719.90	0.547
720.08	0.544
720.27	0.545
720.45	0.545
720.63	0.544
720.82	0.537
721.00	0.541
721.19	0.544
721.37	0.544
721.56	0.544
721.74	0.547
721.93	0.554
722.11	0.561
722.30	0.560
722.48	0.564
722.66	0.566
722.85	0.566
723.03	0.565
723.22	0.564
723.40	0.567
723.59	0.567
723.77	0.571
723.95	0.564
724.14	0.566
724.32	0.568
724.51	0.568
724.69	0.569
724.88	0.569
725.06	0.568
725.24	0.569
725.43	0.571
725.61	0.574
725.80	0.567
725.98	0.566
726.16	0.563
726.35	0.569
726.53	0.568
726.72	0.567
726.90	0.577
727.09	0.578
727.27	0.584
727.45	0.581
727.64	0.590
727.82	0.599
728.01	0.604
728.19	0.601
728.37	0.606
728.56	0.611
728.74	0.619
728.92	0.607
729.11	0.609
729.29	0.607
729.48	0.609
729.66	0.597
729.84	0.598
730.03	0.600
730.21	0.603
730.40	0.594
730.58	0.594
730.76	0.593
730.95	0.596
731.13	0.597
731.31	0.611
731.50	0.622
731.68	0.627
731.86	0.622
732.05	0.638
732.23	0.641
732.42	0.645
732.60	0.650
732.78	0.656
732.97	0.675
733.15	0.680
733.33	0.668
733.52	0.674
733.70	0.685
733.88	0.696
734.07	0.681
734.25	0.708
734.43	0.716
734.62	0.716
734.80	0.709
734.98	0.699
735.17	0.706
735.35	0.712
735.53	0.698
735.72	0.702
735.90	0.725
736.08	0.745
736.27	0.721
736.45	0.731
736.63	0.746
736.82	0.758
737.00	0.759
737.18	0.771
737.37	0.808
737.55	0.836
737.73	0.828
737.92	0.829
738.10	0.827
738.28	0.847
738.46	0.836
738.65	0.847
738.83	0.868
739.01	0.927
739.20	0.917
739.38	0.899
739.56	0.890
739.75	0.895
739.93	0.861
740.11	0.887
740.29	0.883
740.48	0.892
740.66	0.870
740.84	0.870
741.03	0.831
741.21	0.844
741.39	0.824
741.57	0.836
741.76	0.856
741.94	0.861
742.12	0.822
742.31	0.834
742.49	0.859
742.67	0.887
742.85	0.896
743.04	0.907
743.22	0.915
743.40	0.973
743.58	0.954
743.77	0.976
743.95	1.017
744.13	1.079
744.31	1.059
744.50	1.048
744.68	1.051
744.86	1.024
745.04	1.028
745.23	1.109
745.41	1.089
745.59	1.089
745.77	1.048
745.96	1.037
746.14	1.048
746.32	1.040
746.50	1.028
746.69	1.006
746.87	1.026
747.05	1.012
747.23	0.926
747.42	0.911
747.60	0.950
747.78	0.950
747.96	0.981
748.14	0.931
748.33	0.968
748.51	0.962
748.69	0.955
748.87	0.984
749.06	0.985
749.24	0.988
749.42	0.967
749.60	0.941
749.78	0.959
749.97	0.905
750.15	0.901
750.33	0.902
750.51	0.938
750.69	0.943
750.88	0.950
751.06	0.954
751.24	0.986
751.42	0.981
751.60	0.973
751.79	1.055
751.97	1.119
752.15	1.113
752.33	1.068
752.51	1.136
752.69	1.161
752.88	1.106
753.06	1.162
753.24	1.127
753.42	1.166
753.60	1.382
753.78	1.185
753.97	1.200
754.15	1.226
754.33	1.269
754.51	1.111
754.69	1.088
754.87	1.133
755.06	1.053
755.24	1.049
755.42	1.057
755.60	0.941
755.78	0.952
755.96	0.891
756.15	0.889
756.33	0.892
756.51	0.915
756.69	0.900
756.87	0.861
757.05	0.883
757.23	0.869
757.42	0.831
757.60	0.834
757.78	0.820
757.96	0.817
758.14	0.802
758.32	0.785
758.50	0.799
758.69	0.797
758.87	0.786
759.05	0.787
759.23	0.798
759.41	0.802
759.59	0.793
759.77	0.820
759.95	0.853
760.13	0.904
760.32	0.908
760.50	0.898
760.68	0.926
760.86	0.930
761.04	0.897
761.22	0.902
761.40	0.956
761.58	0.954
761.76	0.920
761.95	0.900
762.13	0.852
762.31	0.849
762.49	0.816
762.67	0.833
762.85	0.849
763.03	0.848
763.21	0.826
763.39	0.806
763.57	0.812
763.75	0.806
763.94	0.790
764.12	0.791
764.30	0.816
764.48	0.821
764.66	0.783
764.84	0.779
765.02	0.817
765.20	0.821
765.38	0.799
765.56	0.804
765.74	0.848
765.92	0.846
766.10	0.852
766.28	0.845
766.46	0.876
766.65	0.875
766.83	0.863
767.01	0.848
767.19	0.858
767.37	0.860
767.55	0.844
767.73	0.822
767.91	0.827
768.09	0.814
768.27	0.802
768.45	0.793
768.63	0.799
768.81	0.799
768.99	0.767
769.17	0.793
769.35	0.808
769.53	0.805
769.71	0.784
769.89	0.793
770.07	0.803
770.25	0.786
770.43	0.761
770.61	0.787
770.79	0.794
770.97	0.806
771.15	0.773
771.33	0.774
771.51	0.778
771.69	0.790
771.87	0.796
772.05	0.802
772.24	0.811
772.42	0.822
772.60	0.797
772.78	0.865
772.96	0.897
773.14	0.893
773.32	0.868
773.49	0.878
773.67	0.876
773.85	0.853
774.03	0.842
774.21	0.876
774.39	0.893
774.57	0.916
774.75	0.832
774.93	0.826
775.11	0.849
775.29	0.858
775.47	0.860
775.65	0.870
775.83	0.891
776.01	0.913
776.19	0.860
776.37	0.857
776.55	0.861
776.73	0.858
776.91	0.852
777.09	0.833
777.27	0.830
777.45	0.816
777.63	0.790
777.81	0.784
777.99	0.772
778.17	0.771
778.35	0.750
778.53	0.737
778.71	0.742
778.89	0.728
779.07	0.721
779.24	0.726
779.42	0.728
779.60	0.750
779.78	0.748
779.96	0.751
780.14	0.760
780.32	0.779
780.50	0.761
780.68	0.762
780.86	0.756
781.04	0.772
781.22	0.777
781.40	0.789
781.58	0.777
781.75	0.768
781.93	0.750
782.11	0.751
782.29	0.737
782.47	0.736
782.65	0.724
782.83	0.754
783.01	0.747
783.19	0.739
783.37	0.724
783.55	0.727
783.72	0.747
783.90	0.759
784.08	0.751
784.26	0.765
784.44	0.787
784.62	0.790
784.80	0.753
784.98	0.760
785.16	0.768
785.33	0.781
785.51	0.766
785.69	0.749
785.87	0.748
786.05	0.758
786.23	0.754
786.41	0.750
786.59	0.755
786.77	0.754
786.94	0.739
787.12	0.741
787.30	0.744
787.48	0.740
787.66	0.728
787.84	0.728
788.02	0.718
788.19	0.713
788.37	0.699
788.55	0.700
788.73	0.703
788.91	0.696
789.09	0.679
789.27	0.668
789.44	0.680
789.62	0.687
789.80	0.698
789.98	0.723
790.16	0.711
790.34	0.707
790.51	0.697
790.69	0.715
790.87	0.721
791.05	0.720
791.23	0.715
791.41	0.715
791.58	0.723
791.76	0.699
791.94	0.667
792.12	0.677
792.30	0.680
792.48	0.676
792.65	0.670
792.83	0.678
793.01	0.685
793.19	0.683
793.37	0.667
793.54	0.663
793.72	0.675
793.90	0.674
794.08	0.661
794.26	0.662
794.43	0.672
794.61	0.653
794.79	0.642
794.97	0.639
795.15	0.644
795.32	0.649
795.50	0.640
795.68	0.634
795.86	0.638
796.04	0.641
796.21	0.633
796.39	0.631
796.57	0.648
796.75	0.657
796.92	0.658
797.10	0.663
797.28	0.664
797.46	0.666
797.64	0.668
797.81	0.679
797.99	0.682
798.17	0.687
798.35	0.680
798.52	0.682
798.70	0.677
798.88	0.686
799.06	0.686
799.23	0.689
799.41	0.699
799.59	0.690
799.77	0.677
799.94	0.688
800.12	0.696
800.30	0.715
800.48	0.712
800.65	0.711
800.83	0.701
801.01	0.692
801.19	0.692
801.36	0.686
801.54	0.691
801.72	0.701
801.90	0.687
802.07	0.685
802.25	0.669
802.43	0.654
802.60	0.651
802.78	0.658
802.96	0.664
803.14	0.657
803.31	0.656
803.49	0.656
803.67	0.652
803.84	0.655
804.02	0.645
804.20	0.649
804.38	0.655
804.55	0.654
804.73	0.640
804.91	0.638
805.08	0.651
805.26	0.647
805.44	0.714
805.61	0.718
805.79	0.716
805.97	0.715
806.15	0.706
806.32	0.702
806.50	0.707
806.68	0.707
806.85	0.699
807.03	0.690
807.21	0.709
807.38	0.637
807.56	0.624
807.74	0.635
807.91	0.643
808.09	0.646
808.27	0.664
808.44	0.692
808.62	0.703
808.80	0.703
808.97	0.697
809.15	0.690
809.33	0.709
809.50	0.718
809.68	0.703
809.86	0.709
810.03	0.743
810.21	0.723
810.39	0.703
810.56	0.708
810.74	0.733
810.91	0.811
811.09	0.799
811.27	0.820
811.44	0.827
811.62	0.828
811.80	0.813
811.97	0.781
812.15	0.782
812.33	0.777
812.50	0.759
812.68	0.749
812.85	0.688
813.03	0.691
813.21	0.657
813.38	0.651
813.56	0.656
813.74	0.667
813.91	0.674
814.09	0.704
814.26	0.698
814.44	0.704
814.62	0.694
814.79	0.699
814.97	0.705
815.14	0.712
815.32	0.717
815.50	0.736
815.67	0.739
815.85	0.730
816.02	0.718
816.20	0.724
816.38	0.740
816.55	0.745
816.73	0.750
816.90	0.760
817.08	0.792
817.26	0.799
817.43	0.773
817.61	0.800
817.78	0.825
817.96	0.805
818.13	0.793
818.31	0.792
818.49	0.809
818.66	0.793
818.84	0.781
819.01	0.759
819.19	0.764
819.36	0.769
819.54	0.736
819.71	0.776
819.89	0.789
820.07	0.803
820.24	0.797
820.42	0.795
820.59	0.816
820.77	0.843
820.94	0.836
821.12	0.856
821.29	0.870
821.47	0.872
821.64	0.807
821.82	0.824
822.00	0.825
822.17	0.822
822.35	0.816
822.52	0.821
822.70	0.804
822.87	0.811
823.05	0.789
823.22	0.803
823.40	0.832
823.57	0.859
823.75	0.839
823.92	0.865
824.10	0.891
824.27	0.939
824.45	0.927
824.62	1.004
824.80	1.026
824.97	1.051
825.15	1.047
825.32	1.062
825.50	1.068
825.67	1.077
825.85	1.052
826.02	1.075
826.20	1.106
826.37	1.294
826.55	1.183
826.72	1.539
826.90	1.722
827.07	1.875
827.25	1.691
827.42	2.564
827.60	-0.000
827.77	-0.000
827.95	-0.000
828.12	-0.000
828.30	-0.000
828.47	-0.000
828.65	1.655
828.82	1.849
829.00	2.394
829.17	-0.000
829.34	-0.000
829.52	-0.000
829.69	-0.000
829.87	-0.000
830.04	-0.000
830.22	-0.000
830.39	-0.000
830.57	-0.000
830.74	-0.000
830.92	-0.000
831.09	-0.000
831.26	-0.000
831.44	-0.000
831.61	-0.000
831.79	-0.000
831.96	-0.000
832.14	-0.000
832.31	-0.000
832.49	-0.000
832.66	-0.000
832.83	-0.000
833.01	-0.000
833.18	-0.000
833.36	-0.000
833.53	-0.000
833.70	-0.000
833.88	-0.000
834.05	-0.000
834.23	-0.000
834.40	-0.000
834.58	-0.000
834.75	-0.000
834.92	-0.000
835.10	-0.000
835.27	-0.000
835.45	-0.000
835.62	-0.000
835.79	-0.000
835.97	-0.000
836.14	-0.000
836.32	-0.000
836.49	-0.000
836.66	-0.000
836.84	-0.000
837.01	-0.000
837.18	-0.000
837.36	-0.000
837.53	-0.000
837.71	-0.000
837.88	-0.000
838.05	-0.000
838.23	-0.000
838.40	-0.000
838.58	-0.000
838.75	-0.000
838.92	-0.000
839.10	-0.000
839.27	-0.000
839.44	-0.000
839.62	-0.000
839.79	-0.000
839.96	-0.000
840.14	-0.000
840.31	-0.000
840.48	-0.000
840.66	-0.000
840.83	-0.000
841.01	-0.000
841.18	-0.000
841.35	-0.000
841.53	-0.000
841.70	-0.000
841.87	-0.000
842.05	-0.000
842.22	-0.000
842.39	-0.000
842.57	-0.000
842.74	-0.000
842.91	-0.000
843.09	-0.000
843.26	-0.000
843.43	-0.000
843.60	-0.000
843.78	-0.000
843.95	-0.000
844.12	-0.000
844.30	-0.000
844.47	-0.000
844.64	-0.000
844.82	-0.000
844.99	-0.000
845.16	-0.000
845.34	-0.000
845.51	-0.000
845.68	-0.000
845.85	-0.000
846.03	-0.000
846.20	-0.000
846.37	-0.000
846.55	-0.000
846.72	-0.000
846.89	-0.000
847.06	-0.000
847.24	-0.000
847.41	-0.000
847.58	-0.000
847.76	-0.000
847.93	-0.000
848.10	-0.000
848.27	-0.000
848.45	-0.000
848.62	-0.000
848.79	-0.000
848.97	-0.000
849.14	-0.000
849.31	-0.000
849.48	-0.000
849.66	-0.000
849.83	-0.000
850.00	-0.000
850.17	-0.000
850.35	-0.000
850.52	-0.000
850.69	-0.000
850.86	-0.000
851.04	-0.000
851.21	-0.000
851.38	-0.000
851.55	-0.000
851.72	-0.000
851.90	-0.000
852.07	-0.000
852.24	-0.000
852.41	-0.000
852.59	-0.000
852.76	-0.000
852.93	-0.000
853.10	-0.000
853.28	-0.000
853.45	-0.000
853.62	-0.000
853.79	-0.000
853.96	-0.000
854.14	-0.000
854.31	-0.000
854.48	-0.000
854.65	-0.000
854.82	-0.000
855.00	-0.000
855.17	-0.000
855.34	-0.000
855.51	-0.000
855.68	-0.000
855.86	-0.000
856.03	-0.000
856.20	-0.000
856.37	-0.000
856.54	-0.000
856.72	-0.000
856.89	-0.000
857.06	-0.000
857.23	-0.000
857.40	-0.000
857.57	-0.000
857.75	-0.000
857.92	-0.000
858.09	-0.000
858.26	-0.000
858.43	-0.000
858.60	-0.000
858.78	-0.000
858.95	-0.000
859.12	-0.000
859.29	-0.000
859.46	-0.000
859.63	-0.000
859.81	-0.000
859.98	-0.000
860.15	-0.000
860.32	-0.000
860.49	-0.000
860.66	-0.000
860.83	-0.000
861.01	-0.000
861.18	-0.000
861.35	-0.000
861.52	-0.000
861.69	-0.000
861.86	-0.000
862.03	-0.000
862.21	-0.000
862.38	-0.000
862.55	-0.000
862.72	-0.000
862.89	-0.000
863.06	-0.000
863.23	-0.000
863.40	-0.000
863.58	-0.000
863.75	-0.000
863.92	-0.000
864.09	-0.000
864.26	-0.000
864.43	-0.000
864.60	-0.000
864.77	-0.000
864.94	-0.000
865.11	-0.000
865.29	-0.000
865.46	-0.000
865.63	-0.000
865.80	-0.000
865.97	-0.000
866.14	-0.000
866.31	-0.000
866.48	-0.000
866.65	-0.000
866.82	-0.000
866.99	-0.000
867.16	-0.000
867.34	-0.000
867.51	-0.000
867.68	-0.000
867.85	-0.000
868.02	-0.000
868.19	-0.000
868.36	-0.000
868.53	-0.000
868.70	-0.000
868.87	-0.000
869.04	-0.000
869.21	-0.000
869.38	-0.000
869.55	-0.000
869.72	-0.000
869.89	-0.000
870.06	-0.000
870.24	-0.000
870.41	-0.000
870.58	-0.000
870.75	-0.000
870.92	-0.000
871.09	-0.000
871.26	-0.000
871.43	-0.000
871.60	-0.000
871.77	-0.000
871.94	-0.000
872.11	-0.000
872.28	-0.000
872.45	-0.000
872.62	-0.000
872.79	-0.000
872.96	-0.000
873.13	-0.000
873.30	-0.000
873.47	-0.000
873.64	-0.000
873.81	-0.000
873.98	-0.000
874.15	-0.000
874.32	-0.000
874.49	-0.000
874.66	-0.000
874.83	-0.000
875.00	-0.000
875.17	-0.000
875.34	-0.000
875.51	-0.000
875.68	-0.000
875.85	-0.000
876.02	-0.000
876.19	-0.000
876.36	-0.000
876.53	-0.000
876.70	-0.000
876.87	-0.000
877.04	-0.000
877.21	-0.000
877.38	-0.000
877.55	-0.000
877.72	-0.000
877.89	-0.000
878.06	-0.000
878.23	-0.000
878.39	-0.000
878.56	-0.000
878.73	-0.000
878.90	-0.000
879.07	-0.000
879.24	-0.000
879.41	-0.000
879.58	-0.000
879.75	-0.000
879.92	-0.000
880.09	-0.000
880.26	-0.000
880.43	-0.000
880.60	-0.000
880.77	-0.000
880.94	-0.000
881.11	-0.000
881.27	-0.000
881.44	-0.000
881.61	-0.000
881.78	-0.000
881.95	-0.000
882.12	-0.000
882.29	-0.000
882.46	-0.000
882.63	-0.000
882.80	-0.000
882.97	-0.000
883.14	-0.000
883.30	-0.000
883.47	-0.000
883.64	-0.000
883.81	-0.000
883.98	-0.000
884.15	-0.000
884.32	-0.000
884.49	-0.000
884.66	-0.000
884.82	-0.000
884.99	-0.000
885.16	-0.000
885.33	-0.000
885.50	-0.000
885.67	-0.000
885.84	-0.000
886.01	-0.000
886.17	-0.000
886.34	-0.000
886.51	-0.000
886.68	-0.000
886.85	-0.000
887.02	-0.000
887.19	-0.000
887.36	-0.000
887.52	-0.000
887.69	-0.000
887.86	-0.000
888.03	-0.000
888.20	-0.000
888.37	-0.000
888.54	-0.000
888.70	-0.000
888.87	-0.000
889.04	-0.000
889.21	-0.000
889.38	-0.000
889.55	-0.000
889.71	-0.000
889.88	-0.000
890.05	-0.000
890.22	-0.000
890.39	-0.000
>>>>>End Processed Spectral Data<<<<<
