SpectraSuite Data File
++++++++++++++++++++++++++++++++++++
Date: Fri Jun 19 15:44:52 CEST 2015
User: introlabs
Dark Spectrum Present: Yes
Reference Spectrum Present: Yes
Number of Sampled Component Spectra: 1
Spectrometers: USB4H08886
Integration Time (usec): 745692 (USB4H08886)
Spectra Averaged: 5 (USB4H08886)
Boxcar Smoothing: 5 (USB4H08886)
Correct for Electrical Dark: Yes (USB4H08886)
Strobe/Lamp Enabled: No (USB4H08886)
Correct for Detector Non-linearity: Yes (USB4H08886)
Correct for Stray Light: Yes (USB4H08886)
Number of Pixels in Processed Spectrum: 3648
>>>>>Begin Processed Spectral Data<<<<<
178.14	-0.000
178.36	-0.000
178.57	-0.000
178.79	-0.000
179.01	-0.000
179.22	-0.000
179.44	-0.000
179.65	-0.000
179.87	-0.000
180.08	-0.000
180.30	-0.000
180.52	-0.000
180.73	-0.000
180.95	-0.000
181.16	-0.000
181.38	-0.000
181.59	-0.000
181.81	-0.000
182.03	-0.000
182.24	-0.000
182.46	-0.000
182.67	-0.000
182.89	-0.000
183.10	-0.000
183.32	-0.000
183.54	-0.000
183.75	-0.000
183.97	-0.000
184.18	-0.000
184.40	-0.000
184.61	-0.000
184.83	-0.000
185.04	-0.000
185.26	-0.000
185.48	-0.000
185.69	-0.000
185.91	-0.000
186.12	-0.000
186.34	-0.000
186.55	-0.000
186.77	-0.000
186.98	-0.000
187.20	-0.000
187.42	-0.000
187.63	-0.000
187.85	-0.000
188.06	-0.000
188.28	-0.000
188.49	-0.000
188.71	-0.000
188.92	-0.000
189.14	-0.000
189.36	-0.000
189.57	-0.000
189.79	-0.000
190.00	-0.000
190.22	-0.000
190.43	-0.000
190.65	-0.000
190.86	-0.000
191.08	-0.000
191.29	-0.000
191.51	-0.000
191.72	-0.000
191.94	-0.000
192.16	-0.000
192.37	-0.000
192.59	-0.000
192.80	-0.000
193.02	-0.000
193.23	-0.000
193.45	-0.000
193.66	-0.000
193.88	-0.000
194.09	-0.000
194.31	-0.000
194.52	-0.000
194.74	-0.000
194.95	-0.000
195.17	-0.000
195.38	-0.000
195.60	-0.000
195.81	-0.000
196.03	-0.000
196.25	-0.000
196.46	-0.000
196.68	-0.000
196.89	-0.000
197.11	-0.000
197.32	-0.000
197.54	-0.000
197.75	-0.000
197.97	-0.000
198.18	-0.000
198.40	-0.000
198.61	-0.000
198.83	-0.000
199.04	-0.000
199.26	-0.000
199.47	-0.000
199.69	-0.000
199.90	-0.000
200.12	-0.000
200.33	-0.000
200.55	-0.000
200.76	-0.000
200.98	-0.000
201.19	-0.000
201.41	-0.000
201.62	-0.000
201.84	-0.000
202.05	-0.000
202.27	-0.000
202.48	-0.000
202.70	-0.000
202.91	-0.000
203.13	-0.000
203.34	-0.000
203.56	-0.000
203.77	-0.000
203.99	-0.000
204.20	-0.000
204.42	-0.000
204.63	-0.000
204.85	-0.000
205.06	-0.000
205.28	-0.000
205.49	-0.000
205.71	-0.000
205.92	-0.000
206.14	-0.000
206.35	-0.000
206.56	-0.000
206.78	-0.000
206.99	-0.000
207.21	-0.000
207.42	-0.000
207.64	-0.000
207.85	-0.000
208.07	-0.000
208.28	-0.000
208.50	-0.000
208.71	-0.000
208.93	-0.000
209.14	-0.000
209.36	-0.000
209.57	-0.000
209.79	-0.000
210.00	-0.000
210.22	-0.000
210.43	-0.000
210.64	-0.000
210.86	-0.000
211.07	-0.000
211.29	-0.000
211.50	-0.000
211.72	-0.000
211.93	-0.000
212.15	-0.000
212.36	-0.000
212.58	-0.000
212.79	-0.000
213.01	-0.000
213.22	-0.000
213.43	-0.000
213.65	-0.000
213.86	-0.000
214.08	-0.000
214.29	-0.000
214.51	-0.000
214.72	-0.000
214.94	-0.000
215.15	-0.000
215.36	-0.000
215.58	-0.000
215.79	-0.000
216.01	-0.000
216.22	-0.000
216.44	-0.000
216.65	-0.000
216.87	-0.000
217.08	-0.000
217.29	-0.000
217.51	-0.000
217.72	-0.000
217.94	-0.000
218.15	-0.000
218.37	-0.000
218.58	-0.000
218.80	-0.000
219.01	-0.000
219.22	-0.000
219.44	-0.000
219.65	-0.000
219.87	-0.000
220.08	-0.000
220.30	-0.000
220.51	-0.000
220.72	-0.000
220.94	-0.000
221.15	-0.000
221.37	-0.000
221.58	-0.000
221.79	-0.000
222.01	-0.000
222.22	-0.000
222.44	-0.000
222.65	-0.000
222.87	-0.000
223.08	-0.000
223.29	-0.000
223.51	-0.000
223.72	-0.000
223.94	-0.000
224.15	-0.000
224.36	-0.000
224.58	-0.000
224.79	-0.000
225.01	-0.000
225.22	-0.000
225.44	-0.000
225.65	-0.000
225.86	-0.000
226.08	-0.000
226.29	-0.000
226.51	-0.000
226.72	-0.000
226.93	-0.000
227.15	-0.000
227.36	-0.000
227.58	-0.000
227.79	-0.000
228.00	-0.000
228.22	-0.000
228.43	-0.000
228.65	-0.000
228.86	-0.000
229.07	-0.000
229.29	-0.000
229.50	-0.000
229.72	-0.000
229.93	-0.000
230.14	-0.000
230.36	-0.000
230.57	-0.000
230.78	-0.000
231.00	-0.000
231.21	-0.000
231.43	-0.000
231.64	-0.000
231.85	-0.000
232.07	-0.000
232.28	-0.000
232.50	-0.000
232.71	-0.000
232.92	-0.000
233.14	-0.000
233.35	-0.000
233.56	-0.000
233.78	-0.000
233.99	-0.000
234.21	-0.000
234.42	-0.000
234.63	-0.000
234.85	-0.000
235.06	-0.000
235.27	-0.000
235.49	-0.000
235.70	-0.000
235.91	-0.000
236.13	-0.000
236.34	-0.000
236.56	-0.000
236.77	-0.000
236.98	-0.000
237.20	-0.000
237.41	-0.000
237.62	-0.000
237.84	-0.000
238.05	-0.000
238.26	-0.000
238.48	-0.000
238.69	-0.000
238.91	-0.000
239.12	-0.000
239.33	-0.000
239.55	-0.000
239.76	-0.000
239.97	-0.000
240.19	-0.000
240.40	-0.000
240.61	-0.000
240.83	-0.000
241.04	-0.000
241.25	-0.000
241.47	-0.000
241.68	-0.000
241.89	-0.000
242.11	-0.000
242.32	-0.000
242.53	-0.000
242.75	-0.000
242.96	-0.000
243.17	-0.000
243.39	-0.000
243.60	-0.000
243.81	-0.000
244.03	-0.000
244.24	-0.000
244.45	-0.000
244.67	-0.000
244.88	-0.000
245.09	-0.000
245.31	-0.000
245.52	-0.000
245.73	-0.000
245.95	-0.000
246.16	-0.000
246.37	-0.000
246.59	-0.000
246.80	-0.000
247.01	-0.000
247.23	-0.000
247.44	-0.000
247.65	-0.000
247.87	-0.000
248.08	-0.000
248.29	-0.000
248.51	-0.000
248.72	-0.000
248.93	-0.000
249.15	-0.000
249.36	-0.000
249.57	-0.000
249.78	-0.000
250.00	-0.000
250.21	-0.000
250.42	-0.000
250.64	-0.000
250.85	-0.000
251.06	-0.000
251.28	-0.000
251.49	-0.000
251.70	-0.000
251.92	-0.000
252.13	-0.000
252.34	-0.000
252.55	-0.000
252.77	-0.000
252.98	-0.000
253.19	-0.000
253.41	-0.000
253.62	-0.000
253.83	-0.000
254.05	-0.000
254.26	-0.000
254.47	-0.000
254.68	-0.000
254.90	-0.000
255.11	-0.000
255.32	-0.000
255.54	-0.000
255.75	-0.000
255.96	-0.000
256.17	-0.000
256.39	-0.000
256.60	-0.000
256.81	-0.000
257.03	-0.000
257.24	-0.000
257.45	-0.000
257.66	-0.000
257.88	-0.000
258.09	-0.000
258.30	-0.000
258.51	-0.000
258.73	-0.000
258.94	-0.000
259.15	-0.000
259.37	-0.000
259.58	-0.000
259.79	-0.000
260.00	-0.000
260.22	-0.000
260.43	-0.000
260.64	-0.000
260.85	-0.000
261.07	-0.000
261.28	-0.000
261.49	-0.000
261.71	-0.000
261.92	-0.000
262.13	-0.000
262.34	-0.000
262.56	-0.000
262.77	-0.000
262.98	-0.000
263.19	-0.000
263.41	-0.000
263.62	-0.000
263.83	-0.000
264.04	-0.000
264.26	-0.000
264.47	-0.000
264.68	-0.000
264.89	-0.000
265.11	-0.000
265.32	-0.000
265.53	-0.000
265.74	-0.000
265.96	-0.000
266.17	-0.000
266.38	-0.000
266.59	-0.000
266.81	-0.000
267.02	-0.000
267.23	-0.000
267.44	-0.000
267.65	-0.000
267.87	-0.000
268.08	-0.000
268.29	-0.000
268.50	-0.000
268.72	-0.000
268.93	-0.000
269.14	-0.000
269.35	-0.000
269.57	-0.000
269.78	-0.000
269.99	-0.000
270.20	-0.000
270.41	-0.000
270.63	-0.000
270.84	-0.000
271.05	-0.000
271.26	-0.000
271.48	-0.000
271.69	-0.000
271.90	-0.000
272.11	-0.000
272.32	-0.000
272.54	-0.000
272.75	-0.000
272.96	-0.000
273.17	-0.000
273.39	-0.000
273.60	-0.000
273.81	-0.000
274.02	-0.000
274.23	-0.000
274.45	-0.000
274.66	-0.000
274.87	-0.000
275.08	-0.000
275.29	-0.000
275.51	-0.000
275.72	-0.000
275.93	-0.000
276.14	-0.000
276.35	-0.000
276.57	-0.000
276.78	-0.000
276.99	-0.000
277.20	-0.000
277.41	-0.000
277.63	-0.000
277.84	-0.000
278.05	-0.000
278.26	-0.000
278.47	-0.000
278.69	-0.000
278.90	-0.000
279.11	-0.000
279.32	-0.000
279.53	-0.000
279.74	-0.000
279.96	-0.000
280.17	-0.000
280.38	-0.000
280.59	-0.000
280.80	-0.000
281.02	-0.000
281.23	-0.000
281.44	-0.000
281.65	-0.000
281.86	-0.000
282.07	-0.000
282.29	-0.000
282.50	-0.000
282.71	-0.000
282.92	-0.000
283.13	-0.000
283.35	-0.000
283.56	-0.000
283.77	-0.000
283.98	-0.000
284.19	-0.000
284.40	-0.000
284.62	-0.000
284.83	-0.000
285.04	-0.000
285.25	-0.000
285.46	-0.000
285.67	-0.000
285.88	-0.000
286.10	-0.000
286.31	-0.000
286.52	-0.000
286.73	-0.000
286.94	-0.000
287.15	-0.000
287.37	-0.000
287.58	-0.000
287.79	-0.000
288.00	-0.000
288.21	-0.000
288.42	-0.000
288.63	-0.000
288.85	-0.000
289.06	-0.000
289.27	-0.000
289.48	-0.000
289.69	-0.000
289.90	-0.000
290.11	-0.000
290.33	-0.000
290.54	-0.000
290.75	-0.000
290.96	-0.000
291.17	-0.000
291.38	-0.000
291.59	-0.000
291.81	-0.000
292.02	-0.000
292.23	-0.000
292.44	-0.000
292.65	2.917
292.86	-0.000
293.07	-0.000
293.28	2.273
293.50	2.525
293.71	-0.000
293.92	2.646
294.13	-0.000
294.34	-0.000
294.55	-0.000
294.76	-0.000
294.97	2.722
295.19	-0.000
295.40	-0.000
295.61	-0.000
295.82	2.409
296.03	2.127
296.24	2.184
296.45	1.757
296.66	1.585
296.87	1.597
297.09	1.639
297.30	1.762
297.51	1.553
297.72	1.538
297.93	1.592
298.14	1.581
298.35	1.558
298.56	1.538
298.77	1.624
298.99	1.609
299.20	1.594
299.41	1.580
299.62	1.531
299.83	1.529
300.04	1.483
300.25	1.478
300.46	1.496
300.67	1.472
300.88	1.438
301.10	1.438
301.31	1.485
301.52	1.443
301.73	1.405
301.94	1.408
302.15	1.416
302.36	1.381
302.57	1.334
302.78	1.339
302.99	1.368
303.20	1.385
303.41	1.322
303.63	1.310
303.84	1.313
304.05	1.307
304.26	1.257
304.47	1.263
304.68	1.264
304.89	1.259
305.10	1.230
305.31	1.222
305.52	1.260
305.73	1.251
305.94	1.220
306.15	1.216
306.37	1.235
306.58	1.245
306.79	1.220
307.00	1.238
307.21	1.270
307.42	1.265
307.63	1.234
307.84	1.202
308.05	1.233
308.26	1.234
308.47	1.214
308.68	1.210
308.89	1.207
309.10	1.204
309.31	1.171
309.52	1.162
309.73	1.171
309.95	1.168
310.16	1.144
310.37	1.132
310.58	1.144
310.79	1.143
311.00	1.140
311.21	1.142
311.42	1.142
311.63	1.139
311.84	1.125
312.05	1.123
312.26	1.141
312.47	1.152
312.68	1.135
312.89	1.120
313.10	1.126
313.31	1.103
313.52	1.106
313.73	1.106
313.94	1.108
314.15	1.093
314.36	1.077
314.57	1.071
314.78	1.056
314.99	1.049
315.21	1.041
315.42	1.045
315.63	1.055
315.84	1.036
316.05	1.025
316.26	1.032
316.47	1.046
316.68	1.044
316.89	1.028
317.10	1.048
317.31	1.054
317.52	1.056
317.73	1.037
317.94	1.036
318.15	1.071
318.36	1.070
318.57	1.056
318.78	1.044
318.99	1.073
319.20	1.071
319.41	1.040
319.62	1.040
319.83	1.050
320.04	1.046
320.25	1.035
320.46	1.006
320.67	1.007
320.88	1.004
321.09	0.994
321.30	0.980
321.51	0.994
321.72	0.993
321.93	0.981
322.14	0.973
322.35	0.996
322.56	0.999
322.77	0.990
322.98	1.001
323.19	1.007
323.40	1.013
323.61	0.995
323.82	0.988
324.03	0.993
324.24	0.990
324.45	0.980
324.66	0.962
324.87	0.957
325.08	0.956
325.29	0.939
325.50	0.931
325.71	0.935
325.92	0.942
326.13	0.930
326.34	0.930
326.55	0.936
326.76	0.937
326.97	0.929
327.18	0.924
327.39	0.947
327.60	0.946
327.80	0.949
328.01	0.946
328.22	0.945
328.43	0.949
328.64	0.940
328.85	0.945
329.06	0.946
329.27	0.945
329.48	0.943
329.69	0.925
329.90	0.935
330.11	0.929
330.32	0.926
330.53	0.919
330.74	0.917
330.95	0.915
331.16	0.902
331.37	0.910
331.58	0.910
331.79	0.910
332.00	0.903
332.21	0.897
332.42	0.898
332.63	0.890
332.83	0.887
333.04	0.890
333.25	0.900
333.46	0.899
333.67	0.886
333.88	0.888
334.09	0.896
334.30	0.893
334.51	0.885
334.72	0.882
334.93	0.884
335.14	0.884
335.35	0.879
335.56	0.874
335.77	0.881
335.98	0.880
336.18	0.875
336.39	0.867
336.60	0.871
336.81	0.871
337.02	0.871
337.23	0.874
337.44	0.875
337.65	0.877
337.86	0.868
338.07	0.862
338.28	0.865
338.49	0.863
338.70	0.857
338.91	0.863
339.11	0.868
339.32	0.863
339.53	0.855
339.74	0.853
339.95	0.849
340.16	0.847
340.37	0.842
340.58	0.840
340.79	0.842
341.00	0.843
341.21	0.833
341.41	0.833
341.62	0.834
341.83	0.834
342.04	0.831
342.25	0.842
342.46	0.845
342.67	0.844
342.88	0.838
343.09	0.838
343.30	0.844
343.50	0.848
343.71	0.840
343.92	0.838
344.13	0.842
344.34	0.841
344.55	0.825
344.76	0.824
344.97	0.828
345.18	0.828
345.38	0.825
345.59	0.819
345.80	0.818
346.01	0.816
346.22	0.813
346.43	0.806
346.64	0.813
346.85	0.812
347.06	0.805
347.26	0.806
347.47	0.808
347.68	0.805
347.89	0.801
348.10	0.797
348.31	0.802
348.52	0.800
348.73	0.799
348.93	0.797
349.14	0.799
349.35	0.798
349.56	0.792
349.77	0.788
349.98	0.793
350.19	0.790
350.39	0.787
350.60	0.783
350.81	0.798
351.02	0.797
351.23	0.793
351.44	0.797
351.65	0.798
351.86	0.797
352.06	0.797
352.27	0.797
352.48	0.797
352.69	0.795
352.90	0.791
353.11	0.778
353.31	0.784
353.52	0.781
353.73	0.773
353.94	0.775
354.15	0.779
354.36	0.779
354.57	0.771
354.77	0.774
354.98	0.774
355.19	0.773
355.40	0.773
355.61	0.778
355.82	0.781
356.02	0.781
356.23	0.775
356.44	0.776
356.65	0.778
356.86	0.779
357.07	0.774
357.27	0.777
357.48	0.779
357.69	0.775
357.90	0.761
358.11	0.758
358.32	0.761
358.52	0.762
358.73	0.753
358.94	0.756
359.15	0.760
359.36	0.760
359.56	0.755
359.77	0.753
359.98	0.759
360.19	0.759
360.40	0.756
360.61	0.758
360.81	0.756
361.02	0.757
361.23	0.749
361.44	0.748
361.65	0.749
361.85	0.749
362.06	0.748
362.27	0.749
362.48	0.749
362.69	0.751
362.89	0.746
363.10	0.748
363.31	0.752
363.52	0.754
363.73	0.750
363.93	0.749
364.14	0.751
364.35	0.752
364.56	0.743
364.77	0.744
364.97	0.746
365.18	0.746
365.39	0.741
365.60	0.738
365.81	0.739
366.01	0.739
366.22	0.736
366.43	0.735
366.64	0.737
366.84	0.742
367.05	0.740
367.26	0.740
367.47	0.740
367.68	0.741
367.88	0.739
368.09	0.736
368.30	0.738
368.51	0.738
368.71	0.737
368.92	0.741
369.13	0.738
369.34	0.737
369.55	0.737
369.75	0.737
369.96	0.743
370.17	0.743
370.38	0.740
370.58	0.740
370.79	0.745
371.00	0.744
371.21	0.737
371.41	0.742
371.62	0.744
371.83	0.740
372.04	0.739
372.24	0.732
372.45	0.734
372.66	0.734
372.87	0.731
373.07	0.728
373.28	0.728
373.49	0.731
373.70	0.723
373.90	0.722
374.11	0.730
374.32	0.730
374.53	0.729
374.73	0.729
374.94	0.731
375.15	0.730
375.36	0.728
375.56	0.736
375.77	0.736
375.98	0.736
376.19	0.734
376.39	0.728
376.60	0.731
376.81	0.732
377.02	0.730
377.22	0.729
377.43	0.730
377.64	0.730
377.84	0.722
378.05	0.726
378.26	0.733
378.47	0.732
378.67	0.729
378.88	0.727
379.09	0.727
379.30	0.727
379.50	0.726
379.71	0.728
379.92	0.730
380.12	0.729
380.33	0.721
380.54	0.718
380.75	0.724
380.95	0.724
381.16	0.723
381.37	0.723
381.57	0.724
381.78	0.725
381.99	0.725
382.20	0.725
382.40	0.728
382.61	0.729
382.82	0.725
383.02	0.718
383.23	0.722
383.44	0.722
383.64	0.719
383.85	0.721
384.06	0.724
384.27	0.721
384.47	0.720
384.68	0.721
384.89	0.726
385.09	0.726
385.30	0.727
385.51	0.725
385.71	0.729
385.92	0.730
386.13	0.729
386.33	0.732
386.54	0.733
386.75	0.731
386.95	0.728
387.16	0.724
387.37	0.727
387.58	0.726
387.78	0.725
387.99	0.723
388.20	0.725
388.40	0.722
388.61	0.718
388.82	0.721
389.02	0.724
389.23	0.724
389.44	0.723
389.64	0.723
389.85	0.734
390.06	0.734
390.26	0.735
390.47	0.734
390.68	0.736
390.88	0.734
391.09	0.730
391.30	0.728
391.50	0.728
391.71	0.728
391.92	0.726
392.12	0.718
392.33	0.719
392.53	0.719
392.74	0.719
392.95	0.718
393.15	0.720
393.36	0.722
393.57	0.721
393.77	0.724
393.98	0.725
394.19	0.725
394.39	0.724
394.60	0.726
394.81	0.727
395.01	0.725
395.22	0.724
395.43	0.725
395.63	0.730
395.84	0.731
396.04	0.728
396.25	0.730
396.46	0.732
396.66	0.731
396.87	0.729
397.08	0.726
397.28	0.729
397.49	0.730
397.69	0.727
397.90	0.722
398.11	0.723
398.31	0.723
398.52	0.720
398.73	0.721
398.93	0.720
399.14	0.719
399.34	0.719
399.55	0.720
399.76	0.719
399.96	0.720
400.17	0.718
400.37	0.717
400.58	0.724
400.79	0.725
400.99	0.723
401.20	0.728
401.41	0.730
401.61	0.731
401.82	0.737
402.02	0.737
402.23	0.738
402.44	0.738
402.64	0.739
402.85	0.734
403.05	0.732
403.26	0.731
403.47	0.725
403.67	0.724
403.88	0.725
404.08	0.719
404.29	0.717
404.50	0.717
404.70	0.717
404.91	0.716
405.11	0.713
405.32	0.713
405.52	0.713
405.73	0.714
405.94	0.712
406.14	0.715
406.35	0.716
406.55	0.716
406.76	0.714
406.97	0.715
407.17	0.717
407.38	0.717
407.58	0.716
407.79	0.719
407.99	0.721
408.20	0.723
408.41	0.719
408.61	0.717
408.82	0.718
409.02	0.718
409.23	0.716
409.43	0.715
409.64	0.716
409.84	0.716
410.05	0.712
410.26	0.711
410.46	0.710
410.67	0.710
410.87	0.711
411.08	0.713
411.28	0.714
411.49	0.715
411.69	0.714
411.90	0.715
412.11	0.716
412.31	0.718
412.52	0.716
412.72	0.717
412.93	0.717
413.13	0.717
413.34	0.713
413.54	0.715
413.75	0.717
413.95	0.717
414.16	0.714
414.37	0.716
414.57	0.716
414.78	0.718
414.98	0.716
415.19	0.718
415.39	0.715
415.60	0.718
415.80	0.716
416.01	0.714
416.21	0.715
416.42	0.716
416.62	0.711
416.83	0.712
417.03	0.710
417.24	0.710
417.44	0.708
417.65	0.707
417.86	0.707
418.06	0.706
418.27	0.704
418.47	0.706
418.68	0.706
418.88	0.707
419.09	0.706
419.29	0.707
419.50	0.707
419.70	0.707
419.91	0.706
420.11	0.704
420.32	0.706
420.52	0.705
420.73	0.704
420.93	0.705
421.14	0.706
421.34	0.705
421.55	0.702
421.75	0.702
421.96	0.702
422.16	0.703
422.37	0.702
422.57	0.699
422.78	0.700
422.98	0.696
423.19	0.694
423.39	0.692
423.60	0.695
423.80	0.696
424.01	0.695
424.21	0.697
424.42	0.698
424.62	0.698
424.83	0.697
425.03	0.697
425.23	0.700
425.44	0.700
425.64	0.700
425.85	0.699
426.05	0.700
426.26	0.701
426.46	0.697
426.67	0.697
426.87	0.701
427.08	0.702
427.28	0.700
427.49	0.701
427.69	0.702
427.90	0.701
428.10	0.698
428.31	0.698
428.51	0.699
428.71	0.699
428.92	0.700
429.12	0.698
429.33	0.698
429.53	0.702
429.74	0.706
429.94	0.706
430.15	0.705
430.35	0.705
430.56	0.702
430.76	0.701
430.96	0.701
431.17	0.698
431.37	0.695
431.58	0.694
431.78	0.689
431.99	0.682
432.19	0.684
432.40	0.686
432.60	0.686
432.80	0.688
433.01	0.687
433.21	0.687
433.42	0.689
433.62	0.690
433.83	0.690
434.03	0.692
434.23	0.695
434.44	0.694
434.64	0.692
434.85	0.697
435.05	0.698
435.26	0.698
435.46	0.697
435.66	0.696
435.87	0.696
436.07	0.696
436.28	0.692
436.48	0.689
436.69	0.688
436.89	0.688
437.09	0.682
437.30	0.681
437.50	0.681
437.71	0.692
437.91	0.692
438.11	0.693
438.32	0.697
438.52	0.697
438.73	0.696
438.93	0.695
439.13	0.695
439.34	0.698
439.54	0.696
439.75	0.696
439.95	0.685
440.15	0.689
440.36	0.688
440.56	0.685
440.77	0.685
440.97	0.686
441.17	0.684
441.38	0.685
441.58	0.683
441.79	0.682
441.99	0.681
442.19	0.680
442.40	0.678
442.60	0.677
442.81	0.675
443.01	0.675
443.21	0.675
443.42	0.674
443.62	0.673
443.82	0.673
444.03	0.674
444.23	0.674
444.44	0.674
444.64	0.673
444.84	0.674
445.05	0.674
445.25	0.673
445.45	0.673
445.66	0.675
445.86	0.674
446.06	0.675
446.27	0.674
446.47	0.677
446.68	0.675
446.88	0.674
447.08	0.674
447.29	0.675
447.49	0.675
447.69	0.675
447.90	0.673
448.10	0.677
448.30	0.674
448.51	0.676
448.71	0.673
448.91	0.675
449.12	0.674
449.32	0.676
449.52	0.674
449.73	0.678
449.93	0.676
450.14	0.677
450.34	0.676
450.54	0.678
450.75	0.675
450.95	0.676
451.15	0.675
451.36	0.678
451.56	0.674
451.76	0.674
451.97	0.671
452.17	0.672
452.37	0.670
452.58	0.667
452.78	0.666
452.98	0.668
453.19	0.667
453.39	0.667
453.59	0.666
453.79	0.667
454.00	0.666
454.20	0.666
454.40	0.666
454.61	0.667
454.81	0.668
455.01	0.666
455.22	0.668
455.42	0.669
455.62	0.667
455.83	0.667
456.03	0.670
456.23	0.670
456.44	0.671
456.64	0.669
456.84	0.670
457.04	0.670
457.25	0.669
457.45	0.666
457.65	0.666
457.86	0.667
458.06	0.666
458.26	0.661
458.47	0.661
458.67	0.662
458.87	0.662
459.07	0.660
459.28	0.662
459.48	0.664
459.68	0.664
459.89	0.663
460.09	0.662
460.29	0.662
460.49	0.663
460.70	0.663
460.90	0.662
461.10	0.663
461.31	0.663
461.51	0.660
461.71	0.662
461.91	0.663
462.12	0.663
462.32	0.663
462.52	0.664
462.72	0.666
462.93	0.666
463.13	0.665
463.33	0.665
463.53	0.667
463.74	0.667
463.94	0.662
464.14	0.663
464.35	0.664
464.55	0.664
464.75	0.662
464.95	0.660
465.16	0.661
465.36	0.660
465.56	0.659
465.76	0.658
465.97	0.658
466.17	0.658
466.37	0.657
466.57	0.658
466.78	0.659
466.98	0.658
467.18	0.656
467.38	0.655
467.59	0.656
467.79	0.658
467.99	0.657
468.19	0.658
468.39	0.661
468.60	0.661
468.80	0.659
469.00	0.660
469.20	0.661
469.41	0.661
469.61	0.661
469.81	0.662
470.01	0.661
470.22	0.661
470.42	0.660
470.62	0.658
470.82	0.659
471.02	0.658
471.23	0.656
471.43	0.657
471.63	0.659
471.83	0.658
472.04	0.656
472.24	0.655
472.44	0.661
472.64	0.661
472.84	0.660
473.05	0.659
473.25	0.662
473.45	0.661
473.65	0.660
473.85	0.661
474.06	0.662
474.26	0.662
474.46	0.663
474.66	0.659
474.86	0.660
475.07	0.659
475.27	0.658
475.47	0.654
475.67	0.654
475.87	0.656
476.08	0.653
476.28	0.654
476.48	0.655
476.68	0.654
476.88	0.651
477.09	0.652
477.29	0.654
477.49	0.654
477.69	0.654
477.89	0.654
478.09	0.653
478.30	0.656
478.50	0.653
478.70	0.653
478.90	0.653
479.10	0.656
479.31	0.657
479.51	0.656
479.71	0.656
479.91	0.656
480.11	0.655
480.31	0.655
480.52	0.654
480.72	0.655
480.92	0.653
481.12	0.652
481.32	0.649
481.52	0.647
481.72	0.647
481.93	0.651
482.13	0.651
482.33	0.652
482.53	0.650
482.73	0.651
482.93	0.651
483.14	0.651
483.34	0.650
483.54	0.651
483.74	0.650
483.94	0.650
484.14	0.646
484.34	0.646
484.55	0.646
484.75	0.646
484.95	0.644
485.15	0.643
485.35	0.642
485.55	0.642
485.75	0.640
485.96	0.641
486.16	0.642
486.36	0.641
486.56	0.640
486.76	0.640
486.96	0.640
487.16	0.639
487.36	0.638
487.57	0.637
487.77	0.638
487.97	0.638
488.17	0.636
488.37	0.635
488.57	0.635
488.77	0.635
488.97	0.633
489.18	0.633
489.38	0.636
489.58	0.636
489.78	0.636
489.98	0.636
490.18	0.636
490.38	0.637
490.58	0.636
490.78	0.637
490.98	0.639
491.19	0.639
491.39	0.638
491.59	0.637
491.79	0.639
491.99	0.639
492.19	0.639
492.39	0.642
492.59	0.642
492.79	0.644
492.99	0.644
493.20	0.644
493.40	0.645
493.60	0.646
493.80	0.645
494.00	0.643
494.20	0.643
494.40	0.643
494.60	0.640
494.80	0.645
495.00	0.644
495.20	0.642
495.40	0.641
495.61	0.642
495.81	0.642
496.01	0.645
496.21	0.646
496.41	0.645
496.61	0.646
496.81	0.645
497.01	0.640
497.21	0.639
497.41	0.639
497.61	0.639
497.81	0.636
498.01	0.636
498.21	0.634
498.41	0.631
498.61	0.631
498.82	0.633
499.02	0.634
499.22	0.635
499.42	0.635
499.62	0.636
499.82	0.637
500.02	0.638
500.22	0.638
500.42	0.640
500.62	0.641
500.82	0.641
501.02	0.640
501.22	0.640
501.42	0.639
501.62	0.641
501.82	0.640
502.02	0.641
502.22	0.640
502.42	0.641
502.62	0.638
502.82	0.638
503.02	0.638
503.22	0.639
503.42	0.637
503.63	0.637
503.83	0.636
504.03	0.635
504.23	0.634
504.43	0.635
504.63	0.636
504.83	0.636
505.03	0.635
505.23	0.637
505.43	0.639
505.63	0.639
505.83	0.638
506.03	0.639
506.23	0.640
506.43	0.640
506.63	0.640
506.83	0.638
507.03	0.639
507.23	0.640
507.43	0.638
507.63	0.638
507.83	0.637
508.03	0.638
508.23	0.638
508.43	0.637
508.63	0.638
508.83	0.639
509.03	0.640
509.23	0.639
509.43	0.640
509.63	0.640
509.83	0.639
510.03	0.642
510.23	0.644
510.43	0.644
510.63	0.645
510.83	0.644
511.03	0.645
511.23	0.643
511.43	0.643
511.63	0.645
511.83	0.647
512.03	0.647
512.22	0.643
512.42	0.643
512.62	0.644
512.82	0.643
513.02	0.643
513.22	0.642
513.42	0.644
513.62	0.646
513.82	0.644
514.02	0.643
514.22	0.644
514.42	0.644
514.62	0.645
514.82	0.645
515.02	0.647
515.22	0.651
515.42	0.650
515.62	0.652
515.82	0.651
516.02	0.651
516.22	0.652
516.42	0.654
516.62	0.655
516.82	0.656
517.01	0.654
517.21	0.653
517.41	0.657
517.61	0.657
517.81	0.654
518.01	0.653
518.21	0.653
518.41	0.652
518.61	0.651
518.81	0.651
519.01	0.651
519.21	0.651
519.41	0.651
519.61	0.645
519.81	0.648
520.00	0.648
520.20	0.648
520.40	0.651
520.60	0.652
520.80	0.651
521.00	0.652
521.20	0.652
521.40	0.656
521.60	0.657
521.80	0.656
522.00	0.656
522.20	0.658
522.39	0.657
522.59	0.655
522.79	0.656
522.99	0.658
523.19	0.656
523.39	0.655
523.59	0.653
523.79	0.656
523.99	0.658
524.19	0.657
524.38	0.656
524.58	0.657
524.78	0.658
524.98	0.657
525.18	0.659
525.38	0.660
525.58	0.660
525.78	0.659
525.98	0.657
526.18	0.658
526.37	0.657
526.57	0.659
526.77	0.659
526.97	0.659
527.17	0.658
527.37	0.655
527.57	0.657
527.77	0.658
527.96	0.657
528.16	0.656
528.36	0.657
528.56	0.658
528.76	0.657
528.96	0.656
529.16	0.657
529.36	0.661
529.55	0.661
529.75	0.658
529.95	0.658
530.15	0.660
530.35	0.662
530.55	0.660
530.75	0.660
530.94	0.661
531.14	0.662
531.34	0.661
531.54	0.658
531.74	0.661
531.94	0.664
532.13	0.663
532.33	0.664
532.53	0.662
532.73	0.662
532.93	0.661
533.13	0.662
533.33	0.662
533.52	0.662
533.72	0.666
533.92	0.665
534.12	0.663
534.32	0.663
534.52	0.662
534.71	0.664
534.91	0.666
535.11	0.668
535.31	0.666
535.51	0.668
535.71	0.669
535.90	0.666
536.10	0.667
536.30	0.669
536.50	0.670
536.70	0.670
536.89	0.668
537.09	0.668
537.29	0.668
537.49	0.669
537.69	0.668
537.89	0.668
538.08	0.668
538.28	0.666
538.48	0.666
538.68	0.667
538.88	0.669
539.07	0.668
539.27	0.667
539.47	0.666
539.67	0.666
539.87	0.667
540.06	0.665
540.26	0.666
540.46	0.668
540.66	0.665
540.86	0.663
541.05	0.663
541.25	0.664
541.45	0.664
541.65	0.663
541.84	0.664
542.04	0.664
542.24	0.666
542.44	0.665
542.64	0.666
542.83	0.668
543.03	0.669
543.23	0.667
543.43	0.668
543.62	0.669
543.82	0.669
544.02	0.668
544.22	0.668
544.42	0.671
544.61	0.672
544.81	0.669
545.01	0.668
545.21	0.669
545.40	0.669
545.60	0.668
545.80	0.671
546.00	0.672
546.19	0.671
546.39	0.670
546.59	0.667
546.79	0.669
546.98	0.670
547.18	0.669
547.38	0.670
547.58	0.673
547.77	0.673
547.97	0.669
548.17	0.670
548.37	0.670
548.56	0.671
548.76	0.670
548.96	0.671
549.16	0.673
549.35	0.673
549.55	0.670
549.75	0.671
549.95	0.674
550.14	0.675
550.34	0.674
550.54	0.679
550.73	0.682
550.93	0.682
551.13	0.680
551.33	0.679
551.52	0.679
551.72	0.680
551.92	0.678
552.12	0.679
552.31	0.680
552.51	0.680
552.71	0.675
552.90	0.676
553.10	0.676
553.30	0.676
553.50	0.675
553.69	0.676
553.89	0.676
554.09	0.677
554.28	0.673
554.48	0.675
554.68	0.676
554.87	0.676
555.07	0.673
555.27	0.673
555.47	0.675
555.66	0.676
555.86	0.675
556.06	0.677
556.25	0.677
556.45	0.685
556.65	0.683
556.84	0.687
557.04	0.689
557.24	0.691
557.43	0.691
557.63	0.694
557.83	0.696
558.02	0.697
558.22	0.701
558.42	0.702
558.61	0.695
558.81	0.695
559.01	0.692
559.21	0.691
559.40	0.692
559.60	0.692
559.80	0.688
559.99	0.689
560.19	0.691
560.39	0.685
560.58	0.682
560.78	0.682
560.97	0.685
561.17	0.683
561.37	0.681
561.56	0.682
561.76	0.683
561.96	0.683
562.15	0.680
562.35	0.682
562.55	0.683
562.74	0.683
562.94	0.682
563.14	0.681
563.33	0.681
563.53	0.682
563.73	0.680
563.92	0.682
564.12	0.685
564.31	0.687
564.51	0.685
564.71	0.687
564.90	0.690
565.10	0.691
565.30	0.693
565.49	0.695
565.69	0.697
565.89	0.697
566.08	0.694
566.28	0.696
566.47	0.697
566.67	0.696
566.87	0.694
567.06	0.695
567.26	0.701
567.46	0.697
567.65	0.697
567.85	0.699
568.04	0.701
568.24	0.701
568.44	0.698
568.63	0.696
568.83	0.697
569.02	0.696
569.22	0.692
569.42	0.688
569.61	0.691
569.81	0.689
570.00	0.687
570.20	0.688
570.40	0.689
570.59	0.689
570.79	0.686
570.98	0.685
571.18	0.686
571.38	0.685
571.57	0.682
571.77	0.680
571.96	0.684
572.16	0.681
572.35	0.675
572.55	0.677
572.75	0.675
572.94	0.674
573.14	0.673
573.33	0.673
573.53	0.673
573.73	0.673
573.92	0.671
574.12	0.669
574.31	0.672
574.51	0.674
574.70	0.671
574.90	0.673
575.09	0.675
575.29	0.675
575.49	0.673
575.68	0.673
575.88	0.675
576.07	0.675
576.27	0.673
576.46	0.671
576.66	0.670
576.86	0.669
577.05	0.667
577.25	0.665
577.44	0.667
577.64	0.667
577.83	0.665
578.03	0.667
578.22	0.667
578.42	0.667
578.61	0.665
578.81	0.666
579.00	0.666
579.20	0.665
579.40	0.664
579.59	0.663
579.79	0.663
579.98	0.662
580.18	0.661
580.37	0.661
580.57	0.662
580.76	0.667
580.96	0.666
581.15	0.667
581.35	0.669
581.54	0.668
581.74	0.668
581.93	0.670
582.13	0.670
582.32	0.668
582.52	0.666
582.71	0.664
582.91	0.660
583.10	0.660
583.30	0.659
583.49	0.658
583.69	0.661
583.88	0.662
584.08	0.661
584.27	0.664
584.47	0.667
584.66	0.668
584.86	0.668
585.05	0.670
585.25	0.672
585.44	0.672
585.64	0.671
585.83	0.668
586.03	0.668
586.22	0.666
586.42	0.662
586.61	0.663
586.81	0.665
587.00	0.664
587.20	0.662
587.39	0.662
587.59	0.663
587.78	0.664
587.98	0.664
588.17	0.665
588.37	0.668
588.56	0.670
588.76	0.666
588.95	0.666
589.15	0.670
589.34	0.673
589.54	0.672
589.73	0.673
589.92	0.676
590.12	0.676
590.31	0.675
590.51	0.680
590.70	0.682
590.90	0.683
591.09	0.682
591.29	0.681
591.48	0.680
591.68	0.681
591.87	0.679
592.06	0.679
592.26	0.681
592.45	0.680
592.65	0.674
592.84	0.673
593.04	0.675
593.23	0.677
593.43	0.675
593.62	0.675
593.81	0.674
594.01	0.673
594.20	0.671
594.40	0.670
594.59	0.671
594.79	0.672
594.98	0.670
595.17	0.670
595.37	0.670
595.56	0.672
595.76	0.672
595.95	0.675
596.14	0.677
596.34	0.679
596.53	0.679
596.73	0.681
596.92	0.682
597.12	0.685
597.31	0.686
597.50	0.685
597.70	0.686
597.89	0.685
598.09	0.682
598.28	0.683
598.47	0.685
598.67	0.683
598.86	0.679
599.06	0.681
599.25	0.680
599.44	0.678
599.64	0.676
599.83	0.673
600.03	0.675
600.22	0.675
600.41	0.675
600.61	0.673
600.80	0.675
601.00	0.675
601.19	0.671
601.38	0.669
601.58	0.672
601.77	0.673
601.96	0.675
602.16	0.675
602.35	0.684
602.55	0.682
602.74	0.683
602.93	0.685
603.13	0.690
603.32	0.691
603.51	0.691
603.71	0.695
603.90	0.697
604.09	0.698
604.29	0.696
604.48	0.690
604.68	0.691
604.87	0.690
605.06	0.686
605.26	0.684
605.45	0.684
605.64	0.683
605.84	0.678
606.03	0.677
606.22	0.675
606.42	0.674
606.61	0.670
606.80	0.670
607.00	0.671
607.19	0.672
607.38	0.671
607.58	0.672
607.77	0.674
607.96	0.673
608.16	0.672
608.35	0.677
608.54	0.679
608.74	0.682
608.93	0.687
609.12	0.690
609.32	0.691
609.51	0.694
609.70	0.694
609.90	0.696
610.09	0.700
610.28	0.706
610.48	0.700
610.67	0.702
610.86	0.703
611.06	0.697
611.25	0.696
611.44	0.697
611.64	0.697
611.83	0.699
612.02	0.696
612.21	0.695
612.41	0.693
612.60	0.692
612.79	0.689
612.99	0.689
613.18	0.691
613.37	0.689
613.57	0.686
613.76	0.687
613.95	0.684
614.14	0.684
614.34	0.681
614.53	0.682
614.72	0.685
614.92	0.685
615.11	0.682
615.30	0.678
615.49	0.679
615.69	0.682
615.88	0.678
616.07	0.680
616.26	0.681
616.46	0.683
616.65	0.679
616.84	0.678
617.04	0.679
617.23	0.682
617.42	0.683
617.61	0.686
617.81	0.687
618.00	0.689
618.19	0.688
618.38	0.692
618.58	0.695
618.77	0.696
618.96	0.696
619.15	0.698
619.35	0.700
619.54	0.699
619.73	0.696
619.92	0.699
620.12	0.703
620.31	0.703
620.50	0.699
620.69	0.699
620.89	0.702
621.08	0.702
621.27	0.703
621.46	0.702
621.66	0.706
621.85	0.706
622.04	0.703
622.23	0.703
622.43	0.704
622.62	0.703
622.81	0.702
623.00	0.701
623.19	0.704
623.39	0.702
623.58	0.699
623.77	0.698
623.96	0.701
624.16	0.700
624.35	0.695
624.54	0.697
624.73	0.700
624.92	0.697
625.12	0.696
625.31	0.696
625.50	0.700
625.69	0.700
625.88	0.697
626.08	0.696
626.27	0.698
626.46	0.698
626.65	0.696
626.84	0.695
627.04	0.700
627.23	0.701
627.42	0.697
627.61	0.699
627.80	0.702
628.00	0.701
628.19	0.701
628.38	0.704
628.57	0.705
628.76	0.705
628.96	0.703
629.15	0.703
629.34	0.704
629.53	0.705
629.72	0.700
629.91	0.701
630.11	0.705
630.30	0.704
630.49	0.707
630.68	0.708
630.87	0.710
631.06	0.712
631.26	0.708
631.45	0.711
631.64	0.718
631.83	0.720
632.02	0.717
632.21	0.716
632.41	0.723
632.60	0.717
632.79	0.716
632.98	0.716
633.17	0.717
633.36	0.719
633.55	0.717
633.75	0.712
633.94	0.713
634.13	0.713
634.32	0.712
634.51	0.706
634.70	0.708
634.89	0.706
635.09	0.704
635.28	0.703
635.47	0.703
635.66	0.705
635.85	0.702
636.04	0.705
636.23	0.709
636.43	0.710
636.62	0.709
636.81	0.709
637.00	0.712
637.19	0.714
637.38	0.712
637.57	0.712
637.76	0.713
637.95	0.714
638.15	0.711
638.34	0.708
638.53	0.710
638.72	0.712
638.91	0.709
639.10	0.707
639.29	0.707
639.48	0.708
639.67	0.708
639.87	0.707
640.06	0.713
640.25	0.712
640.44	0.713
640.63	0.713
640.82	0.714
641.01	0.715
641.20	0.715
641.39	0.716
641.58	0.717
641.78	0.716
641.97	0.712
642.16	0.726
642.35	0.726
642.54	0.726
642.73	0.721
642.92	0.720
643.11	0.722
643.30	0.722
643.49	0.717
643.68	0.720
643.87	0.721
644.06	0.720
644.25	0.700
644.45	0.703
644.64	0.704
644.83	0.705
645.02	0.701
645.21	0.701
645.40	0.703
645.59	0.704
645.78	0.699
645.97	0.702
646.16	0.702
646.35	0.701
646.54	0.700
646.73	0.700
646.92	0.701
647.11	0.701
647.30	0.698
647.49	0.699
647.68	0.698
647.88	0.696
648.07	0.690
648.26	0.693
648.45	0.695
648.64	0.692
648.83	0.690
649.02	0.692
649.21	0.702
649.40	0.701
649.59	0.696
649.78	0.696
649.97	0.710
650.16	0.710
650.35	0.704
650.54	0.706
650.73	0.713
650.92	0.710
651.11	0.704
651.30	0.703
651.49	0.707
651.68	0.708
651.87	0.705
652.06	0.694
652.25	0.697
652.44	0.702
652.63	0.703
652.82	0.705
653.01	0.706
653.20	0.704
653.39	0.693
653.58	0.691
653.77	0.690
653.96	0.685
654.15	0.678
654.34	0.677
654.53	0.671
654.72	0.664
654.91	0.653
655.10	0.649
655.29	0.647
655.48	0.644
655.67	0.639
655.86	0.637
656.05	0.635
656.24	0.634
656.43	0.629
656.62	0.627
656.81	0.626
657.00	0.623
657.19	0.619
657.38	0.617
657.57	0.615
657.76	0.617
657.95	0.614
658.14	0.617
658.33	0.618
658.51	0.623
658.70	0.623
658.89	0.624
659.08	0.635
659.27	0.644
659.46	0.646
659.65	0.652
659.84	0.656
660.03	0.659
660.22	0.661
660.41	0.666
660.60	0.665
660.79	0.667
660.98	0.673
661.17	0.672
661.36	0.671
661.55	0.672
661.74	0.672
661.92	0.675
662.11	0.676
662.30	0.674
662.49	0.669
662.68	0.669
662.87	0.671
663.06	0.666
663.25	0.668
663.44	0.667
663.63	0.668
663.82	0.666
664.01	0.661
664.20	0.660
664.38	0.661
664.57	0.661
664.76	0.660
664.95	0.661
665.14	0.665
665.33	0.659
665.52	0.666
665.71	0.669
665.90	0.668
666.09	0.670
666.28	0.668
666.46	0.668
666.65	0.667
666.84	0.665
667.03	0.660
667.22	0.659
667.41	0.660
667.60	0.651
667.79	0.644
667.98	0.646
668.16	0.646
668.35	0.645
668.54	0.642
668.73	0.643
668.92	0.643
669.11	0.642
669.30	0.637
669.49	0.634
669.67	0.636
669.86	0.639
670.05	0.636
670.24	0.634
670.43	0.632
670.62	0.631
670.81	0.627
671.00	0.627
671.18	0.626
671.37	0.626
671.56	0.625
671.75	0.624
671.94	0.621
672.13	0.618
672.32	0.614
672.50	0.613
672.69	0.612
672.88	0.613
673.07	0.609
673.26	0.611
673.45	0.611
673.63	0.611
673.82	0.607
674.01	0.609
674.20	0.608
674.39	0.608
674.58	0.608
674.76	0.608
674.95	0.607
675.14	0.607
675.33	0.603
675.52	0.601
675.71	0.601
675.89	0.600
676.08	0.597
676.27	0.597
676.46	0.598
676.65	0.598
676.84	0.597
677.02	0.599
677.21	0.601
677.40	0.601
677.59	0.600
677.78	0.600
677.96	0.602
678.15	0.602
678.34	0.600
678.53	0.600
678.72	0.599
678.90	0.596
679.09	0.592
679.28	0.589
679.47	0.588
679.66	0.588
679.84	0.585
680.03	0.582
680.22	0.580
680.41	0.582
680.60	0.579
680.78	0.578
680.97	0.580
681.16	0.580
681.35	0.579
681.53	0.577
681.72	0.578
681.91	0.580
682.10	0.578
682.29	0.581
682.47	0.578
682.66	0.576
682.85	0.575
683.04	0.573
683.22	0.573
683.41	0.574
683.60	0.573
683.79	0.575
683.97	0.573
684.16	0.572
684.35	0.569
684.54	0.570
684.72	0.572
684.91	0.572
685.10	0.570
685.29	0.571
685.47	0.569
685.66	0.568
685.85	0.565
686.04	0.564
686.22	0.566
686.41	0.568
686.60	0.565
686.79	0.568
686.97	0.569
687.16	0.571
687.35	0.568
687.54	0.571
687.72	0.575
687.91	0.575
688.10	0.578
688.29	0.577
688.47	0.575
688.66	0.575
688.85	0.572
689.03	0.570
689.22	0.573
689.41	0.574
689.60	0.570
689.78	0.567
689.97	0.567
690.16	0.564
690.34	0.561
690.53	0.561
690.72	0.562
690.91	0.559
691.09	0.557
691.28	0.552
691.47	0.550
691.65	0.549
691.84	0.547
692.03	0.545
692.21	0.543
692.40	0.543
692.59	0.540
692.77	0.538
692.96	0.538
693.15	0.539
693.34	0.537
693.52	0.537
693.71	0.537
693.90	0.539
694.08	0.540
694.27	0.541
694.46	0.550
694.64	0.551
694.83	0.551
695.02	0.550
695.20	0.550
695.39	0.549
695.58	0.549
695.76	0.550
695.95	0.548
696.14	0.547
696.32	0.545
696.51	0.536
696.70	0.536
696.88	0.537
697.07	0.536
697.26	0.537
697.44	0.539
697.63	0.537
697.81	0.535
698.00	0.535
698.19	0.534
698.37	0.534
698.56	0.534
698.75	0.533
698.93	0.532
699.12	0.532
699.31	0.531
699.49	0.530
699.68	0.531
699.87	0.534
700.05	0.534
700.24	0.533
700.42	0.535
700.61	0.534
700.80	0.533
700.98	0.534
701.17	0.536
701.36	0.534
701.54	0.534
701.73	0.535
701.91	0.532
702.10	0.532
702.29	0.531
702.47	0.529
702.66	0.531
702.84	0.532
703.03	0.530
703.22	0.530
703.40	0.530
703.59	0.531
703.77	0.531
703.96	0.531
704.15	0.531
704.33	0.531
704.52	0.532
704.70	0.531
704.89	0.530
705.08	0.529
705.26	0.525
705.45	0.525
705.63	0.524
705.82	0.521
706.00	0.519
706.19	0.519
706.38	0.519
706.56	0.518
706.75	0.516
706.93	0.515
707.12	0.517
707.30	0.517
707.49	0.515
707.68	0.513
707.86	0.513
708.05	0.513
708.23	0.511
708.42	0.511
708.60	0.513
708.79	0.513
708.98	0.512
709.16	0.511
709.35	0.513
709.53	0.516
709.72	0.515
709.90	0.517
710.09	0.518
710.27	0.520
710.46	0.524
710.64	0.523
710.83	0.524
711.02	0.526
711.20	0.524
711.39	0.523
711.57	0.521
711.76	0.522
711.94	0.520
712.13	0.521
712.31	0.521
712.50	0.516
712.68	0.514
712.87	0.515
713.05	0.515
713.24	0.516
713.42	0.515
713.61	0.516
713.79	0.516
713.98	0.517
714.16	0.517
714.35	0.517
714.54	0.518
714.72	0.518
714.91	0.516
715.09	0.522
715.28	0.525
715.46	0.525
715.65	0.523
715.83	0.522
716.02	0.524
716.20	0.521
716.39	0.521
716.57	0.522
716.76	0.524
716.94	0.523
717.12	0.516
717.31	0.517
717.49	0.520
717.68	0.521
717.86	0.521
718.05	0.522
718.23	0.524
718.42	0.526
718.60	0.528
718.79	0.536
718.97	0.538
719.16	0.538
719.34	0.536
719.53	0.536
719.71	0.535
719.90	0.536
720.08	0.533
720.27	0.534
720.45	0.534
720.63	0.531
720.82	0.526
721.00	0.528
721.19	0.530
721.37	0.530
721.56	0.530
721.74	0.533
721.93	0.541
722.11	0.547
722.30	0.546
722.48	0.551
722.66	0.552
722.85	0.552
723.03	0.554
723.22	0.553
723.40	0.555
723.59	0.555
723.77	0.559
723.95	0.553
724.14	0.555
724.32	0.557
724.51	0.556
724.69	0.557
724.88	0.557
725.06	0.556
725.24	0.558
725.43	0.560
725.61	0.562
725.80	0.557
725.98	0.555
726.16	0.552
726.35	0.557
726.53	0.556
726.72	0.555
726.90	0.565
727.09	0.565
727.27	0.571
727.45	0.568
727.64	0.576
727.82	0.584
728.01	0.588
728.19	0.586
728.37	0.590
728.56	0.593
728.74	0.600
728.92	0.589
729.11	0.590
729.29	0.587
729.48	0.590
729.66	0.582
729.84	0.581
730.03	0.583
730.21	0.585
730.40	0.577
730.58	0.578
730.76	0.577
730.95	0.580
731.13	0.580
731.31	0.594
731.50	0.601
731.68	0.603
731.86	0.600
732.05	0.615
732.23	0.618
732.42	0.622
732.60	0.626
732.78	0.631
732.97	0.647
733.15	0.653
733.33	0.643
733.52	0.651
733.70	0.661
733.88	0.671
734.07	0.657
734.25	0.682
734.43	0.689
734.62	0.690
734.80	0.686
734.98	0.677
735.17	0.684
735.35	0.691
735.53	0.680
735.72	0.684
735.90	0.704
736.08	0.723
736.27	0.703
736.45	0.708
736.63	0.721
736.82	0.728
737.00	0.729
737.18	0.737
737.37	0.764
737.55	0.785
737.73	0.779
737.92	0.783
738.10	0.776
738.28	0.795
738.46	0.786
738.65	0.796
738.83	0.815
739.01	0.866
739.20	0.859
739.38	0.841
739.56	0.832
739.75	0.837
739.93	0.806
740.11	0.828
740.29	0.823
740.48	0.833
740.66	0.815
740.84	0.811
741.03	0.773
741.21	0.785
741.39	0.771
741.57	0.781
741.76	0.791
741.94	0.798
742.12	0.767
742.31	0.771
742.49	0.784
742.67	0.806
742.85	0.821
743.04	0.824
743.22	0.828
743.40	0.877
743.58	0.866
743.77	0.883
743.95	0.907
744.13	0.953
744.31	0.939
744.50	0.935
744.68	0.928
744.86	0.905
745.04	0.925
745.23	0.991
745.41	0.965
745.59	0.965
745.77	0.933
745.96	0.928
746.14	0.934
746.32	0.936
746.50	0.928
746.69	0.914
746.87	0.920
747.05	0.904
747.23	0.836
747.42	0.827
747.60	0.845
747.78	0.851
747.96	0.877
748.14	0.839
748.33	0.863
748.51	0.858
748.69	0.854
748.87	0.878
749.06	0.875
749.24	0.873
749.42	0.858
749.60	0.849
749.78	0.855
749.97	0.814
750.15	0.810
750.33	0.810
750.51	0.833
750.69	0.835
750.88	0.839
751.06	0.845
751.24	0.868
751.42	0.861
751.60	0.852
751.79	0.916
751.97	0.958
752.15	0.956
752.33	0.930
752.51	0.982
752.69	0.997
752.88	0.968
753.06	1.013
753.24	0.990
753.42	1.020
753.60	1.174
753.78	1.049
753.97	1.063
754.15	1.069
754.33	1.098
754.51	1.001
754.69	0.986
754.87	1.005
755.06	0.944
755.24	0.947
755.42	0.952
755.60	0.858
755.78	0.865
755.96	0.821
756.15	0.822
756.33	0.818
756.51	0.832
756.69	0.823
756.87	0.795
757.05	0.810
757.23	0.796
757.42	0.769
757.60	0.767
757.78	0.757
757.96	0.754
758.14	0.741
758.32	0.731
758.50	0.739
758.69	0.735
758.87	0.728
759.05	0.730
759.23	0.736
759.41	0.737
759.59	0.734
759.77	0.750
759.95	0.772
760.13	0.814
760.32	0.813
760.50	0.807
760.68	0.829
760.86	0.831
761.04	0.812
761.22	0.816
761.40	0.856
761.58	0.856
761.76	0.836
761.95	0.818
762.13	0.779
762.31	0.782
762.49	0.759
762.67	0.775
762.85	0.786
763.03	0.779
763.21	0.762
763.39	0.744
763.57	0.746
763.75	0.744
763.94	0.736
764.12	0.738
764.30	0.758
764.48	0.762
764.66	0.732
764.84	0.728
765.02	0.763
765.20	0.772
765.38	0.754
765.56	0.758
765.74	0.789
765.92	0.787
766.10	0.791
766.28	0.781
766.46	0.798
766.65	0.798
766.83	0.789
767.01	0.772
767.19	0.776
767.37	0.777
767.55	0.768
767.73	0.753
767.91	0.754
768.09	0.747
768.27	0.740
768.45	0.732
768.63	0.735
768.81	0.739
768.99	0.716
769.17	0.736
769.35	0.747
769.53	0.744
769.71	0.728
769.89	0.735
770.07	0.735
770.25	0.719
770.43	0.704
770.61	0.722
770.79	0.724
770.97	0.733
771.15	0.709
771.33	0.711
771.51	0.714
771.69	0.724
771.87	0.732
772.05	0.737
772.24	0.742
772.42	0.750
772.60	0.731
772.78	0.783
772.96	0.806
773.14	0.803
773.32	0.785
773.49	0.789
773.67	0.783
773.85	0.766
774.03	0.757
774.21	0.788
774.39	0.792
774.57	0.815
774.75	0.754
774.93	0.749
775.11	0.765
775.29	0.771
775.47	0.775
775.65	0.785
775.83	0.799
776.01	0.821
776.19	0.778
776.37	0.780
776.55	0.777
776.73	0.775
776.91	0.771
777.09	0.757
777.27	0.753
777.45	0.744
777.63	0.725
777.81	0.720
777.99	0.705
778.17	0.705
778.35	0.689
778.53	0.678
778.71	0.679
778.89	0.667
779.07	0.659
779.24	0.664
779.42	0.663
779.60	0.681
779.78	0.678
779.96	0.683
780.14	0.688
780.32	0.706
780.50	0.695
780.68	0.698
780.86	0.691
781.04	0.706
781.22	0.714
781.40	0.721
781.58	0.709
781.75	0.701
781.93	0.687
782.11	0.688
782.29	0.673
782.47	0.671
782.65	0.661
782.83	0.683
783.01	0.675
783.19	0.669
783.37	0.660
783.55	0.664
783.72	0.680
783.90	0.691
784.08	0.684
784.26	0.696
784.44	0.714
784.62	0.718
784.80	0.692
784.98	0.700
785.16	0.704
785.33	0.716
785.51	0.704
785.69	0.693
785.87	0.690
786.05	0.703
786.23	0.700
786.41	0.695
786.59	0.699
786.77	0.698
786.94	0.686
787.12	0.690
787.30	0.689
787.48	0.689
787.66	0.680
787.84	0.681
788.02	0.670
788.19	0.668
788.37	0.659
788.55	0.660
788.73	0.660
788.91	0.657
789.09	0.641
789.27	0.630
789.44	0.639
789.62	0.642
789.80	0.651
789.98	0.671
790.16	0.660
790.34	0.655
790.51	0.645
790.69	0.663
790.87	0.667
791.05	0.665
791.23	0.662
791.41	0.663
791.58	0.669
791.76	0.649
791.94	0.624
792.12	0.632
792.30	0.635
792.48	0.633
792.65	0.628
792.83	0.634
793.01	0.640
793.19	0.637
793.37	0.623
793.54	0.623
793.72	0.633
793.90	0.633
794.08	0.623
794.26	0.621
794.43	0.628
794.61	0.611
794.79	0.600
794.97	0.599
795.15	0.603
795.32	0.607
795.50	0.598
795.68	0.592
795.86	0.593
796.04	0.594
796.21	0.590
796.39	0.589
796.57	0.601
796.75	0.606
796.92	0.607
797.10	0.611
797.28	0.612
797.46	0.615
797.64	0.618
797.81	0.628
797.99	0.630
798.17	0.635
798.35	0.631
798.52	0.636
798.70	0.634
798.88	0.643
799.06	0.644
799.23	0.646
799.41	0.652
799.59	0.644
799.77	0.633
799.94	0.641
800.12	0.647
800.30	0.661
800.48	0.659
800.65	0.657
800.83	0.647
801.01	0.639
801.19	0.639
801.36	0.634
801.54	0.637
801.72	0.648
801.90	0.636
802.07	0.631
802.25	0.619
802.43	0.605
802.60	0.603
802.78	0.609
802.96	0.612
803.14	0.607
803.31	0.607
803.49	0.609
803.67	0.604
803.84	0.608
804.02	0.603
804.20	0.605
804.38	0.609
804.55	0.608
804.73	0.596
804.91	0.597
805.08	0.608
805.26	0.605
805.44	0.666
805.61	0.671
805.79	0.670
805.97	0.668
806.15	0.661
806.32	0.657
806.50	0.663
806.68	0.663
806.85	0.657
807.03	0.646
807.21	0.659
807.38	0.595
807.56	0.586
807.74	0.595
807.91	0.601
808.09	0.604
808.27	0.623
808.44	0.647
808.62	0.653
808.80	0.654
808.97	0.652
809.15	0.648
809.33	0.663
809.50	0.669
809.68	0.658
809.86	0.664
810.03	0.690
810.21	0.670
810.39	0.652
810.56	0.659
810.74	0.678
810.91	0.744
811.09	0.735
811.27	0.753
811.44	0.754
811.62	0.754
811.80	0.742
811.97	0.716
812.15	0.714
812.33	0.713
812.50	0.700
812.68	0.690
812.85	0.638
813.03	0.640
813.21	0.613
813.38	0.611
813.56	0.614
813.74	0.622
813.91	0.628
814.09	0.655
814.26	0.647
814.44	0.651
814.62	0.642
814.79	0.644
814.97	0.647
815.14	0.651
815.32	0.658
815.50	0.670
815.67	0.673
815.85	0.666
816.02	0.657
816.20	0.663
816.38	0.674
816.55	0.680
816.73	0.682
816.90	0.692
817.08	0.718
817.26	0.719
817.43	0.703
817.61	0.725
817.78	0.739
817.96	0.722
818.13	0.715
818.31	0.717
818.49	0.727
818.66	0.716
818.84	0.703
819.01	0.685
819.19	0.687
819.36	0.691
819.54	0.663
819.71	0.701
819.89	0.711
820.07	0.722
820.24	0.719
820.42	0.719
820.59	0.734
820.77	0.757
820.94	0.747
821.12	0.761
821.29	0.773
821.47	0.776
821.64	0.723
821.82	0.738
822.00	0.735
822.17	0.734
822.35	0.729
822.52	0.735
822.70	0.724
822.87	0.733
823.05	0.719
823.22	0.730
823.40	0.752
823.57	0.773
823.75	0.755
823.92	0.777
824.10	0.793
824.27	0.832
824.45	0.821
824.62	0.875
824.80	0.892
824.97	0.906
825.15	0.897
825.32	0.906
825.50	0.901
825.67	0.916
825.85	0.900
826.02	0.910
826.20	0.927
826.37	1.037
826.55	0.969
826.72	1.131
826.90	1.177
827.07	1.227
827.25	1.189
827.42	1.326
827.60	1.403
827.77	1.520
827.95	1.517
828.12	1.577
828.30	1.319
828.47	1.405
828.65	1.123
828.82	1.165
829.00	1.188
829.17	1.247
829.34	1.269
829.52	1.295
829.69	-0.000
829.87	-0.000
830.04	-0.000
830.22	-0.000
830.39	-0.000
830.57	-0.000
830.74	-0.000
830.92	-0.000
831.09	-0.000
831.26	-0.000
831.44	-0.000
831.61	-0.000
831.79	-0.000
831.96	-0.000
832.14	-0.000
832.31	-0.000
832.49	-0.000
832.66	-0.000
832.83	-0.000
833.01	-0.000
833.18	-0.000
833.36	-0.000
833.53	-0.000
833.70	-0.000
833.88	-0.000
834.05	-0.000
834.23	-0.000
834.40	-0.000
834.58	-0.000
834.75	-0.000
834.92	-0.000
835.10	-0.000
835.27	-0.000
835.45	-0.000
835.62	-0.000
835.79	-0.000
835.97	-0.000
836.14	-0.000
836.32	-0.000
836.49	-0.000
836.66	-0.000
836.84	-0.000
837.01	-0.000
837.18	-0.000
837.36	-0.000
837.53	-0.000
837.71	-0.000
837.88	-0.000
838.05	-0.000
838.23	-0.000
838.40	-0.000
838.58	-0.000
838.75	-0.000
838.92	-0.000
839.10	-0.000
839.27	-0.000
839.44	-0.000
839.62	-0.000
839.79	-0.000
839.96	-0.000
840.14	-0.000
840.31	-0.000
840.48	-0.000
840.66	-0.000
840.83	-0.000
841.01	-0.000
841.18	-0.000
841.35	-0.000
841.53	-0.000
841.70	-0.000
841.87	-0.000
842.05	-0.000
842.22	-0.000
842.39	-0.000
842.57	-0.000
842.74	-0.000
842.91	-0.000
843.09	-0.000
843.26	-0.000
843.43	-0.000
843.60	-0.000
843.78	-0.000
843.95	-0.000
844.12	-0.000
844.30	-0.000
844.47	-0.000
844.64	-0.000
844.82	-0.000
844.99	-0.000
845.16	-0.000
845.34	-0.000
845.51	-0.000
845.68	-0.000
845.85	-0.000
846.03	-0.000
846.20	-0.000
846.37	-0.000
846.55	-0.000
846.72	-0.000
846.89	-0.000
847.06	-0.000
847.24	-0.000
847.41	-0.000
847.58	-0.000
847.76	-0.000
847.93	-0.000
848.10	-0.000
848.27	-0.000
848.45	-0.000
848.62	-0.000
848.79	-0.000
848.97	-0.000
849.14	-0.000
849.31	-0.000
849.48	-0.000
849.66	-0.000
849.83	-0.000
850.00	-0.000
850.17	-0.000
850.35	-0.000
850.52	-0.000
850.69	-0.000
850.86	-0.000
851.04	-0.000
851.21	-0.000
851.38	-0.000
851.55	-0.000
851.72	-0.000
851.90	-0.000
852.07	-0.000
852.24	-0.000
852.41	-0.000
852.59	-0.000
852.76	-0.000
852.93	-0.000
853.10	-0.000
853.28	-0.000
853.45	-0.000
853.62	-0.000
853.79	-0.000
853.96	-0.000
854.14	-0.000
854.31	-0.000
854.48	-0.000
854.65	-0.000
854.82	-0.000
855.00	-0.000
855.17	-0.000
855.34	-0.000
855.51	-0.000
855.68	-0.000
855.86	-0.000
856.03	-0.000
856.20	-0.000
856.37	-0.000
856.54	-0.000
856.72	-0.000
856.89	-0.000
857.06	-0.000
857.23	-0.000
857.40	-0.000
857.57	-0.000
857.75	-0.000
857.92	-0.000
858.09	-0.000
858.26	-0.000
858.43	-0.000
858.60	-0.000
858.78	-0.000
858.95	-0.000
859.12	-0.000
859.29	-0.000
859.46	-0.000
859.63	-0.000
859.81	-0.000
859.98	-0.000
860.15	-0.000
860.32	-0.000
860.49	-0.000
860.66	-0.000
860.83	-0.000
861.01	-0.000
861.18	-0.000
861.35	-0.000
861.52	-0.000
861.69	-0.000
861.86	-0.000
862.03	-0.000
862.21	-0.000
862.38	-0.000
862.55	-0.000
862.72	-0.000
862.89	-0.000
863.06	-0.000
863.23	-0.000
863.40	-0.000
863.58	-0.000
863.75	-0.000
863.92	-0.000
864.09	-0.000
864.26	-0.000
864.43	-0.000
864.60	-0.000
864.77	-0.000
864.94	-0.000
865.11	-0.000
865.29	-0.000
865.46	-0.000
865.63	-0.000
865.80	-0.000
865.97	-0.000
866.14	-0.000
866.31	-0.000
866.48	-0.000
866.65	-0.000
866.82	-0.000
866.99	-0.000
867.16	-0.000
867.34	-0.000
867.51	-0.000
867.68	-0.000
867.85	-0.000
868.02	-0.000
868.19	-0.000
868.36	-0.000
868.53	-0.000
868.70	-0.000
868.87	-0.000
869.04	-0.000
869.21	-0.000
869.38	-0.000
869.55	-0.000
869.72	-0.000
869.89	-0.000
870.06	-0.000
870.24	-0.000
870.41	-0.000
870.58	-0.000
870.75	-0.000
870.92	-0.000
871.09	-0.000
871.26	-0.000
871.43	-0.000
871.60	-0.000
871.77	-0.000
871.94	-0.000
872.11	-0.000
872.28	-0.000
872.45	-0.000
872.62	-0.000
872.79	-0.000
872.96	-0.000
873.13	-0.000
873.30	-0.000
873.47	-0.000
873.64	-0.000
873.81	-0.000
873.98	-0.000
874.15	-0.000
874.32	-0.000
874.49	-0.000
874.66	-0.000
874.83	-0.000
875.00	-0.000
875.17	-0.000
875.34	-0.000
875.51	-0.000
875.68	-0.000
875.85	-0.000
876.02	-0.000
876.19	-0.000
876.36	-0.000
876.53	-0.000
876.70	-0.000
876.87	-0.000
877.04	-0.000
877.21	-0.000
877.38	-0.000
877.55	-0.000
877.72	-0.000
877.89	-0.000
878.06	-0.000
878.23	-0.000
878.39	-0.000
878.56	-0.000
878.73	-0.000
878.90	-0.000
879.07	-0.000
879.24	-0.000
879.41	-0.000
879.58	-0.000
879.75	-0.000
879.92	-0.000
880.09	-0.000
880.26	-0.000
880.43	-0.000
880.60	-0.000
880.77	-0.000
880.94	-0.000
881.11	-0.000
881.27	-0.000
881.44	-0.000
881.61	-0.000
881.78	-0.000
881.95	-0.000
882.12	-0.000
882.29	-0.000
882.46	-0.000
882.63	-0.000
882.80	-0.000
882.97	-0.000
883.14	-0.000
883.30	-0.000
883.47	-0.000
883.64	-0.000
883.81	-0.000
883.98	-0.000
884.15	-0.000
884.32	-0.000
884.49	-0.000
884.66	-0.000
884.82	-0.000
884.99	-0.000
885.16	-0.000
885.33	-0.000
885.50	-0.000
885.67	-0.000
885.84	-0.000
886.01	-0.000
886.17	-0.000
886.34	-0.000
886.51	-0.000
886.68	-0.000
886.85	-0.000
887.02	-0.000
887.19	-0.000
887.36	-0.000
887.52	-0.000
887.69	-0.000
887.86	-0.000
888.03	-0.000
888.20	-0.000
888.37	-0.000
888.54	-0.000
888.70	-0.000
888.87	-0.000
889.04	-0.000
889.21	-0.000
889.38	-0.000
889.55	-0.000
889.71	-0.000
889.88	-0.000
890.05	-0.000
890.22	-0.000
890.39	-0.000
>>>>>End Processed Spectral Data<<<<<
