SpectraSuite Data File
++++++++++++++++++++++++++++++++++++
Date: Fri Jun 19 15:52:02 CEST 2015
User: introlabs
Dark Spectrum Present: Yes
Reference Spectrum Present: Yes
Number of Sampled Component Spectra: 1
Spectrometers: USB4H08886
Integration Time (usec): 745692 (USB4H08886)
Spectra Averaged: 5 (USB4H08886)
Boxcar Smoothing: 5 (USB4H08886)
Correct for Electrical Dark: Yes (USB4H08886)
Strobe/Lamp Enabled: No (USB4H08886)
Correct for Detector Non-linearity: Yes (USB4H08886)
Correct for Stray Light: Yes (USB4H08886)
Number of Pixels in Processed Spectrum: 3648
>>>>>Begin Processed Spectral Data<<<<<
178.14	-0.000
178.36	-0.000
178.57	-0.000
178.79	-0.000
179.01	-0.000
179.22	-0.000
179.44	-0.000
179.65	-0.000
179.87	-0.000
180.08	-0.000
180.30	-0.000
180.52	-0.000
180.73	-0.000
180.95	-0.000
181.16	-0.000
181.38	-0.000
181.59	-0.000
181.81	-0.000
182.03	-0.000
182.24	-0.000
182.46	-0.000
182.67	-0.000
182.89	-0.000
183.10	-0.000
183.32	-0.000
183.54	-0.000
183.75	-0.000
183.97	-0.000
184.18	-0.000
184.40	-0.000
184.61	-0.000
184.83	-0.000
185.04	-0.000
185.26	-0.000
185.48	-0.000
185.69	-0.000
185.91	-0.000
186.12	-0.000
186.34	-0.000
186.55	-0.000
186.77	-0.000
186.98	-0.000
187.20	-0.000
187.42	-0.000
187.63	-0.000
187.85	-0.000
188.06	-0.000
188.28	-0.000
188.49	-0.000
188.71	-0.000
188.92	-0.000
189.14	-0.000
189.36	-0.000
189.57	-0.000
189.79	-0.000
190.00	-0.000
190.22	-0.000
190.43	-0.000
190.65	-0.000
190.86	-0.000
191.08	-0.000
191.29	-0.000
191.51	-0.000
191.72	-0.000
191.94	-0.000
192.16	-0.000
192.37	-0.000
192.59	-0.000
192.80	-0.000
193.02	-0.000
193.23	-0.000
193.45	-0.000
193.66	-0.000
193.88	-0.000
194.09	-0.000
194.31	-0.000
194.52	-0.000
194.74	-0.000
194.95	-0.000
195.17	-0.000
195.38	-0.000
195.60	-0.000
195.81	-0.000
196.03	-0.000
196.25	-0.000
196.46	-0.000
196.68	-0.000
196.89	-0.000
197.11	-0.000
197.32	-0.000
197.54	-0.000
197.75	-0.000
197.97	-0.000
198.18	-0.000
198.40	-0.000
198.61	-0.000
198.83	-0.000
199.04	-0.000
199.26	-0.000
199.47	-0.000
199.69	-0.000
199.90	-0.000
200.12	-0.000
200.33	-0.000
200.55	-0.000
200.76	-0.000
200.98	-0.000
201.19	-0.000
201.41	-0.000
201.62	-0.000
201.84	-0.000
202.05	-0.000
202.27	-0.000
202.48	-0.000
202.70	-0.000
202.91	-0.000
203.13	-0.000
203.34	-0.000
203.56	-0.000
203.77	-0.000
203.99	-0.000
204.20	-0.000
204.42	-0.000
204.63	-0.000
204.85	-0.000
205.06	-0.000
205.28	-0.000
205.49	-0.000
205.71	-0.000
205.92	-0.000
206.14	-0.000
206.35	-0.000
206.56	-0.000
206.78	-0.000
206.99	-0.000
207.21	-0.000
207.42	-0.000
207.64	-0.000
207.85	-0.000
208.07	-0.000
208.28	-0.000
208.50	-0.000
208.71	-0.000
208.93	-0.000
209.14	-0.000
209.36	-0.000
209.57	-0.000
209.79	-0.000
210.00	-0.000
210.22	-0.000
210.43	-0.000
210.64	-0.000
210.86	-0.000
211.07	-0.000
211.29	-0.000
211.50	-0.000
211.72	-0.000
211.93	-0.000
212.15	-0.000
212.36	-0.000
212.58	-0.000
212.79	-0.000
213.01	-0.000
213.22	-0.000
213.43	-0.000
213.65	-0.000
213.86	-0.000
214.08	-0.000
214.29	-0.000
214.51	-0.000
214.72	-0.000
214.94	-0.000
215.15	-0.000
215.36	-0.000
215.58	-0.000
215.79	-0.000
216.01	-0.000
216.22	-0.000
216.44	-0.000
216.65	-0.000
216.87	-0.000
217.08	-0.000
217.29	-0.000
217.51	-0.000
217.72	-0.000
217.94	-0.000
218.15	-0.000
218.37	-0.000
218.58	-0.000
218.80	-0.000
219.01	-0.000
219.22	-0.000
219.44	-0.000
219.65	-0.000
219.87	-0.000
220.08	-0.000
220.30	-0.000
220.51	-0.000
220.72	-0.000
220.94	-0.000
221.15	-0.000
221.37	-0.000
221.58	-0.000
221.79	-0.000
222.01	-0.000
222.22	-0.000
222.44	-0.000
222.65	-0.000
222.87	-0.000
223.08	-0.000
223.29	-0.000
223.51	-0.000
223.72	-0.000
223.94	-0.000
224.15	-0.000
224.36	-0.000
224.58	-0.000
224.79	-0.000
225.01	-0.000
225.22	-0.000
225.44	-0.000
225.65	-0.000
225.86	-0.000
226.08	-0.000
226.29	-0.000
226.51	-0.000
226.72	-0.000
226.93	-0.000
227.15	-0.000
227.36	-0.000
227.58	-0.000
227.79	-0.000
228.00	-0.000
228.22	-0.000
228.43	-0.000
228.65	-0.000
228.86	-0.000
229.07	-0.000
229.29	-0.000
229.50	-0.000
229.72	-0.000
229.93	-0.000
230.14	-0.000
230.36	-0.000
230.57	-0.000
230.78	-0.000
231.00	-0.000
231.21	-0.000
231.43	-0.000
231.64	-0.000
231.85	-0.000
232.07	-0.000
232.28	-0.000
232.50	-0.000
232.71	-0.000
232.92	-0.000
233.14	-0.000
233.35	-0.000
233.56	-0.000
233.78	-0.000
233.99	-0.000
234.21	-0.000
234.42	-0.000
234.63	-0.000
234.85	-0.000
235.06	-0.000
235.27	-0.000
235.49	-0.000
235.70	-0.000
235.91	-0.000
236.13	-0.000
236.34	-0.000
236.56	-0.000
236.77	-0.000
236.98	-0.000
237.20	-0.000
237.41	-0.000
237.62	-0.000
237.84	-0.000
238.05	-0.000
238.26	-0.000
238.48	-0.000
238.69	-0.000
238.91	-0.000
239.12	-0.000
239.33	-0.000
239.55	-0.000
239.76	-0.000
239.97	-0.000
240.19	-0.000
240.40	-0.000
240.61	-0.000
240.83	-0.000
241.04	-0.000
241.25	-0.000
241.47	-0.000
241.68	-0.000
241.89	-0.000
242.11	-0.000
242.32	-0.000
242.53	-0.000
242.75	-0.000
242.96	-0.000
243.17	-0.000
243.39	-0.000
243.60	-0.000
243.81	-0.000
244.03	-0.000
244.24	-0.000
244.45	-0.000
244.67	-0.000
244.88	-0.000
245.09	-0.000
245.31	-0.000
245.52	-0.000
245.73	-0.000
245.95	-0.000
246.16	-0.000
246.37	-0.000
246.59	-0.000
246.80	-0.000
247.01	-0.000
247.23	-0.000
247.44	-0.000
247.65	-0.000
247.87	-0.000
248.08	-0.000
248.29	-0.000
248.51	-0.000
248.72	-0.000
248.93	-0.000
249.15	-0.000
249.36	-0.000
249.57	-0.000
249.78	-0.000
250.00	-0.000
250.21	-0.000
250.42	-0.000
250.64	-0.000
250.85	-0.000
251.06	-0.000
251.28	-0.000
251.49	-0.000
251.70	-0.000
251.92	-0.000
252.13	-0.000
252.34	-0.000
252.55	-0.000
252.77	-0.000
252.98	-0.000
253.19	-0.000
253.41	-0.000
253.62	-0.000
253.83	-0.000
254.05	-0.000
254.26	-0.000
254.47	-0.000
254.68	-0.000
254.90	-0.000
255.11	-0.000
255.32	-0.000
255.54	-0.000
255.75	-0.000
255.96	-0.000
256.17	-0.000
256.39	-0.000
256.60	-0.000
256.81	-0.000
257.03	-0.000
257.24	-0.000
257.45	-0.000
257.66	-0.000
257.88	-0.000
258.09	-0.000
258.30	-0.000
258.51	-0.000
258.73	-0.000
258.94	-0.000
259.15	-0.000
259.37	-0.000
259.58	-0.000
259.79	-0.000
260.00	-0.000
260.22	-0.000
260.43	-0.000
260.64	-0.000
260.85	-0.000
261.07	-0.000
261.28	-0.000
261.49	-0.000
261.71	-0.000
261.92	-0.000
262.13	-0.000
262.34	-0.000
262.56	-0.000
262.77	-0.000
262.98	-0.000
263.19	-0.000
263.41	-0.000
263.62	-0.000
263.83	-0.000
264.04	-0.000
264.26	-0.000
264.47	-0.000
264.68	-0.000
264.89	-0.000
265.11	-0.000
265.32	-0.000
265.53	-0.000
265.74	-0.000
265.96	-0.000
266.17	-0.000
266.38	-0.000
266.59	-0.000
266.81	-0.000
267.02	-0.000
267.23	-0.000
267.44	-0.000
267.65	-0.000
267.87	-0.000
268.08	-0.000
268.29	-0.000
268.50	-0.000
268.72	-0.000
268.93	-0.000
269.14	-0.000
269.35	-0.000
269.57	-0.000
269.78	-0.000
269.99	-0.000
270.20	-0.000
270.41	-0.000
270.63	-0.000
270.84	-0.000
271.05	-0.000
271.26	-0.000
271.48	-0.000
271.69	-0.000
271.90	-0.000
272.11	-0.000
272.32	-0.000
272.54	-0.000
272.75	-0.000
272.96	-0.000
273.17	-0.000
273.39	-0.000
273.60	-0.000
273.81	-0.000
274.02	-0.000
274.23	-0.000
274.45	-0.000
274.66	-0.000
274.87	-0.000
275.08	-0.000
275.29	-0.000
275.51	-0.000
275.72	-0.000
275.93	-0.000
276.14	-0.000
276.35	-0.000
276.57	-0.000
276.78	-0.000
276.99	-0.000
277.20	-0.000
277.41	-0.000
277.63	-0.000
277.84	-0.000
278.05	-0.000
278.26	-0.000
278.47	-0.000
278.69	-0.000
278.90	-0.000
279.11	-0.000
279.32	-0.000
279.53	-0.000
279.74	-0.000
279.96	-0.000
280.17	-0.000
280.38	-0.000
280.59	-0.000
280.80	-0.000
281.02	-0.000
281.23	-0.000
281.44	-0.000
281.65	-0.000
281.86	-0.000
282.07	-0.000
282.29	-0.000
282.50	-0.000
282.71	-0.000
282.92	-0.000
283.13	-0.000
283.35	-0.000
283.56	-0.000
283.77	-0.000
283.98	-0.000
284.19	-0.000
284.40	-0.000
284.62	-0.000
284.83	-0.000
285.04	-0.000
285.25	-0.000
285.46	-0.000
285.67	-0.000
285.88	-0.000
286.10	-0.000
286.31	-0.000
286.52	-0.000
286.73	-0.000
286.94	-0.000
287.15	-0.000
287.37	-0.000
287.58	-0.000
287.79	-0.000
288.00	-0.000
288.21	-0.000
288.42	-0.000
288.63	-0.000
288.85	-0.000
289.06	-0.000
289.27	-0.000
289.48	-0.000
289.69	-0.000
289.90	-0.000
290.11	-0.000
290.33	-0.000
290.54	-0.000
290.75	-0.000
290.96	-0.000
291.17	-0.000
291.38	-0.000
291.59	-0.000
291.81	-0.000
292.02	-0.000
292.23	-0.000
292.44	-0.000
292.65	-0.000
292.86	-0.000
293.07	-0.000
293.28	-0.000
293.50	-0.000
293.71	-0.000
293.92	-0.000
294.13	-0.000
294.34	-0.000
294.55	-0.000
294.76	-0.000
294.97	-0.000
295.19	-0.000
295.40	-0.000
295.61	-0.000
295.82	-0.000
296.03	3.826
296.24	-0.000
296.45	1.992
296.66	1.749
296.87	1.764
297.09	1.806
297.30	1.978
297.51	1.684
297.72	1.666
297.93	1.725
298.14	1.692
298.35	1.661
298.56	1.633
298.77	1.722
298.99	1.694
299.20	1.683
299.41	1.661
299.62	1.613
299.83	1.598
300.04	1.544
300.25	1.542
300.46	1.567
300.67	1.551
300.88	1.519
301.10	1.532
301.31	1.589
301.52	1.531
301.73	1.489
301.94	1.489
302.15	1.500
302.36	1.465
302.57	1.408
302.78	1.416
302.99	1.451
303.20	1.470
303.41	1.386
303.63	1.372
303.84	1.376
304.05	1.374
304.26	1.326
304.47	1.332
304.68	1.329
304.89	1.324
305.10	1.293
305.31	1.275
305.52	1.314
305.73	1.311
305.94	1.276
306.15	1.269
306.37	1.286
306.58	1.293
306.79	1.268
307.00	1.293
307.21	1.329
307.42	1.325
307.63	1.295
307.84	1.261
308.05	1.294
308.26	1.295
308.47	1.279
308.68	1.273
308.89	1.271
309.10	1.269
309.31	1.228
309.52	1.216
309.73	1.224
309.95	1.217
310.16	1.189
310.37	1.178
310.58	1.196
310.79	1.192
311.00	1.191
311.21	1.188
311.42	1.185
311.63	1.183
311.84	1.172
312.05	1.172
312.26	1.191
312.47	1.204
312.68	1.182
312.89	1.164
313.10	1.165
313.31	1.140
313.52	1.147
313.73	1.150
313.94	1.150
314.15	1.132
314.36	1.112
314.57	1.105
314.78	1.091
314.99	1.085
315.21	1.075
315.42	1.082
315.63	1.092
315.84	1.070
316.05	1.058
316.26	1.064
316.47	1.080
316.68	1.079
316.89	1.064
317.10	1.085
317.31	1.089
317.52	1.090
317.73	1.074
317.94	1.074
318.15	1.114
318.36	1.113
318.57	1.100
318.78	1.086
318.99	1.119
319.20	1.117
319.41	1.085
319.62	1.086
319.83	1.100
320.04	1.092
320.25	1.082
320.46	1.049
320.67	1.051
320.88	1.047
321.09	1.035
321.30	1.020
321.51	1.033
321.72	1.031
321.93	1.017
322.14	1.008
322.35	1.034
322.56	1.035
322.77	1.024
322.98	1.036
323.19	1.040
323.40	1.048
323.61	1.028
323.82	1.022
324.03	1.026
324.24	1.025
324.45	1.014
324.66	0.994
324.87	0.988
325.08	0.987
325.29	0.970
325.50	0.963
325.71	0.967
325.92	0.974
326.13	0.960
326.34	0.961
326.55	0.967
326.76	0.965
326.97	0.957
327.18	0.954
327.39	0.977
327.60	0.977
327.80	0.980
328.01	0.978
328.22	0.976
328.43	0.981
328.64	0.970
328.85	0.974
329.06	0.975
329.27	0.973
329.48	0.969
329.69	0.952
329.90	0.962
330.11	0.955
330.32	0.950
330.53	0.944
330.74	0.941
330.95	0.940
331.16	0.927
331.37	0.935
331.58	0.936
331.79	0.935
332.00	0.928
332.21	0.922
332.42	0.925
332.63	0.915
332.83	0.912
333.04	0.917
333.25	0.928
333.46	0.928
333.67	0.914
333.88	0.916
334.09	0.926
334.30	0.922
334.51	0.913
334.72	0.908
334.93	0.911
335.14	0.911
335.35	0.905
335.56	0.900
335.77	0.906
335.98	0.904
336.18	0.900
336.39	0.891
336.60	0.894
336.81	0.893
337.02	0.894
337.23	0.899
337.44	0.900
337.65	0.901
337.86	0.892
338.07	0.886
338.28	0.891
338.49	0.888
338.70	0.882
338.91	0.890
339.11	0.896
339.32	0.892
339.53	0.881
339.74	0.879
339.95	0.874
340.16	0.873
340.37	0.867
340.58	0.865
340.79	0.867
341.00	0.867
341.21	0.857
341.41	0.856
341.62	0.858
341.83	0.858
342.04	0.854
342.25	0.866
342.46	0.869
342.67	0.868
342.88	0.862
343.09	0.862
343.30	0.868
343.50	0.869
343.71	0.862
343.92	0.860
344.13	0.864
344.34	0.865
344.55	0.849
344.76	0.847
344.97	0.851
345.18	0.849
345.38	0.848
345.59	0.843
345.80	0.843
346.01	0.840
346.22	0.836
346.43	0.830
346.64	0.835
346.85	0.835
347.06	0.828
347.26	0.827
347.47	0.831
347.68	0.826
347.89	0.822
348.10	0.816
348.31	0.822
348.52	0.821
348.73	0.820
348.93	0.819
349.14	0.820
349.35	0.820
349.56	0.816
349.77	0.811
349.98	0.816
350.19	0.814
350.39	0.811
350.60	0.807
350.81	0.822
351.02	0.820
351.23	0.816
351.44	0.819
351.65	0.822
351.86	0.818
352.06	0.818
352.27	0.818
352.48	0.818
352.69	0.818
352.90	0.814
353.11	0.800
353.31	0.807
353.52	0.803
353.73	0.796
353.94	0.797
354.15	0.801
354.36	0.802
354.57	0.794
354.77	0.796
354.98	0.795
355.19	0.795
355.40	0.795
355.61	0.800
355.82	0.803
356.02	0.802
356.23	0.797
356.44	0.799
356.65	0.801
356.86	0.800
357.07	0.794
357.27	0.797
357.48	0.799
357.69	0.794
357.90	0.780
358.11	0.777
358.32	0.779
358.52	0.782
358.73	0.773
358.94	0.776
359.15	0.781
359.36	0.781
359.56	0.777
359.77	0.774
359.98	0.781
360.19	0.780
360.40	0.777
360.61	0.778
360.81	0.776
361.02	0.776
361.23	0.768
361.44	0.767
361.65	0.768
361.85	0.767
362.06	0.765
362.27	0.768
362.48	0.767
362.69	0.769
362.89	0.764
363.10	0.765
363.31	0.769
363.52	0.773
363.73	0.768
363.93	0.767
364.14	0.769
364.35	0.771
364.56	0.760
364.77	0.762
364.97	0.764
365.18	0.764
365.39	0.759
365.60	0.755
365.81	0.755
366.01	0.755
366.22	0.752
366.43	0.752
366.64	0.753
366.84	0.758
367.05	0.756
367.26	0.755
367.47	0.756
367.68	0.756
367.88	0.754
368.09	0.752
368.30	0.754
368.51	0.754
368.71	0.753
368.92	0.757
369.13	0.755
369.34	0.753
369.55	0.753
369.75	0.753
369.96	0.759
370.17	0.759
370.38	0.757
370.58	0.756
370.79	0.761
371.00	0.761
371.21	0.753
371.41	0.758
371.62	0.762
371.83	0.758
372.04	0.757
372.24	0.751
372.45	0.751
372.66	0.751
372.87	0.749
373.07	0.745
373.28	0.745
373.49	0.749
373.70	0.740
373.90	0.739
374.11	0.748
374.32	0.747
374.53	0.747
374.73	0.748
374.94	0.750
375.15	0.749
375.36	0.748
375.56	0.756
375.77	0.754
375.98	0.755
376.19	0.753
376.39	0.747
376.60	0.750
376.81	0.751
377.02	0.749
377.22	0.748
377.43	0.749
377.64	0.749
377.84	0.741
378.05	0.745
378.26	0.750
378.47	0.749
378.67	0.747
378.88	0.744
379.09	0.743
379.30	0.744
379.50	0.742
379.71	0.743
379.92	0.745
380.12	0.744
380.33	0.737
380.54	0.734
380.75	0.741
380.95	0.740
381.16	0.739
381.37	0.739
381.57	0.740
381.78	0.740
381.99	0.741
382.20	0.741
382.40	0.744
382.61	0.744
382.82	0.741
383.02	0.735
383.23	0.738
383.44	0.738
383.64	0.737
383.85	0.740
384.06	0.742
384.27	0.740
384.47	0.738
384.68	0.738
384.89	0.744
385.09	0.744
385.30	0.744
385.51	0.744
385.71	0.747
385.92	0.747
386.13	0.746
386.33	0.748
386.54	0.748
386.75	0.748
386.95	0.745
387.16	0.740
387.37	0.741
387.58	0.741
387.78	0.739
387.99	0.735
388.20	0.737
388.40	0.733
388.61	0.729
388.82	0.734
389.02	0.735
389.23	0.735
389.44	0.734
389.64	0.735
389.85	0.746
390.06	0.746
390.26	0.747
390.47	0.747
390.68	0.749
390.88	0.748
391.09	0.743
391.30	0.743
391.50	0.743
391.71	0.743
391.92	0.741
392.12	0.733
392.33	0.734
392.53	0.733
392.74	0.735
392.95	0.735
393.15	0.737
393.36	0.739
393.57	0.737
393.77	0.740
393.98	0.741
394.19	0.741
394.39	0.741
394.60	0.742
394.81	0.744
395.01	0.742
395.22	0.740
395.43	0.742
395.63	0.745
395.84	0.746
396.04	0.743
396.25	0.745
396.46	0.747
396.66	0.746
396.87	0.744
397.08	0.742
397.28	0.744
397.49	0.745
397.69	0.742
397.90	0.737
398.11	0.737
398.31	0.737
398.52	0.734
398.73	0.736
398.93	0.735
399.14	0.733
399.34	0.733
399.55	0.733
399.76	0.733
399.96	0.734
400.17	0.733
400.37	0.732
400.58	0.738
400.79	0.739
400.99	0.736
401.20	0.741
401.41	0.743
401.61	0.744
401.82	0.749
402.02	0.749
402.23	0.751
402.44	0.751
402.64	0.752
402.85	0.747
403.05	0.746
403.26	0.745
403.47	0.740
403.67	0.739
403.88	0.740
404.08	0.733
404.29	0.732
404.50	0.731
404.70	0.730
404.91	0.729
405.11	0.726
405.32	0.727
405.52	0.727
405.73	0.726
405.94	0.725
406.14	0.728
406.35	0.730
406.55	0.729
406.76	0.728
406.97	0.729
407.17	0.732
407.38	0.731
407.58	0.730
407.79	0.732
407.99	0.735
408.20	0.736
408.41	0.732
408.61	0.730
408.82	0.730
409.02	0.731
409.23	0.729
409.43	0.727
409.64	0.728
409.84	0.728
410.05	0.725
410.26	0.723
410.46	0.722
410.67	0.722
410.87	0.725
411.08	0.727
411.28	0.727
411.49	0.728
411.69	0.726
411.90	0.728
412.11	0.729
412.31	0.730
412.52	0.729
412.72	0.730
412.93	0.730
413.13	0.728
413.34	0.725
413.54	0.727
413.75	0.729
413.95	0.729
414.16	0.726
414.37	0.729
414.57	0.729
414.78	0.731
414.98	0.729
415.19	0.730
415.39	0.728
415.60	0.730
415.80	0.730
416.01	0.727
416.21	0.728
416.42	0.729
416.62	0.724
416.83	0.724
417.03	0.723
417.24	0.723
417.44	0.721
417.65	0.721
417.86	0.721
418.06	0.719
418.27	0.718
418.47	0.719
418.68	0.720
418.88	0.721
419.09	0.719
419.29	0.720
419.50	0.720
419.70	0.719
419.91	0.718
420.11	0.715
420.32	0.718
420.52	0.718
420.73	0.717
420.93	0.717
421.14	0.718
421.34	0.717
421.55	0.714
421.75	0.715
421.96	0.715
422.16	0.716
422.37	0.715
422.57	0.712
422.78	0.713
422.98	0.710
423.19	0.707
423.39	0.706
423.60	0.709
423.80	0.710
424.01	0.708
424.21	0.711
424.42	0.711
424.62	0.711
424.83	0.710
425.03	0.710
425.23	0.712
425.44	0.713
425.64	0.713
425.85	0.712
426.05	0.713
426.26	0.714
426.46	0.710
426.67	0.710
426.87	0.714
427.08	0.714
427.28	0.713
427.49	0.713
427.69	0.714
427.90	0.713
428.10	0.710
428.31	0.710
428.51	0.711
428.71	0.710
428.92	0.711
429.12	0.709
429.33	0.709
429.53	0.713
429.74	0.718
429.94	0.718
430.15	0.717
430.35	0.717
430.56	0.713
430.76	0.712
430.96	0.713
431.17	0.710
431.37	0.707
431.58	0.705
431.78	0.701
431.99	0.694
432.19	0.696
432.40	0.699
432.60	0.699
432.80	0.701
433.01	0.700
433.21	0.700
433.42	0.702
433.62	0.702
433.83	0.702
434.03	0.705
434.23	0.707
434.44	0.706
434.64	0.703
434.85	0.708
435.05	0.709
435.26	0.710
435.46	0.709
435.66	0.708
435.87	0.708
436.07	0.709
436.28	0.704
436.48	0.701
436.69	0.701
436.89	0.701
437.09	0.695
437.30	0.693
437.50	0.693
437.71	0.705
437.91	0.705
438.11	0.705
438.32	0.709
438.52	0.709
438.73	0.709
438.93	0.707
439.13	0.706
439.34	0.710
439.54	0.707
439.75	0.708
439.95	0.696
440.15	0.700
440.36	0.699
440.56	0.697
440.77	0.697
440.97	0.697
441.17	0.696
441.38	0.698
441.58	0.695
441.79	0.695
441.99	0.693
442.19	0.692
442.40	0.689
442.60	0.689
442.81	0.686
443.01	0.687
443.21	0.687
443.42	0.687
443.62	0.685
443.82	0.685
444.03	0.685
444.23	0.686
444.44	0.686
444.64	0.685
444.84	0.687
445.05	0.686
445.25	0.684
445.45	0.684
445.66	0.686
445.86	0.685
446.06	0.686
446.27	0.686
446.47	0.689
446.68	0.687
446.88	0.685
447.08	0.684
447.29	0.686
447.49	0.686
447.69	0.686
447.90	0.684
448.10	0.688
448.30	0.685
448.51	0.687
448.71	0.684
448.91	0.686
449.12	0.685
449.32	0.687
449.52	0.686
449.73	0.689
449.93	0.688
450.14	0.689
450.34	0.688
450.54	0.690
450.75	0.687
450.95	0.686
451.15	0.686
451.36	0.688
451.56	0.685
451.76	0.684
451.97	0.680
452.17	0.680
452.37	0.679
452.58	0.675
452.78	0.675
452.98	0.677
453.19	0.676
453.39	0.677
453.59	0.675
453.79	0.676
454.00	0.677
454.20	0.676
454.40	0.677
454.61	0.678
454.81	0.679
455.01	0.677
455.22	0.678
455.42	0.679
455.62	0.677
455.83	0.677
456.03	0.679
456.23	0.680
456.44	0.680
456.64	0.680
456.84	0.679
457.04	0.680
457.25	0.680
457.45	0.677
457.65	0.677
457.86	0.677
458.06	0.676
458.26	0.672
458.47	0.672
458.67	0.673
458.87	0.673
459.07	0.671
459.28	0.673
459.48	0.675
459.68	0.674
459.89	0.673
460.09	0.672
460.29	0.673
460.49	0.674
460.70	0.672
460.90	0.672
461.10	0.672
461.31	0.672
461.51	0.670
461.71	0.671
461.91	0.672
462.12	0.672
462.32	0.672
462.52	0.672
462.72	0.675
462.93	0.676
463.13	0.675
463.33	0.676
463.53	0.677
463.74	0.676
463.94	0.672
464.14	0.673
464.35	0.673
464.55	0.673
464.75	0.671
464.95	0.669
465.16	0.670
465.36	0.669
465.56	0.668
465.76	0.668
465.97	0.667
466.17	0.668
466.37	0.667
466.57	0.668
466.78	0.668
466.98	0.669
467.18	0.667
467.38	0.666
467.59	0.667
467.79	0.668
467.99	0.667
468.19	0.668
468.39	0.670
468.60	0.670
468.80	0.668
469.00	0.670
469.20	0.670
469.41	0.671
469.61	0.670
469.81	0.671
470.01	0.671
470.22	0.671
470.42	0.669
470.62	0.668
470.82	0.668
471.02	0.668
471.23	0.666
471.43	0.667
471.63	0.669
471.83	0.668
472.04	0.667
472.24	0.666
472.44	0.671
472.64	0.671
472.84	0.670
473.05	0.670
473.25	0.672
473.45	0.671
473.65	0.670
473.85	0.670
474.06	0.671
474.26	0.670
474.46	0.672
474.66	0.667
474.86	0.668
475.07	0.668
475.27	0.667
475.47	0.664
475.67	0.665
475.87	0.667
476.08	0.664
476.28	0.665
476.48	0.666
476.68	0.665
476.88	0.663
477.09	0.664
477.29	0.665
477.49	0.665
477.69	0.665
477.89	0.665
478.09	0.664
478.30	0.666
478.50	0.664
478.70	0.663
478.90	0.664
479.10	0.666
479.31	0.668
479.51	0.665
479.71	0.665
479.91	0.665
480.11	0.664
480.31	0.664
480.52	0.663
480.72	0.663
480.92	0.662
481.12	0.660
481.32	0.657
481.52	0.655
481.72	0.656
481.93	0.659
482.13	0.659
482.33	0.659
482.53	0.657
482.73	0.658
482.93	0.660
483.14	0.659
483.34	0.659
483.54	0.659
483.74	0.659
483.94	0.658
484.14	0.654
484.34	0.654
484.55	0.654
484.75	0.654
484.95	0.652
485.15	0.651
485.35	0.651
485.55	0.651
485.75	0.649
485.96	0.650
486.16	0.651
486.36	0.651
486.56	0.649
486.76	0.649
486.96	0.649
487.16	0.648
487.36	0.647
487.57	0.646
487.77	0.646
487.97	0.646
488.17	0.644
488.37	0.643
488.57	0.643
488.77	0.644
488.97	0.642
489.18	0.641
489.38	0.644
489.58	0.644
489.78	0.644
489.98	0.644
490.18	0.644
490.38	0.645
490.58	0.644
490.78	0.644
490.98	0.646
491.19	0.646
491.39	0.646
491.59	0.645
491.79	0.648
491.99	0.648
492.19	0.648
492.39	0.651
492.59	0.651
492.79	0.653
492.99	0.654
493.20	0.654
493.40	0.654
493.60	0.656
493.80	0.654
494.00	0.652
494.20	0.652
494.40	0.652
494.60	0.649
494.80	0.654
495.00	0.652
495.20	0.650
495.40	0.649
495.61	0.651
495.81	0.650
496.01	0.654
496.21	0.655
496.41	0.654
496.61	0.654
496.81	0.653
497.01	0.648
497.21	0.647
497.41	0.647
497.61	0.647
497.81	0.644
498.01	0.644
498.21	0.642
498.41	0.640
498.61	0.641
498.82	0.643
499.02	0.644
499.22	0.645
499.42	0.645
499.62	0.647
499.82	0.647
500.02	0.649
500.22	0.648
500.42	0.649
500.62	0.649
500.82	0.650
501.02	0.648
501.22	0.647
501.42	0.647
501.62	0.649
501.82	0.649
502.02	0.649
502.22	0.648
502.42	0.649
502.62	0.647
502.82	0.647
503.02	0.647
503.22	0.647
503.42	0.645
503.63	0.645
503.83	0.643
504.03	0.641
504.23	0.641
504.43	0.641
504.63	0.642
504.83	0.642
505.03	0.641
505.23	0.643
505.43	0.644
505.63	0.644
505.83	0.644
506.03	0.645
506.23	0.647
506.43	0.647
506.63	0.647
506.83	0.645
507.03	0.647
507.23	0.648
507.43	0.645
507.63	0.646
507.83	0.646
508.03	0.646
508.23	0.646
508.43	0.645
508.63	0.647
508.83	0.647
509.03	0.648
509.23	0.647
509.43	0.648
509.63	0.648
509.83	0.647
510.03	0.650
510.23	0.651
510.43	0.652
510.63	0.652
510.83	0.652
511.03	0.654
511.23	0.651
511.43	0.651
511.63	0.652
511.83	0.654
512.03	0.654
512.22	0.651
512.42	0.650
512.62	0.650
512.82	0.650
513.02	0.649
513.22	0.649
513.42	0.650
513.62	0.653
513.82	0.651
514.02	0.651
514.22	0.652
514.42	0.652
514.62	0.652
514.82	0.653
515.02	0.655
515.22	0.658
515.42	0.657
515.62	0.660
515.82	0.658
516.02	0.660
516.22	0.660
516.42	0.661
516.62	0.662
516.82	0.663
517.01	0.662
517.21	0.661
517.41	0.664
517.61	0.665
517.81	0.661
518.01	0.660
518.21	0.660
518.41	0.659
518.61	0.658
518.81	0.659
519.01	0.659
519.21	0.660
519.41	0.660
519.61	0.654
519.81	0.656
520.00	0.656
520.20	0.656
520.40	0.659
520.60	0.659
520.80	0.659
521.00	0.660
521.20	0.661
521.40	0.665
521.60	0.665
521.80	0.664
522.00	0.665
522.20	0.667
522.39	0.667
522.59	0.664
522.79	0.665
522.99	0.666
523.19	0.665
523.39	0.663
523.59	0.661
523.79	0.664
523.99	0.666
524.19	0.665
524.38	0.663
524.58	0.665
524.78	0.665
524.98	0.664
525.18	0.666
525.38	0.666
525.58	0.667
525.78	0.665
525.98	0.663
526.18	0.663
526.37	0.662
526.57	0.665
526.77	0.664
526.97	0.665
527.17	0.666
527.37	0.662
527.57	0.665
527.77	0.666
527.96	0.667
528.16	0.666
528.36	0.667
528.56	0.668
528.76	0.666
528.96	0.665
529.16	0.666
529.36	0.669
529.55	0.669
529.75	0.665
529.95	0.665
530.15	0.666
530.35	0.668
530.55	0.666
530.75	0.667
530.94	0.668
531.14	0.668
531.34	0.667
531.54	0.666
531.74	0.669
531.94	0.672
532.13	0.670
532.33	0.672
532.53	0.671
532.73	0.670
532.93	0.668
533.13	0.670
533.33	0.669
533.52	0.669
533.72	0.673
533.92	0.671
534.12	0.668
534.32	0.669
534.52	0.667
534.71	0.669
534.91	0.672
535.11	0.673
535.31	0.671
535.51	0.673
535.71	0.675
535.90	0.672
536.10	0.673
536.30	0.675
536.50	0.675
536.70	0.675
536.89	0.673
537.09	0.673
537.29	0.674
537.49	0.675
537.69	0.673
537.89	0.674
538.08	0.674
538.28	0.672
538.48	0.672
538.68	0.674
538.88	0.675
539.07	0.676
539.27	0.674
539.47	0.673
539.67	0.673
539.87	0.674
540.06	0.672
540.26	0.673
540.46	0.674
540.66	0.672
540.86	0.670
541.05	0.669
541.25	0.670
541.45	0.670
541.65	0.669
541.84	0.671
542.04	0.671
542.24	0.672
542.44	0.671
542.64	0.673
542.83	0.675
543.03	0.676
543.23	0.674
543.43	0.675
543.62	0.676
543.82	0.676
544.02	0.675
544.22	0.675
544.42	0.678
544.61	0.679
544.81	0.676
545.01	0.675
545.21	0.678
545.40	0.678
545.60	0.676
545.80	0.680
546.00	0.679
546.19	0.678
546.39	0.678
546.59	0.675
546.79	0.676
546.98	0.676
547.18	0.675
547.38	0.675
547.58	0.678
547.77	0.678
547.97	0.674
548.17	0.676
548.37	0.676
548.56	0.677
548.76	0.677
548.96	0.678
549.16	0.680
549.35	0.680
549.55	0.679
549.75	0.679
549.95	0.681
550.14	0.682
550.34	0.681
550.54	0.686
550.73	0.690
550.93	0.690
551.13	0.687
551.33	0.686
551.52	0.687
551.72	0.687
551.92	0.685
552.12	0.686
552.31	0.686
552.51	0.686
552.71	0.682
552.90	0.681
553.10	0.682
553.30	0.683
553.50	0.682
553.69	0.683
553.89	0.683
554.09	0.683
554.28	0.680
554.48	0.682
554.68	0.683
554.87	0.682
555.07	0.680
555.27	0.680
555.47	0.682
555.66	0.682
555.86	0.681
556.06	0.683
556.25	0.684
556.45	0.691
556.65	0.690
556.84	0.693
557.04	0.696
557.24	0.698
557.43	0.697
557.63	0.700
557.83	0.701
558.02	0.702
558.22	0.706
558.42	0.707
558.61	0.700
558.81	0.700
559.01	0.696
559.21	0.696
559.40	0.697
559.60	0.697
559.80	0.694
559.99	0.696
560.19	0.698
560.39	0.692
560.58	0.690
560.78	0.690
560.97	0.693
561.17	0.692
561.37	0.690
561.56	0.690
561.76	0.691
561.96	0.690
562.15	0.688
562.35	0.689
562.55	0.689
562.74	0.689
562.94	0.688
563.14	0.686
563.33	0.687
563.53	0.687
563.73	0.684
563.92	0.686
564.12	0.688
564.31	0.690
564.51	0.689
564.71	0.691
564.90	0.693
565.10	0.694
565.30	0.698
565.49	0.699
565.69	0.702
565.89	0.703
566.08	0.700
566.28	0.702
566.47	0.704
566.67	0.702
566.87	0.700
567.06	0.702
567.26	0.708
567.46	0.704
567.65	0.703
567.85	0.704
568.04	0.707
568.24	0.707
568.44	0.704
568.63	0.702
568.83	0.703
569.02	0.702
569.22	0.698
569.42	0.694
569.61	0.696
569.81	0.695
570.00	0.693
570.20	0.694
570.40	0.694
570.59	0.694
570.79	0.693
570.98	0.691
571.18	0.692
571.38	0.691
571.57	0.689
571.77	0.687
571.96	0.690
572.16	0.687
572.35	0.683
572.55	0.683
572.75	0.681
572.94	0.681
573.14	0.679
573.33	0.679
573.53	0.679
573.73	0.678
573.92	0.676
574.12	0.674
574.31	0.677
574.51	0.678
574.70	0.676
574.90	0.678
575.09	0.680
575.29	0.681
575.49	0.679
575.68	0.680
575.88	0.681
576.07	0.682
576.27	0.680
576.46	0.679
576.66	0.678
576.86	0.676
577.05	0.674
577.25	0.672
577.44	0.673
577.64	0.672
577.83	0.671
578.03	0.671
578.22	0.671
578.42	0.671
578.61	0.669
578.81	0.669
579.00	0.670
579.20	0.669
579.40	0.669
579.59	0.668
579.79	0.669
579.98	0.668
580.18	0.667
580.37	0.667
580.57	0.669
580.76	0.674
580.96	0.672
581.15	0.673
581.35	0.674
581.54	0.674
581.74	0.673
581.93	0.674
582.13	0.675
582.32	0.672
582.52	0.670
582.71	0.669
582.91	0.665
583.10	0.665
583.30	0.664
583.49	0.663
583.69	0.666
583.88	0.667
584.08	0.666
584.27	0.669
584.47	0.672
584.66	0.674
584.86	0.674
585.05	0.676
585.25	0.679
585.44	0.679
585.64	0.678
585.83	0.675
586.03	0.675
586.22	0.673
586.42	0.668
586.61	0.669
586.81	0.671
587.00	0.670
587.20	0.667
587.39	0.668
587.59	0.669
587.78	0.670
587.98	0.670
588.17	0.671
588.37	0.673
588.56	0.675
588.76	0.672
588.95	0.672
589.15	0.676
589.34	0.678
589.54	0.677
589.73	0.678
589.92	0.681
590.12	0.681
590.31	0.680
590.51	0.686
590.70	0.688
590.90	0.688
591.09	0.686
591.29	0.685
591.48	0.685
591.68	0.686
591.87	0.684
592.06	0.684
592.26	0.685
592.45	0.685
592.65	0.678
592.84	0.677
593.04	0.679
593.23	0.681
593.43	0.679
593.62	0.679
593.81	0.679
594.01	0.678
594.20	0.676
594.40	0.675
594.59	0.676
594.79	0.677
594.98	0.675
595.17	0.675
595.37	0.676
595.56	0.678
595.76	0.677
595.95	0.679
596.14	0.682
596.34	0.684
596.53	0.683
596.73	0.686
596.92	0.687
597.12	0.690
597.31	0.690
597.50	0.689
597.70	0.691
597.89	0.690
598.09	0.687
598.28	0.688
598.47	0.690
598.67	0.689
598.86	0.684
599.06	0.686
599.25	0.686
599.44	0.684
599.64	0.682
599.83	0.679
600.03	0.681
600.22	0.682
600.41	0.681
600.61	0.679
600.80	0.681
601.00	0.681
601.19	0.677
601.38	0.675
601.58	0.677
601.77	0.678
601.96	0.681
602.16	0.681
602.35	0.689
602.55	0.687
602.74	0.688
602.93	0.690
603.13	0.695
603.32	0.697
603.51	0.699
603.71	0.702
603.90	0.703
604.09	0.704
604.29	0.702
604.48	0.696
604.68	0.697
604.87	0.696
605.06	0.692
605.26	0.689
605.45	0.689
605.64	0.688
605.84	0.683
606.03	0.683
606.22	0.681
606.42	0.681
606.61	0.678
606.80	0.678
607.00	0.679
607.19	0.679
607.38	0.677
607.58	0.678
607.77	0.680
607.96	0.680
608.16	0.679
608.35	0.683
608.54	0.685
608.74	0.688
608.93	0.693
609.12	0.696
609.32	0.698
609.51	0.701
609.70	0.700
609.90	0.703
610.09	0.707
610.28	0.712
610.48	0.706
610.67	0.708
610.86	0.709
611.06	0.703
611.25	0.701
611.44	0.703
611.64	0.702
611.83	0.705
612.02	0.702
612.21	0.700
612.41	0.698
612.60	0.698
612.79	0.695
612.99	0.695
613.18	0.696
613.37	0.694
613.57	0.691
613.76	0.693
613.95	0.690
614.14	0.690
614.34	0.687
614.53	0.688
614.72	0.690
614.92	0.690
615.11	0.687
615.30	0.683
615.49	0.684
615.69	0.686
615.88	0.683
616.07	0.684
616.26	0.686
616.46	0.687
616.65	0.684
616.84	0.683
617.04	0.684
617.23	0.688
617.42	0.689
617.61	0.692
617.81	0.693
618.00	0.695
618.19	0.694
618.38	0.697
618.58	0.700
618.77	0.702
618.96	0.702
619.15	0.704
619.35	0.704
619.54	0.706
619.73	0.702
619.92	0.704
620.12	0.709
620.31	0.710
620.50	0.705
620.69	0.706
620.89	0.708
621.08	0.708
621.27	0.708
621.46	0.707
621.66	0.710
621.85	0.710
622.04	0.707
622.23	0.707
622.43	0.708
622.62	0.708
622.81	0.707
623.00	0.707
623.19	0.710
623.39	0.709
623.58	0.707
623.77	0.705
623.96	0.707
624.16	0.707
624.35	0.703
624.54	0.704
624.73	0.707
624.92	0.705
625.12	0.702
625.31	0.702
625.50	0.705
625.69	0.706
625.88	0.703
626.08	0.702
626.27	0.702
626.46	0.703
626.65	0.701
626.84	0.701
627.04	0.705
627.23	0.706
627.42	0.702
627.61	0.705
627.80	0.707
628.00	0.707
628.19	0.706
628.38	0.709
628.57	0.711
628.76	0.710
628.96	0.707
629.15	0.708
629.34	0.709
629.53	0.709
629.72	0.704
629.91	0.704
630.11	0.708
630.30	0.708
630.49	0.711
630.68	0.711
630.87	0.714
631.06	0.717
631.26	0.713
631.45	0.714
631.64	0.721
631.83	0.724
632.02	0.722
632.21	0.721
632.41	0.727
632.60	0.722
632.79	0.720
632.98	0.721
633.17	0.721
633.36	0.723
633.55	0.720
633.75	0.717
633.94	0.718
634.13	0.719
634.32	0.717
634.51	0.712
634.70	0.714
634.89	0.714
635.09	0.711
635.28	0.712
635.47	0.712
635.66	0.715
635.85	0.711
636.04	0.712
636.23	0.716
636.43	0.717
636.62	0.715
636.81	0.714
637.00	0.715
637.19	0.719
637.38	0.716
637.57	0.716
637.76	0.716
637.95	0.717
638.15	0.714
638.34	0.711
638.53	0.713
638.72	0.714
638.91	0.712
639.10	0.711
639.29	0.710
639.48	0.711
639.67	0.712
639.87	0.711
640.06	0.715
640.25	0.715
640.44	0.717
640.63	0.719
640.82	0.721
641.01	0.721
641.20	0.721
641.39	0.722
641.58	0.723
641.78	0.722
641.97	0.719
642.16	0.733
642.35	0.734
642.54	0.732
642.73	0.726
642.92	0.725
643.11	0.727
643.30	0.727
643.49	0.723
643.68	0.725
643.87	0.726
644.06	0.726
644.25	0.707
644.45	0.710
644.64	0.710
644.83	0.712
645.02	0.709
645.21	0.708
645.40	0.708
645.59	0.708
645.78	0.704
645.97	0.707
646.16	0.707
646.35	0.708
646.54	0.706
646.73	0.707
646.92	0.708
647.11	0.708
647.30	0.705
647.49	0.707
647.68	0.705
647.88	0.703
648.07	0.696
648.26	0.699
648.45	0.699
648.64	0.696
648.83	0.694
649.02	0.697
649.21	0.706
649.40	0.705
649.59	0.701
649.78	0.703
649.97	0.716
650.16	0.715
650.35	0.709
650.54	0.712
650.73	0.719
650.92	0.716
651.11	0.710
651.30	0.707
651.49	0.710
651.68	0.711
651.87	0.708
652.06	0.698
652.25	0.702
652.44	0.707
652.63	0.707
652.82	0.710
653.01	0.711
653.20	0.710
653.39	0.700
653.58	0.698
653.77	0.697
653.96	0.693
654.15	0.686
654.34	0.683
654.53	0.677
654.72	0.670
654.91	0.660
655.10	0.655
655.29	0.652
655.48	0.649
655.67	0.644
655.86	0.641
656.05	0.638
656.24	0.638
656.43	0.633
656.62	0.632
656.81	0.630
657.00	0.626
657.19	0.622
657.38	0.620
657.57	0.619
657.76	0.620
657.95	0.617
658.14	0.620
658.33	0.621
658.51	0.625
658.70	0.625
658.89	0.627
659.08	0.637
659.27	0.647
659.46	0.649
659.65	0.655
659.84	0.659
660.03	0.664
660.22	0.665
660.41	0.670
660.60	0.670
660.79	0.672
660.98	0.678
661.17	0.676
661.36	0.675
661.55	0.676
661.74	0.675
661.92	0.678
662.11	0.680
662.30	0.679
662.49	0.673
662.68	0.672
662.87	0.675
663.06	0.668
663.25	0.669
663.44	0.669
663.63	0.669
663.82	0.667
664.01	0.663
664.20	0.662
664.38	0.663
664.57	0.663
664.76	0.663
664.95	0.663
665.14	0.668
665.33	0.664
665.52	0.672
665.71	0.675
665.90	0.675
666.09	0.676
666.28	0.673
666.46	0.671
666.65	0.671
666.84	0.669
667.03	0.665
667.22	0.663
667.41	0.665
667.60	0.655
667.79	0.649
667.98	0.650
668.16	0.650
668.35	0.650
668.54	0.647
668.73	0.648
668.92	0.649
669.11	0.648
669.30	0.643
669.49	0.639
669.67	0.641
669.86	0.644
670.05	0.641
670.24	0.640
670.43	0.638
670.62	0.636
670.81	0.633
671.00	0.633
671.18	0.632
671.37	0.630
671.56	0.629
671.75	0.628
671.94	0.625
672.13	0.623
672.32	0.618
672.50	0.618
672.69	0.618
672.88	0.618
673.07	0.614
673.26	0.617
673.45	0.617
673.63	0.617
673.82	0.614
674.01	0.615
674.20	0.614
674.39	0.614
674.58	0.615
674.76	0.614
674.95	0.613
675.14	0.614
675.33	0.610
675.52	0.609
675.71	0.609
675.89	0.609
676.08	0.605
676.27	0.605
676.46	0.604
676.65	0.604
676.84	0.603
677.02	0.604
677.21	0.605
677.40	0.603
677.59	0.601
677.78	0.601
677.96	0.603
678.15	0.602
678.34	0.600
678.53	0.601
678.72	0.600
678.90	0.598
679.09	0.594
679.28	0.591
679.47	0.591
679.66	0.591
679.84	0.588
680.03	0.585
680.22	0.584
680.41	0.586
680.60	0.583
680.78	0.582
680.97	0.584
681.16	0.584
681.35	0.583
681.53	0.582
681.72	0.583
681.91	0.584
682.10	0.584
682.29	0.586
682.47	0.583
682.66	0.581
682.85	0.580
683.04	0.578
683.22	0.578
683.41	0.580
683.60	0.579
683.79	0.580
683.97	0.579
684.16	0.577
684.35	0.574
684.54	0.575
684.72	0.576
684.91	0.576
685.10	0.575
685.29	0.576
685.47	0.572
685.66	0.571
685.85	0.568
686.04	0.567
686.22	0.570
686.41	0.573
686.60	0.570
686.79	0.573
686.97	0.574
687.16	0.576
687.35	0.573
687.54	0.577
687.72	0.581
687.91	0.581
688.10	0.583
688.29	0.583
688.47	0.580
688.66	0.580
688.85	0.577
689.03	0.574
689.22	0.578
689.41	0.579
689.60	0.575
689.78	0.572
689.97	0.573
690.16	0.570
690.34	0.566
690.53	0.566
690.72	0.565
690.91	0.563
691.09	0.561
691.28	0.556
691.47	0.554
691.65	0.552
691.84	0.550
692.03	0.549
692.21	0.546
692.40	0.546
692.59	0.543
692.77	0.542
692.96	0.543
693.15	0.544
693.34	0.541
693.52	0.541
693.71	0.542
693.90	0.543
694.08	0.544
694.27	0.545
694.46	0.554
694.64	0.555
694.83	0.555
695.02	0.554
695.20	0.554
695.39	0.554
695.58	0.554
695.76	0.554
695.95	0.553
696.14	0.552
696.32	0.550
696.51	0.541
696.70	0.541
696.88	0.542
697.07	0.541
697.26	0.542
697.44	0.543
697.63	0.542
697.81	0.539
698.00	0.539
698.19	0.538
698.37	0.538
698.56	0.537
698.75	0.537
698.93	0.536
699.12	0.536
699.31	0.535
699.49	0.535
699.68	0.536
699.87	0.538
700.05	0.538
700.24	0.538
700.42	0.539
700.61	0.540
700.80	0.538
700.98	0.538
701.17	0.540
701.36	0.539
701.54	0.539
701.73	0.540
701.91	0.537
702.10	0.537
702.29	0.535
702.47	0.534
702.66	0.535
702.84	0.536
703.03	0.534
703.22	0.535
703.40	0.534
703.59	0.536
703.77	0.536
703.96	0.536
704.15	0.537
704.33	0.537
704.52	0.537
704.70	0.535
704.89	0.535
705.08	0.534
705.26	0.530
705.45	0.530
705.63	0.528
705.82	0.526
706.00	0.524
706.19	0.524
706.38	0.524
706.56	0.523
706.75	0.522
706.93	0.520
707.12	0.521
707.30	0.521
707.49	0.519
707.68	0.517
707.86	0.517
708.05	0.517
708.23	0.514
708.42	0.514
708.60	0.516
708.79	0.516
708.98	0.515
709.16	0.514
709.35	0.516
709.53	0.519
709.72	0.519
709.90	0.520
710.09	0.521
710.27	0.524
710.46	0.528
710.64	0.526
710.83	0.528
711.02	0.530
711.20	0.529
711.39	0.528
711.57	0.525
711.76	0.526
711.94	0.525
712.13	0.525
712.31	0.524
712.50	0.520
712.68	0.518
712.87	0.519
713.05	0.519
713.24	0.519
713.42	0.518
713.61	0.518
713.79	0.519
713.98	0.519
714.16	0.520
714.35	0.520
714.54	0.521
714.72	0.521
714.91	0.519
715.09	0.526
715.28	0.528
715.46	0.528
715.65	0.526
715.83	0.526
716.02	0.528
716.20	0.525
716.39	0.524
716.57	0.524
716.76	0.526
716.94	0.526
717.12	0.518
717.31	0.520
717.49	0.522
717.68	0.525
717.86	0.525
718.05	0.527
718.23	0.529
718.42	0.531
718.60	0.533
718.79	0.540
718.97	0.542
719.16	0.543
719.34	0.540
719.53	0.540
719.71	0.539
719.90	0.541
720.08	0.538
720.27	0.538
720.45	0.537
720.63	0.535
720.82	0.530
721.00	0.532
721.19	0.534
721.37	0.535
721.56	0.535
721.74	0.538
721.93	0.546
722.11	0.551
722.30	0.550
722.48	0.555
722.66	0.557
722.85	0.557
723.03	0.559
723.22	0.557
723.40	0.558
723.59	0.559
723.77	0.563
723.95	0.557
724.14	0.560
724.32	0.562
724.51	0.562
724.69	0.563
724.88	0.562
725.06	0.561
725.24	0.563
725.43	0.566
725.61	0.568
725.80	0.562
725.98	0.560
726.16	0.556
726.35	0.561
726.53	0.560
726.72	0.560
726.90	0.569
727.09	0.569
727.27	0.575
727.45	0.572
727.64	0.580
727.82	0.587
728.01	0.591
728.19	0.589
728.37	0.595
728.56	0.599
728.74	0.605
728.92	0.597
729.11	0.599
729.29	0.596
729.48	0.597
729.66	0.589
729.84	0.589
730.03	0.592
730.21	0.595
730.40	0.585
730.58	0.585
730.76	0.584
730.95	0.585
731.13	0.585
731.31	0.598
731.50	0.608
731.68	0.611
731.86	0.608
732.05	0.621
732.23	0.623
732.42	0.628
732.60	0.633
732.78	0.636
732.97	0.652
733.15	0.659
733.33	0.650
733.52	0.656
733.70	0.664
733.88	0.675
734.07	0.663
734.25	0.686
734.43	0.692
734.62	0.697
734.80	0.694
734.98	0.686
735.17	0.691
735.35	0.693
735.53	0.685
735.72	0.688
735.90	0.705
736.08	0.723
736.27	0.704
736.45	0.712
736.63	0.720
736.82	0.729
737.00	0.730
737.18	0.740
737.37	0.770
737.55	0.790
737.73	0.784
737.92	0.786
738.10	0.780
738.28	0.799
738.46	0.789
738.65	0.799
738.83	0.817
739.01	0.866
739.20	0.859
739.38	0.844
739.56	0.835
739.75	0.840
739.93	0.814
740.11	0.837
740.29	0.832
740.48	0.841
740.66	0.824
740.84	0.819
741.03	0.784
741.21	0.793
741.39	0.778
741.57	0.790
741.76	0.805
741.94	0.808
742.12	0.779
742.31	0.781
742.49	0.797
742.67	0.818
742.85	0.835
743.04	0.839
743.22	0.847
743.40	0.896
743.58	0.886
743.77	0.900
743.95	0.926
744.13	0.970
744.31	0.961
744.50	0.957
744.68	0.955
744.86	0.931
745.04	0.945
745.23	1.008
745.41	0.982
745.59	0.978
745.77	0.952
745.96	0.945
746.14	0.950
746.32	0.950
746.50	0.946
746.69	0.926
746.87	0.930
747.05	0.915
747.23	0.850
747.42	0.839
747.60	0.858
747.78	0.858
747.96	0.887
748.14	0.846
748.33	0.870
748.51	0.859
748.69	0.855
748.87	0.878
749.06	0.870
749.24	0.866
749.42	0.855
749.60	0.843
749.78	0.853
749.97	0.809
750.15	0.808
750.33	0.804
750.51	0.825
750.69	0.829
750.88	0.838
751.06	0.851
751.24	0.874
751.42	0.868
751.60	0.861
751.79	0.919
751.97	0.959
752.15	0.957
752.33	0.936
752.51	0.997
752.69	1.007
752.88	0.979
753.06	1.021
753.24	0.996
753.42	1.019
753.60	1.163
753.78	1.051
753.97	1.066
754.15	1.076
754.33	1.102
754.51	0.996
754.69	0.987
754.87	1.003
755.06	0.939
755.24	0.944
755.42	0.956
755.60	0.861
755.78	0.868
755.96	0.825
756.15	0.824
756.33	0.824
756.51	0.841
756.69	0.828
756.87	0.802
757.05	0.817
757.23	0.802
757.42	0.774
757.60	0.775
757.78	0.764
757.96	0.761
758.14	0.747
758.32	0.734
758.50	0.744
758.69	0.746
758.87	0.739
759.05	0.741
759.23	0.746
759.41	0.748
759.59	0.741
759.77	0.759
759.95	0.780
760.13	0.824
760.32	0.826
760.50	0.817
760.68	0.833
760.86	0.834
761.04	0.815
761.22	0.820
761.40	0.859
761.58	0.864
761.76	0.841
761.95	0.828
762.13	0.788
762.31	0.789
762.49	0.763
762.67	0.779
762.85	0.791
763.03	0.788
763.21	0.774
763.39	0.754
763.57	0.753
763.75	0.750
763.94	0.738
764.12	0.739
764.30	0.759
764.48	0.766
764.66	0.733
764.84	0.729
765.02	0.758
765.20	0.765
765.38	0.749
765.56	0.754
765.74	0.786
765.92	0.785
766.10	0.792
766.28	0.786
766.46	0.808
766.65	0.810
766.83	0.802
767.01	0.790
767.19	0.795
767.37	0.796
767.55	0.785
767.73	0.765
767.91	0.767
768.09	0.757
768.27	0.748
768.45	0.738
768.63	0.743
768.81	0.745
768.99	0.722
769.17	0.741
769.35	0.750
769.53	0.748
769.71	0.733
769.89	0.737
770.07	0.738
770.25	0.722
770.43	0.705
770.61	0.722
770.79	0.725
770.97	0.733
771.15	0.709
771.33	0.712
771.51	0.715
771.69	0.726
771.87	0.737
772.05	0.743
772.24	0.749
772.42	0.756
772.60	0.738
772.78	0.794
772.96	0.813
773.14	0.813
773.32	0.796
773.49	0.802
773.67	0.797
773.85	0.779
774.03	0.771
774.21	0.800
774.39	0.808
774.57	0.831
774.75	0.766
774.93	0.764
775.11	0.779
775.29	0.786
775.47	0.789
775.65	0.798
775.83	0.810
776.01	0.831
776.19	0.792
776.37	0.795
776.55	0.791
776.73	0.789
776.91	0.786
777.09	0.771
777.27	0.766
777.45	0.754
777.63	0.737
777.81	0.732
777.99	0.716
778.17	0.717
778.35	0.698
778.53	0.687
778.71	0.689
778.89	0.677
779.07	0.669
779.24	0.674
779.42	0.674
779.60	0.689
779.78	0.689
779.96	0.693
780.14	0.697
780.32	0.717
780.50	0.702
780.68	0.703
780.86	0.695
781.04	0.710
781.22	0.715
781.40	0.723
781.58	0.712
781.75	0.705
781.93	0.692
782.11	0.692
782.29	0.677
782.47	0.678
782.65	0.665
782.83	0.687
783.01	0.676
783.19	0.670
783.37	0.660
783.55	0.662
783.72	0.678
783.90	0.688
784.08	0.681
784.26	0.691
784.44	0.709
784.62	0.713
784.80	0.687
784.98	0.698
785.16	0.702
785.33	0.714
785.51	0.705
785.69	0.692
785.87	0.688
786.05	0.701
786.23	0.699
786.41	0.693
786.59	0.699
786.77	0.700
786.94	0.687
787.12	0.691
787.30	0.693
787.48	0.690
787.66	0.683
787.84	0.686
788.02	0.674
788.19	0.672
788.37	0.663
788.55	0.665
788.73	0.664
788.91	0.662
789.09	0.647
789.27	0.637
789.44	0.648
789.62	0.651
789.80	0.659
789.98	0.681
790.16	0.668
790.34	0.665
790.51	0.655
790.69	0.673
790.87	0.678
791.05	0.677
791.23	0.673
791.41	0.672
791.58	0.677
791.76	0.657
791.94	0.632
792.12	0.640
792.30	0.640
792.48	0.637
792.65	0.631
792.83	0.634
793.01	0.636
793.19	0.632
793.37	0.620
793.54	0.618
793.72	0.629
793.90	0.627
794.08	0.617
794.26	0.618
794.43	0.626
794.61	0.611
794.79	0.601
794.97	0.600
795.15	0.605
795.32	0.609
795.50	0.601
795.68	0.593
795.86	0.595
796.04	0.598
796.21	0.594
796.39	0.592
796.57	0.604
796.75	0.612
796.92	0.616
797.10	0.619
797.28	0.619
797.46	0.623
797.64	0.628
797.81	0.634
797.99	0.637
798.17	0.642
798.35	0.640
798.52	0.642
798.70	0.637
798.88	0.643
799.06	0.645
799.23	0.647
799.41	0.651
799.59	0.644
799.77	0.635
799.94	0.640
800.12	0.645
800.30	0.660
800.48	0.660
800.65	0.661
800.83	0.650
801.01	0.643
801.19	0.645
801.36	0.641
801.54	0.642
801.72	0.651
801.90	0.642
802.07	0.638
802.25	0.623
802.43	0.609
802.60	0.606
802.78	0.615
802.96	0.619
803.14	0.613
803.31	0.615
803.49	0.616
803.67	0.611
803.84	0.615
804.02	0.608
804.20	0.610
804.38	0.614
804.55	0.614
804.73	0.601
804.91	0.600
805.08	0.609
805.26	0.605
805.44	0.665
805.61	0.669
805.79	0.668
805.97	0.667
806.15	0.661
806.32	0.656
806.50	0.659
806.68	0.660
806.85	0.655
807.03	0.647
807.21	0.661
807.38	0.599
807.56	0.592
807.74	0.599
807.91	0.603
808.09	0.605
808.27	0.624
808.44	0.649
808.62	0.653
808.80	0.654
808.97	0.651
809.15	0.647
809.33	0.659
809.50	0.664
809.68	0.654
809.86	0.663
810.03	0.691
810.21	0.671
810.39	0.656
810.56	0.664
810.74	0.685
810.91	0.750
811.09	0.741
811.27	0.760
811.44	0.764
811.62	0.765
811.80	0.752
811.97	0.726
812.15	0.727
812.33	0.723
812.50	0.708
812.68	0.695
812.85	0.643
813.03	0.645
813.21	0.620
813.38	0.617
813.56	0.617
813.74	0.624
813.91	0.630
814.09	0.653
814.26	0.647
814.44	0.651
814.62	0.645
814.79	0.648
814.97	0.650
815.14	0.652
815.32	0.653
815.50	0.669
815.67	0.670
815.85	0.662
816.02	0.656
816.20	0.661
816.38	0.672
816.55	0.677
816.73	0.680
816.90	0.688
817.08	0.714
817.26	0.723
817.43	0.707
817.61	0.731
817.78	0.748
817.96	0.730
818.13	0.722
818.31	0.721
818.49	0.727
818.66	0.715
818.84	0.705
819.01	0.686
819.19	0.688
819.36	0.691
819.54	0.664
819.71	0.701
819.89	0.712
820.07	0.724
820.24	0.724
820.42	0.726
820.59	0.744
820.77	0.766
820.94	0.762
821.12	0.777
821.29	0.787
821.47	0.793
821.64	0.739
821.82	0.748
822.00	0.742
822.17	0.740
822.35	0.734
822.52	0.735
822.70	0.726
822.87	0.732
823.05	0.716
823.22	0.727
823.40	0.746
823.57	0.763
823.75	0.754
823.92	0.778
824.10	0.790
824.27	0.831
824.45	0.825
824.62	0.872
824.80	0.887
824.97	0.901
825.15	0.896
825.32	0.905
825.50	0.902
825.67	0.910
825.85	0.893
826.02	0.910
826.20	0.918
826.37	1.023
826.55	0.966
826.72	1.117
826.90	1.174
827.07	1.201
827.25	1.170
827.42	1.293
827.60	1.376
827.77	1.480
827.95	1.479
828.12	1.565
828.30	1.303
828.47	1.368
828.65	1.122
828.82	1.151
829.00	1.195
829.17	1.262
829.34	1.278
829.52	1.316
829.69	-0.000
829.87	-0.000
830.04	-0.000
830.22	-0.000
830.39	-0.000
830.57	-0.000
830.74	-0.000
830.92	-0.000
831.09	-0.000
831.26	-0.000
831.44	-0.000
831.61	-0.000
831.79	-0.000
831.96	-0.000
832.14	-0.000
832.31	-0.000
832.49	-0.000
832.66	-0.000
832.83	-0.000
833.01	-0.000
833.18	-0.000
833.36	-0.000
833.53	-0.000
833.70	-0.000
833.88	-0.000
834.05	-0.000
834.23	-0.000
834.40	-0.000
834.58	-0.000
834.75	-0.000
834.92	-0.000
835.10	-0.000
835.27	-0.000
835.45	-0.000
835.62	-0.000
835.79	-0.000
835.97	-0.000
836.14	-0.000
836.32	-0.000
836.49	-0.000
836.66	-0.000
836.84	-0.000
837.01	-0.000
837.18	-0.000
837.36	-0.000
837.53	-0.000
837.71	-0.000
837.88	-0.000
838.05	-0.000
838.23	-0.000
838.40	-0.000
838.58	-0.000
838.75	-0.000
838.92	-0.000
839.10	-0.000
839.27	-0.000
839.44	-0.000
839.62	-0.000
839.79	-0.000
839.96	-0.000
840.14	-0.000
840.31	-0.000
840.48	-0.000
840.66	-0.000
840.83	-0.000
841.01	-0.000
841.18	-0.000
841.35	-0.000
841.53	-0.000
841.70	-0.000
841.87	-0.000
842.05	-0.000
842.22	-0.000
842.39	-0.000
842.57	-0.000
842.74	-0.000
842.91	-0.000
843.09	-0.000
843.26	-0.000
843.43	-0.000
843.60	-0.000
843.78	-0.000
843.95	-0.000
844.12	-0.000
844.30	-0.000
844.47	-0.000
844.64	-0.000
844.82	-0.000
844.99	-0.000
845.16	-0.000
845.34	-0.000
845.51	-0.000
845.68	-0.000
845.85	-0.000
846.03	-0.000
846.20	-0.000
846.37	-0.000
846.55	-0.000
846.72	-0.000
846.89	-0.000
847.06	-0.000
847.24	-0.000
847.41	-0.000
847.58	-0.000
847.76	-0.000
847.93	-0.000
848.10	-0.000
848.27	-0.000
848.45	-0.000
848.62	-0.000
848.79	-0.000
848.97	-0.000
849.14	-0.000
849.31	-0.000
849.48	-0.000
849.66	-0.000
849.83	-0.000
850.00	-0.000
850.17	-0.000
850.35	-0.000
850.52	-0.000
850.69	-0.000
850.86	-0.000
851.04	-0.000
851.21	-0.000
851.38	-0.000
851.55	-0.000
851.72	-0.000
851.90	-0.000
852.07	-0.000
852.24	-0.000
852.41	-0.000
852.59	-0.000
852.76	-0.000
852.93	-0.000
853.10	-0.000
853.28	-0.000
853.45	-0.000
853.62	-0.000
853.79	-0.000
853.96	-0.000
854.14	-0.000
854.31	-0.000
854.48	-0.000
854.65	-0.000
854.82	-0.000
855.00	-0.000
855.17	-0.000
855.34	-0.000
855.51	-0.000
855.68	-0.000
855.86	-0.000
856.03	-0.000
856.20	-0.000
856.37	-0.000
856.54	-0.000
856.72	-0.000
856.89	-0.000
857.06	-0.000
857.23	-0.000
857.40	-0.000
857.57	-0.000
857.75	-0.000
857.92	-0.000
858.09	-0.000
858.26	-0.000
858.43	-0.000
858.60	-0.000
858.78	-0.000
858.95	-0.000
859.12	-0.000
859.29	-0.000
859.46	-0.000
859.63	-0.000
859.81	-0.000
859.98	-0.000
860.15	-0.000
860.32	-0.000
860.49	-0.000
860.66	-0.000
860.83	-0.000
861.01	-0.000
861.18	-0.000
861.35	-0.000
861.52	-0.000
861.69	-0.000
861.86	-0.000
862.03	-0.000
862.21	-0.000
862.38	-0.000
862.55	-0.000
862.72	-0.000
862.89	-0.000
863.06	-0.000
863.23	-0.000
863.40	-0.000
863.58	-0.000
863.75	-0.000
863.92	-0.000
864.09	-0.000
864.26	-0.000
864.43	-0.000
864.60	-0.000
864.77	-0.000
864.94	-0.000
865.11	-0.000
865.29	-0.000
865.46	-0.000
865.63	-0.000
865.80	-0.000
865.97	-0.000
866.14	-0.000
866.31	-0.000
866.48	-0.000
866.65	-0.000
866.82	-0.000
866.99	-0.000
867.16	-0.000
867.34	-0.000
867.51	-0.000
867.68	-0.000
867.85	-0.000
868.02	-0.000
868.19	-0.000
868.36	-0.000
868.53	-0.000
868.70	-0.000
868.87	-0.000
869.04	-0.000
869.21	-0.000
869.38	-0.000
869.55	-0.000
869.72	-0.000
869.89	-0.000
870.06	-0.000
870.24	-0.000
870.41	-0.000
870.58	-0.000
870.75	-0.000
870.92	-0.000
871.09	-0.000
871.26	-0.000
871.43	-0.000
871.60	-0.000
871.77	-0.000
871.94	-0.000
872.11	-0.000
872.28	-0.000
872.45	-0.000
872.62	-0.000
872.79	-0.000
872.96	-0.000
873.13	-0.000
873.30	-0.000
873.47	-0.000
873.64	-0.000
873.81	-0.000
873.98	-0.000
874.15	-0.000
874.32	-0.000
874.49	-0.000
874.66	-0.000
874.83	-0.000
875.00	-0.000
875.17	-0.000
875.34	-0.000
875.51	-0.000
875.68	-0.000
875.85	-0.000
876.02	-0.000
876.19	-0.000
876.36	-0.000
876.53	-0.000
876.70	-0.000
876.87	-0.000
877.04	-0.000
877.21	-0.000
877.38	-0.000
877.55	-0.000
877.72	-0.000
877.89	-0.000
878.06	-0.000
878.23	-0.000
878.39	-0.000
878.56	-0.000
878.73	-0.000
878.90	-0.000
879.07	-0.000
879.24	-0.000
879.41	-0.000
879.58	-0.000
879.75	-0.000
879.92	-0.000
880.09	-0.000
880.26	-0.000
880.43	-0.000
880.60	-0.000
880.77	-0.000
880.94	-0.000
881.11	-0.000
881.27	-0.000
881.44	-0.000
881.61	-0.000
881.78	-0.000
881.95	-0.000
882.12	-0.000
882.29	-0.000
882.46	-0.000
882.63	-0.000
882.80	-0.000
882.97	-0.000
883.14	-0.000
883.30	-0.000
883.47	-0.000
883.64	-0.000
883.81	-0.000
883.98	-0.000
884.15	-0.000
884.32	-0.000
884.49	-0.000
884.66	-0.000
884.82	-0.000
884.99	-0.000
885.16	-0.000
885.33	-0.000
885.50	-0.000
885.67	-0.000
885.84	-0.000
886.01	-0.000
886.17	-0.000
886.34	-0.000
886.51	-0.000
886.68	-0.000
886.85	-0.000
887.02	-0.000
887.19	-0.000
887.36	-0.000
887.52	-0.000
887.69	-0.000
887.86	-0.000
888.03	-0.000
888.20	-0.000
888.37	-0.000
888.54	-0.000
888.70	-0.000
888.87	-0.000
889.04	-0.000
889.21	-0.000
889.38	-0.000
889.55	-0.000
889.71	-0.000
889.88	-0.000
890.05	-0.000
890.22	-0.000
890.39	-0.000
>>>>>End Processed Spectral Data<<<<<
