SpectraSuite Data File
++++++++++++++++++++++++++++++++++++
Date: Fri Jun 19 13:12:33 CEST 2015
User: introlabs
Dark Spectrum Present: Yes
Reference Spectrum Present: Yes
Number of Sampled Component Spectra: 1
Spectrometers: USB4H08886
Integration Time (usec): 745692 (USB4H08886)
Spectra Averaged: 5 (USB4H08886)
Boxcar Smoothing: 5 (USB4H08886)
Correct for Electrical Dark: Yes (USB4H08886)
Strobe/Lamp Enabled: No (USB4H08886)
Correct for Detector Non-linearity: Yes (USB4H08886)
Correct for Stray Light: Yes (USB4H08886)
Number of Pixels in Processed Spectrum: 3648
>>>>>Begin Processed Spectral Data<<<<<
178.14	-0.000
178.36	-0.000
178.57	-0.000
178.79	-0.000
179.01	-0.000
179.22	-0.000
179.44	-0.000
179.65	-0.000
179.87	-0.000
180.08	-0.000
180.30	-0.000
180.52	-0.000
180.73	-0.000
180.95	-0.000
181.16	-0.000
181.38	-0.000
181.59	-0.000
181.81	-0.000
182.03	-0.000
182.24	-0.000
182.46	-0.000
182.67	-0.000
182.89	-0.000
183.10	-0.000
183.32	-0.000
183.54	-0.000
183.75	-0.000
183.97	-0.000
184.18	-0.000
184.40	-0.000
184.61	-0.000
184.83	-0.000
185.04	-0.000
185.26	-0.000
185.48	-0.000
185.69	-0.000
185.91	-0.000
186.12	-0.000
186.34	-0.000
186.55	-0.000
186.77	-0.000
186.98	-0.000
187.20	-0.000
187.42	-0.000
187.63	-0.000
187.85	-0.000
188.06	-0.000
188.28	-0.000
188.49	-0.000
188.71	-0.000
188.92	-0.000
189.14	-0.000
189.36	-0.000
189.57	-0.000
189.79	-0.000
190.00	-0.000
190.22	-0.000
190.43	-0.000
190.65	-0.000
190.86	-0.000
191.08	-0.000
191.29	-0.000
191.51	-0.000
191.72	-0.000
191.94	-0.000
192.16	-0.000
192.37	-0.000
192.59	-0.000
192.80	-0.000
193.02	-0.000
193.23	-0.000
193.45	-0.000
193.66	-0.000
193.88	-0.000
194.09	-0.000
194.31	-0.000
194.52	-0.000
194.74	-0.000
194.95	-0.000
195.17	-0.000
195.38	-0.000
195.60	-0.000
195.81	-0.000
196.03	-0.000
196.25	-0.000
196.46	-0.000
196.68	-0.000
196.89	-0.000
197.11	-0.000
197.32	-0.000
197.54	-0.000
197.75	-0.000
197.97	-0.000
198.18	-0.000
198.40	-0.000
198.61	-0.000
198.83	-0.000
199.04	-0.000
199.26	-0.000
199.47	-0.000
199.69	-0.000
199.90	-0.000
200.12	-0.000
200.33	-0.000
200.55	-0.000
200.76	-0.000
200.98	-0.000
201.19	-0.000
201.41	-0.000
201.62	-0.000
201.84	-0.000
202.05	-0.000
202.27	-0.000
202.48	-0.000
202.70	-0.000
202.91	-0.000
203.13	-0.000
203.34	-0.000
203.56	-0.000
203.77	-0.000
203.99	-0.000
204.20	-0.000
204.42	-0.000
204.63	-0.000
204.85	-0.000
205.06	-0.000
205.28	-0.000
205.49	-0.000
205.71	-0.000
205.92	-0.000
206.14	-0.000
206.35	-0.000
206.56	-0.000
206.78	-0.000
206.99	-0.000
207.21	-0.000
207.42	-0.000
207.64	-0.000
207.85	-0.000
208.07	-0.000
208.28	-0.000
208.50	-0.000
208.71	-0.000
208.93	-0.000
209.14	-0.000
209.36	-0.000
209.57	-0.000
209.79	-0.000
210.00	-0.000
210.22	-0.000
210.43	-0.000
210.64	-0.000
210.86	-0.000
211.07	-0.000
211.29	-0.000
211.50	-0.000
211.72	-0.000
211.93	-0.000
212.15	-0.000
212.36	-0.000
212.58	-0.000
212.79	-0.000
213.01	-0.000
213.22	-0.000
213.43	-0.000
213.65	-0.000
213.86	-0.000
214.08	-0.000
214.29	-0.000
214.51	-0.000
214.72	-0.000
214.94	-0.000
215.15	-0.000
215.36	-0.000
215.58	-0.000
215.79	-0.000
216.01	-0.000
216.22	-0.000
216.44	-0.000
216.65	-0.000
216.87	-0.000
217.08	-0.000
217.29	-0.000
217.51	-0.000
217.72	-0.000
217.94	-0.000
218.15	-0.000
218.37	-0.000
218.58	-0.000
218.80	-0.000
219.01	-0.000
219.22	-0.000
219.44	-0.000
219.65	-0.000
219.87	-0.000
220.08	-0.000
220.30	-0.000
220.51	-0.000
220.72	-0.000
220.94	-0.000
221.15	-0.000
221.37	-0.000
221.58	-0.000
221.79	-0.000
222.01	-0.000
222.22	-0.000
222.44	-0.000
222.65	-0.000
222.87	-0.000
223.08	-0.000
223.29	-0.000
223.51	-0.000
223.72	-0.000
223.94	-0.000
224.15	-0.000
224.36	-0.000
224.58	-0.000
224.79	-0.000
225.01	-0.000
225.22	-0.000
225.44	-0.000
225.65	-0.000
225.86	-0.000
226.08	-0.000
226.29	-0.000
226.51	-0.000
226.72	-0.000
226.93	-0.000
227.15	-0.000
227.36	-0.000
227.58	-0.000
227.79	-0.000
228.00	-0.000
228.22	-0.000
228.43	-0.000
228.65	-0.000
228.86	-0.000
229.07	-0.000
229.29	-0.000
229.50	-0.000
229.72	-0.000
229.93	-0.000
230.14	-0.000
230.36	-0.000
230.57	-0.000
230.78	-0.000
231.00	-0.000
231.21	-0.000
231.43	-0.000
231.64	-0.000
231.85	-0.000
232.07	-0.000
232.28	-0.000
232.50	-0.000
232.71	-0.000
232.92	-0.000
233.14	-0.000
233.35	-0.000
233.56	-0.000
233.78	-0.000
233.99	-0.000
234.21	-0.000
234.42	-0.000
234.63	-0.000
234.85	-0.000
235.06	-0.000
235.27	-0.000
235.49	-0.000
235.70	-0.000
235.91	-0.000
236.13	-0.000
236.34	-0.000
236.56	-0.000
236.77	-0.000
236.98	-0.000
237.20	-0.000
237.41	-0.000
237.62	-0.000
237.84	-0.000
238.05	-0.000
238.26	-0.000
238.48	-0.000
238.69	-0.000
238.91	-0.000
239.12	-0.000
239.33	-0.000
239.55	-0.000
239.76	-0.000
239.97	-0.000
240.19	-0.000
240.40	-0.000
240.61	-0.000
240.83	-0.000
241.04	-0.000
241.25	-0.000
241.47	-0.000
241.68	-0.000
241.89	-0.000
242.11	-0.000
242.32	-0.000
242.53	-0.000
242.75	-0.000
242.96	-0.000
243.17	-0.000
243.39	-0.000
243.60	-0.000
243.81	-0.000
244.03	-0.000
244.24	-0.000
244.45	-0.000
244.67	-0.000
244.88	-0.000
245.09	-0.000
245.31	-0.000
245.52	-0.000
245.73	-0.000
245.95	-0.000
246.16	-0.000
246.37	-0.000
246.59	-0.000
246.80	-0.000
247.01	-0.000
247.23	-0.000
247.44	-0.000
247.65	-0.000
247.87	-0.000
248.08	-0.000
248.29	-0.000
248.51	-0.000
248.72	-0.000
248.93	-0.000
249.15	-0.000
249.36	-0.000
249.57	-0.000
249.78	-0.000
250.00	-0.000
250.21	-0.000
250.42	-0.000
250.64	-0.000
250.85	-0.000
251.06	-0.000
251.28	-0.000
251.49	-0.000
251.70	-0.000
251.92	-0.000
252.13	-0.000
252.34	-0.000
252.55	-0.000
252.77	-0.000
252.98	-0.000
253.19	-0.000
253.41	-0.000
253.62	-0.000
253.83	-0.000
254.05	-0.000
254.26	-0.000
254.47	-0.000
254.68	-0.000
254.90	-0.000
255.11	-0.000
255.32	-0.000
255.54	-0.000
255.75	-0.000
255.96	-0.000
256.17	-0.000
256.39	-0.000
256.60	-0.000
256.81	-0.000
257.03	-0.000
257.24	-0.000
257.45	-0.000
257.66	-0.000
257.88	-0.000
258.09	-0.000
258.30	-0.000
258.51	-0.000
258.73	-0.000
258.94	-0.000
259.15	-0.000
259.37	-0.000
259.58	-0.000
259.79	-0.000
260.00	-0.000
260.22	-0.000
260.43	-0.000
260.64	-0.000
260.85	-0.000
261.07	-0.000
261.28	-0.000
261.49	-0.000
261.71	-0.000
261.92	-0.000
262.13	-0.000
262.34	-0.000
262.56	-0.000
262.77	-0.000
262.98	-0.000
263.19	-0.000
263.41	-0.000
263.62	-0.000
263.83	-0.000
264.04	-0.000
264.26	-0.000
264.47	-0.000
264.68	-0.000
264.89	-0.000
265.11	-0.000
265.32	-0.000
265.53	-0.000
265.74	-0.000
265.96	-0.000
266.17	-0.000
266.38	-0.000
266.59	-0.000
266.81	-0.000
267.02	-0.000
267.23	-0.000
267.44	-0.000
267.65	-0.000
267.87	-0.000
268.08	-0.000
268.29	-0.000
268.50	-0.000
268.72	-0.000
268.93	-0.000
269.14	-0.000
269.35	-0.000
269.57	-0.000
269.78	-0.000
269.99	-0.000
270.20	-0.000
270.41	-0.000
270.63	-0.000
270.84	-0.000
271.05	-0.000
271.26	-0.000
271.48	-0.000
271.69	-0.000
271.90	-0.000
272.11	-0.000
272.32	-0.000
272.54	-0.000
272.75	-0.000
272.96	-0.000
273.17	-0.000
273.39	-0.000
273.60	-0.000
273.81	-0.000
274.02	-0.000
274.23	-0.000
274.45	-0.000
274.66	-0.000
274.87	-0.000
275.08	-0.000
275.29	-0.000
275.51	-0.000
275.72	-0.000
275.93	-0.000
276.14	-0.000
276.35	-0.000
276.57	-0.000
276.78	-0.000
276.99	-0.000
277.20	-0.000
277.41	-0.000
277.63	-0.000
277.84	-0.000
278.05	-0.000
278.26	-0.000
278.47	-0.000
278.69	-0.000
278.90	-0.000
279.11	-0.000
279.32	-0.000
279.53	-0.000
279.74	-0.000
279.96	-0.000
280.17	-0.000
280.38	-0.000
280.59	-0.000
280.80	-0.000
281.02	-0.000
281.23	-0.000
281.44	-0.000
281.65	-0.000
281.86	-0.000
282.07	-0.000
282.29	-0.000
282.50	-0.000
282.71	-0.000
282.92	-0.000
283.13	-0.000
283.35	-0.000
283.56	-0.000
283.77	-0.000
283.98	-0.000
284.19	-0.000
284.40	-0.000
284.62	-0.000
284.83	-0.000
285.04	-0.000
285.25	-0.000
285.46	-0.000
285.67	-0.000
285.88	-0.000
286.10	-0.000
286.31	-0.000
286.52	-0.000
286.73	-0.000
286.94	-0.000
287.15	-0.000
287.37	-0.000
287.58	-0.000
287.79	-0.000
288.00	-0.000
288.21	-0.000
288.42	-0.000
288.63	-0.000
288.85	-0.000
289.06	-0.000
289.27	-0.000
289.48	-0.000
289.69	-0.000
289.90	-0.000
290.11	-0.000
290.33	-0.000
290.54	-0.000
290.75	-0.000
290.96	-0.000
291.17	-0.000
291.38	-0.000
291.59	-0.000
291.81	-0.000
292.02	-0.000
292.23	-0.000
292.44	-0.000
292.65	-0.000
292.86	-0.000
293.07	-0.000
293.28	-0.000
293.50	-0.000
293.71	-0.000
293.92	-0.000
294.13	-0.000
294.34	-0.000
294.55	-0.000
294.76	-0.000
294.97	-0.000
295.19	-0.000
295.40	-0.000
295.61	-0.000
295.82	-0.000
296.03	-0.000
296.24	-0.000
296.45	-0.000
296.66	3.208
296.87	3.681
297.09	-0.000
297.30	-0.000
297.51	2.359
297.72	2.230
297.93	2.821
298.14	2.461
298.35	2.235
298.56	2.119
298.77	2.650
298.99	2.433
299.20	2.307
299.41	2.207
299.62	2.097
299.83	2.075
300.04	1.900
300.25	1.885
300.46	1.992
300.67	1.939
300.88	1.828
301.10	1.831
301.31	2.007
301.52	1.847
301.73	1.733
301.94	1.733
302.15	1.762
302.36	1.680
302.57	1.570
302.78	1.588
302.99	1.658
303.20	1.676
303.41	1.534
303.63	1.501
303.84	1.516
304.05	1.510
304.26	1.428
304.47	1.437
304.68	1.445
304.89	1.430
305.10	1.370
305.31	1.351
305.52	1.407
305.73	1.399
305.94	1.350
306.15	1.341
306.37	1.370
306.58	1.377
306.79	1.332
307.00	1.355
307.21	1.410
307.42	1.404
307.63	1.352
307.84	1.311
308.05	1.357
308.26	1.356
308.47	1.325
308.68	1.321
308.89	1.322
309.10	1.318
309.31	1.269
309.52	1.258
309.73	1.274
309.95	1.270
310.16	1.237
310.37	1.226
310.58	1.247
310.79	1.244
311.00	1.237
311.21	1.240
311.42	1.243
311.63	1.237
311.84	1.214
312.05	1.211
312.26	1.237
312.47	1.249
312.68	1.218
312.89	1.197
313.10	1.206
313.31	1.175
313.52	1.174
313.73	1.175
313.94	1.178
314.15	1.158
314.36	1.133
314.57	1.124
314.78	1.110
314.99	1.103
315.21	1.091
315.42	1.094
315.63	1.107
315.84	1.082
316.05	1.068
316.26	1.076
316.47	1.097
316.68	1.092
316.89	1.070
317.10	1.092
317.31	1.102
317.52	1.101
317.73	1.080
317.94	1.079
318.15	1.124
318.36	1.123
318.57	1.101
318.78	1.089
318.99	1.128
319.20	1.127
319.41	1.089
319.62	1.090
319.83	1.105
320.04	1.099
320.25	1.084
320.46	1.053
320.67	1.058
320.88	1.054
321.09	1.037
321.30	1.021
321.51	1.036
321.72	1.034
321.93	1.014
322.14	1.006
322.35	1.035
322.56	1.036
322.77	1.019
322.98	1.029
323.19	1.039
323.40	1.045
323.61	1.020
323.82	1.015
324.03	1.021
324.24	1.019
324.45	1.005
324.66	0.985
324.87	0.983
325.08	0.982
325.29	0.961
325.50	0.953
325.71	0.959
325.92	0.967
326.13	0.952
326.34	0.953
326.55	0.963
326.76	0.961
326.97	0.950
327.18	0.944
327.39	0.971
327.60	0.972
327.80	0.971
328.01	0.970
328.22	0.971
328.43	0.974
328.64	0.960
328.85	0.964
329.06	0.967
329.27	0.965
329.48	0.960
329.69	0.942
329.90	0.953
330.11	0.946
330.32	0.937
330.53	0.931
330.74	0.931
330.95	0.931
331.16	0.915
331.37	0.921
331.58	0.923
331.79	0.921
332.00	0.910
332.21	0.902
332.42	0.907
332.63	0.899
332.83	0.893
333.04	0.895
333.25	0.908
333.46	0.906
333.67	0.892
333.88	0.895
334.09	0.906
334.30	0.903
334.51	0.894
334.72	0.889
334.93	0.892
335.14	0.890
335.35	0.882
335.56	0.878
335.77	0.886
335.98	0.884
336.18	0.877
336.39	0.869
336.60	0.874
336.81	0.872
337.02	0.872
337.23	0.876
337.44	0.880
337.65	0.882
337.86	0.870
338.07	0.865
338.28	0.871
338.49	0.870
338.70	0.862
338.91	0.868
339.11	0.876
339.32	0.871
339.53	0.860
339.74	0.856
339.95	0.853
340.16	0.852
340.37	0.844
340.58	0.842
340.79	0.845
341.00	0.846
341.21	0.835
341.41	0.835
341.62	0.837
341.83	0.839
342.04	0.834
342.25	0.844
342.46	0.850
342.67	0.848
342.88	0.841
343.09	0.840
343.30	0.848
343.50	0.850
343.71	0.840
343.92	0.839
344.13	0.844
344.34	0.842
344.55	0.825
344.76	0.824
344.97	0.828
345.18	0.827
345.38	0.824
345.59	0.818
345.80	0.818
346.01	0.816
346.22	0.811
346.43	0.805
346.64	0.814
346.85	0.813
347.06	0.806
347.26	0.807
347.47	0.811
347.68	0.806
347.89	0.802
348.10	0.797
348.31	0.805
348.52	0.804
348.73	0.801
348.93	0.798
349.14	0.801
349.35	0.800
349.56	0.794
349.77	0.790
349.98	0.797
350.19	0.794
350.39	0.789
350.60	0.784
350.81	0.801
351.02	0.800
351.23	0.795
351.44	0.797
351.65	0.800
351.86	0.797
352.06	0.795
352.27	0.795
352.48	0.797
352.69	0.796
352.90	0.789
353.11	0.775
353.31	0.783
353.52	0.778
353.73	0.770
353.94	0.771
354.15	0.777
354.36	0.776
354.57	0.767
354.77	0.770
354.98	0.770
355.19	0.769
355.40	0.769
355.61	0.775
355.82	0.780
356.02	0.780
356.23	0.774
356.44	0.776
356.65	0.781
356.86	0.781
357.07	0.774
357.27	0.778
357.48	0.781
357.69	0.777
357.90	0.761
358.11	0.758
358.32	0.763
358.52	0.765
358.73	0.754
358.94	0.757
359.15	0.762
359.36	0.763
359.56	0.758
359.77	0.755
359.98	0.762
360.19	0.762
360.40	0.757
360.61	0.757
360.81	0.757
361.02	0.757
361.23	0.747
361.44	0.745
361.65	0.747
361.85	0.746
362.06	0.743
362.27	0.745
362.48	0.746
362.69	0.749
362.89	0.742
363.10	0.744
363.31	0.749
363.52	0.753
363.73	0.749
363.93	0.749
364.14	0.750
364.35	0.753
364.56	0.742
364.77	0.743
364.97	0.745
365.18	0.747
365.39	0.740
365.60	0.738
365.81	0.738
366.01	0.737
366.22	0.734
366.43	0.734
366.64	0.736
366.84	0.742
367.05	0.738
367.26	0.737
367.47	0.740
367.68	0.740
367.88	0.737
368.09	0.735
368.30	0.738
368.51	0.737
368.71	0.736
368.92	0.740
369.13	0.738
369.34	0.737
369.55	0.736
369.75	0.735
369.96	0.743
370.17	0.742
370.38	0.738
370.58	0.738
370.79	0.745
371.00	0.743
371.21	0.733
371.41	0.739
371.62	0.743
371.83	0.739
372.04	0.737
372.24	0.730
372.45	0.732
372.66	0.732
372.87	0.728
373.07	0.724
373.28	0.725
373.49	0.728
373.70	0.718
373.90	0.717
374.11	0.727
374.32	0.726
374.53	0.725
374.73	0.725
374.94	0.728
375.15	0.728
375.36	0.725
375.56	0.734
375.77	0.734
375.98	0.736
376.19	0.732
376.39	0.726
376.60	0.729
376.81	0.729
377.02	0.726
377.22	0.724
377.43	0.724
377.64	0.724
377.84	0.714
378.05	0.720
378.26	0.726
378.47	0.726
378.67	0.722
378.88	0.719
379.09	0.721
379.30	0.721
379.50	0.719
379.71	0.721
379.92	0.724
380.12	0.724
380.33	0.715
380.54	0.710
380.75	0.717
380.95	0.717
381.16	0.716
381.37	0.715
381.57	0.718
381.78	0.719
381.99	0.718
382.20	0.718
382.40	0.721
382.61	0.721
382.82	0.718
383.02	0.711
383.23	0.714
383.44	0.714
383.64	0.711
383.85	0.713
384.06	0.716
384.27	0.713
384.47	0.711
384.68	0.712
384.89	0.717
385.09	0.717
385.30	0.716
385.51	0.715
385.71	0.718
385.92	0.719
386.13	0.716
386.33	0.718
386.54	0.719
386.75	0.717
386.95	0.713
387.16	0.708
387.37	0.711
387.58	0.711
387.78	0.708
387.99	0.706
388.20	0.709
388.40	0.706
388.61	0.702
388.82	0.705
389.02	0.708
389.23	0.708
389.44	0.705
389.64	0.706
389.85	0.717
390.06	0.716
390.26	0.717
390.47	0.715
390.68	0.718
390.88	0.716
391.09	0.711
391.30	0.710
391.50	0.709
391.71	0.710
391.92	0.706
392.12	0.698
392.33	0.699
392.53	0.699
392.74	0.698
392.95	0.698
393.15	0.701
393.36	0.703
393.57	0.700
393.77	0.704
393.98	0.706
394.19	0.706
394.39	0.704
394.60	0.705
394.81	0.707
395.01	0.705
395.22	0.703
395.43	0.703
395.63	0.709
395.84	0.710
396.04	0.705
396.25	0.707
396.46	0.709
396.66	0.707
396.87	0.705
397.08	0.701
397.28	0.704
397.49	0.705
397.69	0.701
397.90	0.695
398.11	0.697
398.31	0.697
398.52	0.693
398.73	0.694
398.93	0.693
399.14	0.692
399.34	0.691
399.55	0.691
399.76	0.692
399.96	0.693
400.17	0.691
400.37	0.689
400.58	0.696
400.79	0.699
400.99	0.696
401.20	0.701
401.41	0.704
401.61	0.705
401.82	0.711
402.02	0.710
402.23	0.711
402.44	0.711
402.64	0.711
402.85	0.705
403.05	0.704
403.26	0.702
403.47	0.697
403.67	0.696
403.88	0.696
404.08	0.690
404.29	0.688
404.50	0.687
404.70	0.687
404.91	0.687
405.11	0.683
405.32	0.683
405.52	0.684
405.73	0.683
405.94	0.682
406.14	0.684
406.35	0.687
406.55	0.687
406.76	0.684
406.97	0.685
407.17	0.688
407.38	0.687
407.58	0.686
407.79	0.689
407.99	0.691
408.20	0.691
408.41	0.687
408.61	0.684
408.82	0.686
409.02	0.686
409.23	0.683
409.43	0.682
409.64	0.683
409.84	0.682
410.05	0.678
410.26	0.676
410.46	0.676
410.67	0.676
410.87	0.677
411.08	0.678
411.28	0.680
411.49	0.682
411.69	0.679
411.90	0.681
412.11	0.683
412.31	0.684
412.52	0.682
412.72	0.683
412.93	0.684
413.13	0.683
413.34	0.680
413.54	0.681
413.75	0.683
413.95	0.682
414.16	0.679
414.37	0.682
414.57	0.682
414.78	0.685
414.98	0.682
415.19	0.684
415.39	0.682
415.60	0.684
415.80	0.682
416.01	0.680
416.21	0.682
416.42	0.682
416.62	0.677
416.83	0.677
417.03	0.676
417.24	0.676
417.44	0.674
417.65	0.673
417.86	0.674
418.06	0.672
418.27	0.670
418.47	0.672
418.68	0.673
418.88	0.674
419.09	0.672
419.29	0.673
419.50	0.674
419.70	0.673
419.91	0.672
420.11	0.670
420.32	0.673
420.52	0.672
420.73	0.671
420.93	0.672
421.14	0.673
421.34	0.672
421.55	0.668
421.75	0.668
421.96	0.670
422.16	0.670
422.37	0.669
422.57	0.666
422.78	0.668
422.98	0.665
423.19	0.663
423.39	0.662
423.60	0.665
423.80	0.666
424.01	0.664
424.21	0.666
424.42	0.668
424.62	0.667
424.83	0.666
425.03	0.666
425.23	0.668
425.44	0.668
425.64	0.668
425.85	0.668
426.05	0.669
426.26	0.670
426.46	0.666
426.67	0.666
426.87	0.671
427.08	0.672
427.28	0.670
427.49	0.671
427.69	0.672
427.90	0.670
428.10	0.667
428.31	0.667
428.51	0.669
428.71	0.669
428.92	0.670
429.12	0.667
429.33	0.667
429.53	0.671
429.74	0.675
429.94	0.674
430.15	0.675
430.35	0.675
430.56	0.671
430.76	0.671
430.96	0.671
431.17	0.668
431.37	0.665
431.58	0.664
431.78	0.661
431.99	0.654
432.19	0.657
432.40	0.658
432.60	0.659
432.80	0.662
433.01	0.659
433.21	0.660
433.42	0.663
433.62	0.663
433.83	0.662
434.03	0.665
434.23	0.668
434.44	0.666
434.64	0.664
434.85	0.669
435.05	0.671
435.26	0.672
435.46	0.670
435.66	0.669
435.87	0.669
436.07	0.669
436.28	0.665
436.48	0.662
436.69	0.662
436.89	0.662
437.09	0.656
437.30	0.655
437.50	0.655
437.71	0.667
437.91	0.666
438.11	0.668
438.32	0.673
438.52	0.673
438.73	0.672
438.93	0.670
439.13	0.670
439.34	0.674
439.54	0.672
439.75	0.671
439.95	0.661
440.15	0.665
440.36	0.664
440.56	0.661
440.77	0.662
440.97	0.662
441.17	0.661
441.38	0.662
441.58	0.660
441.79	0.660
441.99	0.658
442.19	0.658
442.40	0.656
442.60	0.656
442.81	0.653
443.01	0.653
443.21	0.654
443.42	0.654
443.62	0.652
443.82	0.652
444.03	0.653
444.23	0.653
444.44	0.653
444.64	0.652
444.84	0.653
445.05	0.654
445.25	0.651
445.45	0.652
445.66	0.655
445.86	0.654
446.06	0.655
446.27	0.655
446.47	0.658
446.68	0.657
446.88	0.655
447.08	0.655
447.29	0.657
447.49	0.657
447.69	0.656
447.90	0.655
448.10	0.659
448.30	0.656
448.51	0.657
448.71	0.655
448.91	0.658
449.12	0.656
449.32	0.658
449.52	0.656
449.73	0.661
449.93	0.659
450.14	0.659
450.34	0.658
450.54	0.661
450.75	0.659
450.95	0.658
451.15	0.657
451.36	0.660
451.56	0.657
451.76	0.657
451.97	0.653
452.17	0.655
452.37	0.653
452.58	0.650
452.78	0.649
452.98	0.652
453.19	0.651
453.39	0.652
453.59	0.651
453.79	0.652
454.00	0.652
454.20	0.651
454.40	0.652
454.61	0.654
454.81	0.655
455.01	0.653
455.22	0.654
455.42	0.656
455.62	0.654
455.83	0.653
456.03	0.656
456.23	0.658
456.44	0.659
456.64	0.657
456.84	0.657
457.04	0.658
457.25	0.657
457.45	0.654
457.65	0.652
457.86	0.654
458.06	0.653
458.26	0.648
458.47	0.648
458.67	0.649
458.87	0.649
459.07	0.647
459.28	0.650
459.48	0.652
459.68	0.653
459.89	0.652
460.09	0.651
460.29	0.653
460.49	0.654
460.70	0.653
460.90	0.652
461.10	0.653
461.31	0.653
461.51	0.650
461.71	0.651
461.91	0.653
462.12	0.653
462.32	0.651
462.52	0.651
462.72	0.654
462.93	0.655
463.13	0.653
463.33	0.654
463.53	0.656
463.74	0.656
463.94	0.652
464.14	0.651
464.35	0.653
464.55	0.654
464.75	0.651
464.95	0.649
465.16	0.651
465.36	0.650
465.56	0.648
465.76	0.647
465.97	0.648
466.17	0.649
466.37	0.647
466.57	0.648
466.78	0.649
466.98	0.649
467.18	0.647
467.38	0.646
467.59	0.648
467.79	0.650
467.99	0.649
468.19	0.651
468.39	0.653
468.60	0.653
468.80	0.651
469.00	0.653
469.20	0.654
469.41	0.654
469.61	0.653
469.81	0.653
470.01	0.652
470.22	0.653
470.42	0.650
470.62	0.648
470.82	0.650
471.02	0.650
471.23	0.648
471.43	0.648
471.63	0.650
471.83	0.649
472.04	0.648
472.24	0.646
472.44	0.651
472.64	0.652
472.84	0.649
473.05	0.648
473.25	0.652
473.45	0.651
473.65	0.649
473.85	0.651
474.06	0.653
474.26	0.652
474.46	0.653
474.66	0.650
474.86	0.651
475.07	0.651
475.27	0.649
475.47	0.646
475.67	0.647
475.87	0.648
476.08	0.644
476.28	0.645
476.48	0.647
476.68	0.645
476.88	0.643
477.09	0.644
477.29	0.646
477.49	0.646
477.69	0.645
477.89	0.645
478.09	0.645
478.30	0.647
478.50	0.644
478.70	0.644
478.90	0.645
479.10	0.648
479.31	0.649
479.51	0.647
479.71	0.648
479.91	0.648
480.11	0.647
480.31	0.647
480.52	0.646
480.72	0.646
480.92	0.644
481.12	0.643
481.32	0.640
481.52	0.638
481.72	0.638
481.93	0.642
482.13	0.642
482.33	0.642
482.53	0.640
482.73	0.640
482.93	0.641
483.14	0.641
483.34	0.640
483.54	0.641
483.74	0.640
483.94	0.639
484.14	0.635
484.34	0.635
484.55	0.636
484.75	0.635
484.95	0.633
485.15	0.633
485.35	0.633
485.55	0.633
485.75	0.631
485.96	0.632
486.16	0.633
486.36	0.633
486.56	0.632
486.76	0.632
486.96	0.633
487.16	0.633
487.36	0.631
487.57	0.631
487.77	0.632
487.97	0.632
488.17	0.631
488.37	0.630
488.57	0.631
488.77	0.631
488.97	0.630
489.18	0.629
489.38	0.631
489.58	0.631
489.78	0.630
489.98	0.630
490.18	0.630
490.38	0.631
490.58	0.630
490.78	0.630
490.98	0.632
491.19	0.632
491.39	0.632
491.59	0.631
491.79	0.634
491.99	0.634
492.19	0.634
492.39	0.637
492.59	0.636
492.79	0.638
492.99	0.638
493.20	0.638
493.40	0.638
493.60	0.640
493.80	0.638
494.00	0.635
494.20	0.636
494.40	0.635
494.60	0.632
494.80	0.637
495.00	0.636
495.20	0.635
495.40	0.633
495.61	0.635
495.81	0.635
496.01	0.638
496.21	0.639
496.41	0.638
496.61	0.639
496.81	0.638
497.01	0.633
497.21	0.633
497.41	0.633
497.61	0.633
497.81	0.631
498.01	0.631
498.21	0.629
498.41	0.627
498.61	0.627
498.82	0.628
499.02	0.631
499.22	0.631
499.42	0.630
499.62	0.631
499.82	0.632
500.02	0.634
500.22	0.632
500.42	0.634
500.62	0.635
500.82	0.635
501.02	0.633
501.22	0.633
501.42	0.633
501.62	0.635
501.82	0.635
502.02	0.635
502.22	0.635
502.42	0.637
502.62	0.634
502.82	0.635
503.02	0.636
503.22	0.635
503.42	0.633
503.63	0.633
503.83	0.631
504.03	0.630
504.23	0.628
504.43	0.629
504.63	0.630
504.83	0.630
505.03	0.628
505.23	0.629
505.43	0.631
505.63	0.632
505.83	0.632
506.03	0.633
506.23	0.635
506.43	0.635
506.63	0.634
506.83	0.633
507.03	0.635
507.23	0.636
507.43	0.634
507.63	0.634
507.83	0.634
508.03	0.635
508.23	0.634
508.43	0.633
508.63	0.635
508.83	0.636
509.03	0.636
509.23	0.636
509.43	0.636
509.63	0.636
509.83	0.635
510.03	0.638
510.23	0.640
510.43	0.640
510.63	0.641
510.83	0.641
511.03	0.643
511.23	0.640
511.43	0.639
511.63	0.641
511.83	0.644
512.03	0.643
512.22	0.640
512.42	0.640
512.62	0.641
512.82	0.640
513.02	0.639
513.22	0.638
513.42	0.640
513.62	0.643
513.82	0.641
514.02	0.640
514.22	0.642
514.42	0.642
514.62	0.642
514.82	0.642
515.02	0.645
515.22	0.649
515.42	0.647
515.62	0.650
515.82	0.649
516.02	0.650
516.22	0.649
516.42	0.650
516.62	0.652
516.82	0.653
517.01	0.651
517.21	0.650
517.41	0.653
517.61	0.654
517.81	0.650
518.01	0.649
518.21	0.649
518.41	0.648
518.61	0.647
518.81	0.647
519.01	0.648
519.21	0.650
519.41	0.649
519.61	0.644
519.81	0.647
520.00	0.647
520.20	0.647
520.40	0.650
520.60	0.652
520.80	0.651
521.00	0.651
521.20	0.652
521.40	0.656
521.60	0.656
521.80	0.654
522.00	0.655
522.20	0.658
522.39	0.658
522.59	0.653
522.79	0.655
522.99	0.658
523.19	0.656
523.39	0.654
523.59	0.652
523.79	0.656
523.99	0.658
524.19	0.657
524.38	0.655
524.58	0.657
524.78	0.658
524.98	0.656
525.18	0.657
525.38	0.659
525.58	0.659
525.78	0.656
525.98	0.655
526.18	0.656
526.37	0.655
526.57	0.656
526.77	0.655
526.97	0.656
527.17	0.656
527.37	0.652
527.57	0.654
527.77	0.657
527.96	0.657
528.16	0.656
528.36	0.656
528.56	0.658
528.76	0.656
528.96	0.655
529.16	0.656
529.36	0.660
529.55	0.659
529.75	0.656
529.95	0.656
530.15	0.657
530.35	0.660
530.55	0.657
530.75	0.658
530.94	0.659
531.14	0.660
531.34	0.658
531.54	0.656
531.74	0.660
531.94	0.663
532.13	0.661
532.33	0.663
532.53	0.662
532.73	0.661
532.93	0.659
533.13	0.660
533.33	0.660
533.52	0.660
533.72	0.663
533.92	0.661
534.12	0.659
534.32	0.659
534.52	0.656
534.71	0.658
534.91	0.662
535.11	0.663
535.31	0.661
535.51	0.663
535.71	0.665
535.90	0.663
536.10	0.664
536.30	0.667
536.50	0.669
536.70	0.669
536.89	0.667
537.09	0.666
537.29	0.668
537.49	0.669
537.69	0.667
537.89	0.668
538.08	0.668
538.28	0.665
538.48	0.665
538.68	0.666
538.88	0.668
539.07	0.668
539.27	0.665
539.47	0.664
539.67	0.664
539.87	0.665
540.06	0.662
540.26	0.663
540.46	0.666
540.66	0.664
540.86	0.661
541.05	0.661
541.25	0.663
541.45	0.664
541.65	0.662
541.84	0.664
542.04	0.665
542.24	0.666
542.44	0.665
542.64	0.665
542.83	0.668
543.03	0.667
543.23	0.665
543.43	0.665
543.62	0.667
543.82	0.667
544.02	0.666
544.22	0.666
544.42	0.669
544.61	0.670
544.81	0.667
545.01	0.666
545.21	0.669
545.40	0.670
545.60	0.667
545.80	0.671
546.00	0.671
546.19	0.670
546.39	0.670
546.59	0.668
546.79	0.670
546.98	0.670
547.18	0.669
547.38	0.669
547.58	0.672
547.77	0.673
547.97	0.669
548.17	0.671
548.37	0.671
548.56	0.671
548.76	0.670
548.96	0.672
549.16	0.675
549.35	0.675
549.55	0.672
549.75	0.672
549.95	0.676
550.14	0.676
550.34	0.674
550.54	0.680
550.73	0.684
550.93	0.684
551.13	0.681
551.33	0.679
551.52	0.681
551.72	0.681
551.92	0.679
552.12	0.679
552.31	0.680
552.51	0.679
552.71	0.674
552.90	0.673
553.10	0.674
553.30	0.674
553.50	0.673
553.69	0.674
553.89	0.675
554.09	0.675
554.28	0.672
554.48	0.673
554.68	0.676
554.87	0.677
555.07	0.674
555.27	0.673
555.47	0.675
555.66	0.676
555.86	0.674
556.06	0.676
556.25	0.678
556.45	0.686
556.65	0.684
556.84	0.686
557.04	0.690
557.24	0.691
557.43	0.691
557.63	0.694
557.83	0.696
558.02	0.696
558.22	0.700
558.42	0.700
558.61	0.693
558.81	0.693
559.01	0.689
559.21	0.689
559.40	0.690
559.60	0.690
559.80	0.686
559.99	0.687
560.19	0.689
560.39	0.683
560.58	0.680
560.78	0.681
560.97	0.684
561.17	0.683
561.37	0.681
561.56	0.682
561.76	0.684
561.96	0.684
562.15	0.681
562.35	0.683
562.55	0.685
562.74	0.685
562.94	0.683
563.14	0.681
563.33	0.682
563.53	0.681
563.73	0.678
563.92	0.679
564.12	0.682
564.31	0.686
564.51	0.684
564.71	0.686
564.90	0.689
565.10	0.690
565.30	0.692
565.49	0.694
565.69	0.697
565.89	0.698
566.08	0.695
566.28	0.696
566.47	0.698
566.67	0.695
566.87	0.692
567.06	0.694
567.26	0.700
567.46	0.696
567.65	0.694
567.85	0.696
568.04	0.699
568.24	0.698
568.44	0.696
568.63	0.693
568.83	0.695
569.02	0.693
569.22	0.688
569.42	0.685
569.61	0.687
569.81	0.686
570.00	0.683
570.20	0.684
570.40	0.686
570.59	0.685
570.79	0.683
570.98	0.681
571.18	0.683
571.38	0.682
571.57	0.679
571.77	0.676
571.96	0.680
572.16	0.677
572.35	0.672
572.55	0.672
572.75	0.671
572.94	0.670
573.14	0.669
573.33	0.670
573.53	0.671
573.73	0.671
573.92	0.669
574.12	0.667
574.31	0.669
574.51	0.670
574.70	0.667
574.90	0.669
575.09	0.671
575.29	0.671
575.49	0.668
575.68	0.669
575.88	0.670
576.07	0.672
576.27	0.669
576.46	0.668
576.66	0.668
576.86	0.667
577.05	0.665
577.25	0.664
577.44	0.666
577.64	0.666
577.83	0.664
578.03	0.664
578.22	0.664
578.42	0.663
578.61	0.661
578.81	0.662
579.00	0.663
579.20	0.663
579.40	0.661
579.59	0.660
579.79	0.660
579.98	0.660
580.18	0.659
580.37	0.659
580.57	0.661
580.76	0.665
580.96	0.663
581.15	0.664
581.35	0.666
581.54	0.666
581.74	0.665
581.93	0.667
582.13	0.668
582.32	0.666
582.52	0.663
582.71	0.663
582.91	0.660
583.10	0.660
583.30	0.658
583.49	0.657
583.69	0.661
583.88	0.663
584.08	0.662
584.27	0.663
584.47	0.667
584.66	0.668
584.86	0.667
585.05	0.669
585.25	0.671
585.44	0.671
585.64	0.670
585.83	0.667
586.03	0.667
586.22	0.666
586.42	0.662
586.61	0.664
586.81	0.666
587.00	0.666
587.20	0.663
587.39	0.664
587.59	0.666
587.78	0.667
587.98	0.668
588.17	0.668
588.37	0.671
588.56	0.673
588.76	0.669
588.95	0.670
589.15	0.673
589.34	0.676
589.54	0.673
589.73	0.674
589.92	0.677
590.12	0.677
590.31	0.674
590.51	0.679
590.70	0.680
590.90	0.681
591.09	0.678
591.29	0.676
591.48	0.677
591.68	0.679
591.87	0.676
592.06	0.676
592.26	0.678
592.45	0.678
592.65	0.672
592.84	0.671
593.04	0.674
593.23	0.676
593.43	0.673
593.62	0.673
593.81	0.673
594.01	0.673
594.20	0.670
594.40	0.669
594.59	0.672
594.79	0.673
594.98	0.671
595.17	0.670
595.37	0.671
595.56	0.673
595.76	0.672
595.95	0.674
596.14	0.677
596.34	0.678
596.53	0.676
596.73	0.677
596.92	0.679
597.12	0.682
597.31	0.681
597.50	0.680
597.70	0.682
597.89	0.681
598.09	0.678
598.28	0.680
598.47	0.682
598.67	0.681
598.86	0.678
599.06	0.679
599.25	0.680
599.44	0.679
599.64	0.676
599.83	0.674
600.03	0.677
600.22	0.678
600.41	0.677
600.61	0.676
600.80	0.678
601.00	0.679
601.19	0.674
601.38	0.673
601.58	0.676
601.77	0.676
601.96	0.678
602.16	0.679
602.35	0.688
602.55	0.685
602.74	0.685
602.93	0.687
603.13	0.692
603.32	0.694
603.51	0.693
603.71	0.695
603.90	0.697
604.09	0.698
604.29	0.694
604.48	0.688
604.68	0.690
604.87	0.689
605.06	0.684
605.26	0.681
605.45	0.682
605.64	0.681
605.84	0.676
606.03	0.675
606.22	0.675
606.42	0.674
606.61	0.671
606.80	0.671
607.00	0.673
607.19	0.674
607.38	0.673
607.58	0.674
607.77	0.676
607.96	0.676
608.16	0.675
608.35	0.679
608.54	0.683
608.74	0.686
608.93	0.691
609.12	0.694
609.32	0.697
609.51	0.701
609.70	0.699
609.90	0.701
610.09	0.706
610.28	0.711
610.48	0.705
610.67	0.707
610.86	0.707
611.06	0.701
611.25	0.698
611.44	0.699
611.64	0.699
611.83	0.701
612.02	0.697
612.21	0.696
612.41	0.695
612.60	0.694
612.79	0.690
612.99	0.690
613.18	0.692
613.37	0.690
613.57	0.686
613.76	0.689
613.95	0.686
614.14	0.686
614.34	0.683
614.53	0.684
614.72	0.688
614.92	0.688
615.11	0.685
615.30	0.682
615.49	0.684
615.69	0.687
615.88	0.683
616.07	0.685
616.26	0.688
616.46	0.690
616.65	0.686
616.84	0.684
617.04	0.686
617.23	0.690
617.42	0.690
617.61	0.693
617.81	0.694
618.00	0.695
618.19	0.693
618.38	0.697
618.58	0.700
618.77	0.701
618.96	0.700
619.15	0.703
619.35	0.704
619.54	0.705
619.73	0.701
619.92	0.703
620.12	0.708
620.31	0.708
620.50	0.703
620.69	0.703
620.89	0.707
621.08	0.706
621.27	0.707
621.46	0.705
621.66	0.710
621.85	0.710
622.04	0.705
622.23	0.706
622.43	0.707
622.62	0.707
622.81	0.705
623.00	0.705
623.19	0.710
623.39	0.708
623.58	0.705
623.77	0.703
623.96	0.707
624.16	0.708
624.35	0.702
624.54	0.704
624.73	0.708
624.92	0.705
625.12	0.702
625.31	0.703
625.50	0.707
625.69	0.708
625.88	0.704
626.08	0.702
626.27	0.704
626.46	0.705
626.65	0.702
626.84	0.702
627.04	0.708
627.23	0.707
627.42	0.703
627.61	0.705
627.80	0.708
628.00	0.709
628.19	0.707
628.38	0.711
628.57	0.713
628.76	0.713
628.96	0.709
629.15	0.710
629.34	0.713
629.53	0.714
629.72	0.707
629.91	0.708
630.11	0.713
630.30	0.714
630.49	0.715
630.68	0.717
630.87	0.720
631.06	0.722
631.26	0.716
631.45	0.718
631.64	0.727
631.83	0.730
632.02	0.726
632.21	0.725
632.41	0.733
632.60	0.728
632.79	0.725
632.98	0.726
633.17	0.727
633.36	0.729
633.55	0.725
633.75	0.721
633.94	0.722
634.13	0.722
634.32	0.719
634.51	0.712
634.70	0.714
634.89	0.714
635.09	0.710
635.28	0.711
635.47	0.713
635.66	0.716
635.85	0.712
636.04	0.714
636.23	0.719
636.43	0.720
636.62	0.720
636.81	0.719
637.00	0.723
637.19	0.727
637.38	0.723
637.57	0.722
637.76	0.725
637.95	0.726
638.15	0.721
638.34	0.717
638.53	0.720
638.72	0.722
638.91	0.718
639.10	0.716
639.29	0.717
639.48	0.718
639.67	0.718
639.87	0.716
640.06	0.722
640.25	0.722
640.44	0.723
640.63	0.724
640.82	0.726
641.01	0.727
641.20	0.726
641.39	0.727
641.58	0.730
641.78	0.728
641.97	0.724
642.16	0.737
642.35	0.739
642.54	0.738
642.73	0.731
642.92	0.729
643.11	0.732
643.30	0.732
643.49	0.726
643.68	0.729
643.87	0.732
644.06	0.732
644.25	0.712
644.45	0.714
644.64	0.716
644.83	0.717
645.02	0.715
645.21	0.714
645.40	0.717
645.59	0.717
645.78	0.710
645.97	0.712
646.16	0.713
646.35	0.712
646.54	0.710
646.73	0.711
646.92	0.713
647.11	0.711
647.30	0.707
647.49	0.708
647.68	0.707
647.88	0.706
648.07	0.698
648.26	0.702
648.45	0.705
648.64	0.701
648.83	0.698
649.02	0.700
649.21	0.713
649.40	0.712
649.59	0.707
649.78	0.708
649.97	0.723
650.16	0.723
650.35	0.716
650.54	0.718
650.73	0.726
650.92	0.724
651.11	0.717
651.30	0.713
651.49	0.718
651.68	0.718
651.87	0.715
652.06	0.704
652.25	0.707
652.44	0.710
652.63	0.706
652.82	0.706
653.01	0.705
653.20	0.702
653.39	0.690
653.58	0.687
653.77	0.687
653.96	0.682
654.15	0.674
654.34	0.672
654.53	0.668
654.72	0.663
654.91	0.653
655.10	0.649
655.29	0.647
655.48	0.646
655.67	0.641
655.86	0.638
656.05	0.637
656.24	0.637
656.43	0.631
656.62	0.630
656.81	0.630
657.00	0.629
657.19	0.626
657.38	0.627
657.57	0.626
657.76	0.628
657.95	0.626
658.14	0.630
658.33	0.633
658.51	0.639
658.70	0.639
658.89	0.641
659.08	0.650
659.27	0.658
659.46	0.658
659.65	0.663
659.84	0.668
660.03	0.671
660.22	0.673
660.41	0.676
660.60	0.676
660.79	0.678
660.98	0.683
661.17	0.682
661.36	0.681
661.55	0.682
661.74	0.679
661.92	0.682
662.11	0.685
662.30	0.682
662.49	0.674
662.68	0.673
662.87	0.678
663.06	0.672
663.25	0.673
663.44	0.673
663.63	0.675
663.82	0.674
664.01	0.669
664.20	0.667
664.38	0.669
664.57	0.671
664.76	0.670
664.95	0.670
665.14	0.675
665.33	0.670
665.52	0.677
665.71	0.680
665.90	0.680
666.09	0.682
666.28	0.679
666.46	0.678
666.65	0.678
666.84	0.676
667.03	0.669
667.22	0.667
667.41	0.670
667.60	0.660
667.79	0.653
667.98	0.654
668.16	0.655
668.35	0.654
668.54	0.650
668.73	0.651
668.92	0.652
669.11	0.651
669.30	0.646
669.49	0.642
669.67	0.644
669.86	0.646
670.05	0.643
670.24	0.641
670.43	0.639
670.62	0.638
670.81	0.633
671.00	0.635
671.18	0.634
671.37	0.633
671.56	0.631
671.75	0.630
671.94	0.628
672.13	0.626
672.32	0.621
672.50	0.621
672.69	0.622
672.88	0.622
673.07	0.617
673.26	0.620
673.45	0.621
673.63	0.621
673.82	0.617
674.01	0.618
674.20	0.618
674.39	0.617
674.58	0.616
674.76	0.616
674.95	0.614
675.14	0.614
675.33	0.608
675.52	0.607
675.71	0.607
675.89	0.607
676.08	0.602
676.27	0.602
676.46	0.604
676.65	0.603
676.84	0.603
677.02	0.606
677.21	0.608
677.40	0.607
677.59	0.604
677.78	0.605
677.96	0.607
678.15	0.607
678.34	0.604
678.53	0.605
678.72	0.605
678.90	0.601
679.09	0.597
679.28	0.593
679.47	0.594
679.66	0.593
679.84	0.590
680.03	0.587
680.22	0.586
680.41	0.588
680.60	0.584
680.78	0.584
680.97	0.586
681.16	0.586
681.35	0.585
681.53	0.584
681.72	0.585
681.91	0.588
682.10	0.587
682.29	0.590
682.47	0.588
682.66	0.587
682.85	0.585
683.04	0.584
683.22	0.584
683.41	0.585
683.60	0.585
683.79	0.586
683.97	0.585
684.16	0.583
684.35	0.579
684.54	0.581
684.72	0.581
684.91	0.581
685.10	0.579
685.29	0.580
685.47	0.577
685.66	0.576
685.85	0.572
686.04	0.571
686.22	0.574
686.41	0.576
686.60	0.573
686.79	0.576
686.97	0.577
687.16	0.579
687.35	0.575
687.54	0.579
687.72	0.583
687.91	0.583
688.10	0.585
688.29	0.585
688.47	0.583
688.66	0.583
688.85	0.579
689.03	0.576
689.22	0.581
689.41	0.581
689.60	0.576
689.78	0.574
689.97	0.574
690.16	0.571
690.34	0.567
690.53	0.567
690.72	0.567
690.91	0.565
691.09	0.563
691.28	0.557
691.47	0.555
691.65	0.554
691.84	0.551
692.03	0.550
692.21	0.549
692.40	0.549
692.59	0.546
692.77	0.546
692.96	0.548
693.15	0.549
693.34	0.546
693.52	0.546
693.71	0.547
693.90	0.548
694.08	0.549
694.27	0.549
694.46	0.559
694.64	0.560
694.83	0.559
695.02	0.558
695.20	0.557
695.39	0.557
695.58	0.556
695.76	0.557
695.95	0.557
696.14	0.556
696.32	0.554
696.51	0.544
696.70	0.545
696.88	0.546
697.07	0.544
697.26	0.546
697.44	0.547
697.63	0.546
697.81	0.544
698.00	0.543
698.19	0.542
698.37	0.543
698.56	0.542
698.75	0.541
698.93	0.542
699.12	0.541
699.31	0.539
699.49	0.538
699.68	0.539
699.87	0.542
700.05	0.541
700.24	0.541
700.42	0.542
700.61	0.542
700.80	0.540
700.98	0.539
701.17	0.542
701.36	0.541
701.54	0.540
701.73	0.542
701.91	0.539
702.10	0.538
702.29	0.536
702.47	0.535
702.66	0.536
702.84	0.537
703.03	0.535
703.22	0.537
703.40	0.536
703.59	0.537
703.77	0.537
703.96	0.537
704.15	0.538
704.33	0.539
704.52	0.537
704.70	0.537
704.89	0.537
705.08	0.536
705.26	0.531
705.45	0.532
705.63	0.531
705.82	0.528
706.00	0.527
706.19	0.527
706.38	0.527
706.56	0.526
706.75	0.525
706.93	0.524
707.12	0.526
707.30	0.526
707.49	0.523
707.68	0.521
707.86	0.521
708.05	0.521
708.23	0.518
708.42	0.519
708.60	0.522
708.79	0.522
708.98	0.520
709.16	0.519
709.35	0.522
709.53	0.526
709.72	0.525
709.90	0.527
710.09	0.528
710.27	0.530
710.46	0.533
710.64	0.532
710.83	0.533
711.02	0.535
711.20	0.533
711.39	0.532
711.57	0.529
711.76	0.530
711.94	0.527
712.13	0.528
712.31	0.528
712.50	0.523
712.68	0.520
712.87	0.521
713.05	0.521
713.24	0.522
713.42	0.521
713.61	0.521
713.79	0.522
713.98	0.523
714.16	0.523
714.35	0.523
714.54	0.524
714.72	0.525
714.91	0.522
715.09	0.529
715.28	0.532
715.46	0.533
715.65	0.530
715.83	0.530
716.02	0.533
716.20	0.529
716.39	0.529
716.57	0.530
716.76	0.534
716.94	0.534
717.12	0.525
717.31	0.526
717.49	0.529
717.68	0.531
717.86	0.530
718.05	0.531
718.23	0.534
718.42	0.537
718.60	0.538
718.79	0.545
718.97	0.547
719.16	0.548
719.34	0.544
719.53	0.544
719.71	0.544
719.90	0.546
720.08	0.543
720.27	0.543
720.45	0.543
720.63	0.542
720.82	0.535
721.00	0.539
721.19	0.543
721.37	0.543
721.56	0.544
721.74	0.546
721.93	0.555
722.11	0.564
722.30	0.563
722.48	0.567
722.66	0.569
722.85	0.569
723.03	0.568
723.22	0.567
723.40	0.570
723.59	0.570
723.77	0.574
723.95	0.567
724.14	0.569
724.32	0.570
724.51	0.569
724.69	0.571
724.88	0.572
725.06	0.570
725.24	0.571
725.43	0.573
725.61	0.575
725.80	0.568
725.98	0.566
726.16	0.562
726.35	0.568
726.53	0.567
726.72	0.565
726.90	0.576
727.09	0.577
727.27	0.583
727.45	0.579
727.64	0.589
727.82	0.598
728.01	0.603
728.19	0.600
728.37	0.605
728.56	0.610
728.74	0.616
728.92	0.603
729.11	0.605
729.29	0.605
729.48	0.608
729.66	0.596
729.84	0.596
730.03	0.599
730.21	0.601
730.40	0.590
730.58	0.591
730.76	0.592
730.95	0.594
731.13	0.593
731.31	0.606
731.50	0.616
731.68	0.618
731.86	0.614
732.05	0.629
732.23	0.633
732.42	0.637
732.60	0.640
732.78	0.647
732.97	0.668
733.15	0.674
733.33	0.662
733.52	0.669
733.70	0.682
733.88	0.692
734.07	0.679
734.25	0.708
734.43	0.717
734.62	0.719
734.80	0.710
734.98	0.701
735.17	0.710
735.35	0.717
735.53	0.704
735.72	0.709
735.90	0.734
736.08	0.753
736.27	0.725
736.45	0.736
736.63	0.753
736.82	0.765
737.00	0.763
737.18	0.775
737.37	0.810
737.55	0.835
737.73	0.825
737.92	0.827
738.10	0.824
738.28	0.844
738.46	0.829
738.65	0.843
738.83	0.868
739.01	0.928
739.20	0.915
739.38	0.897
739.56	0.889
739.75	0.897
739.93	0.857
740.11	0.883
740.29	0.887
740.48	0.894
740.66	0.868
740.84	0.862
741.03	0.825
741.21	0.837
741.39	0.818
741.57	0.832
741.76	0.851
741.94	0.858
742.12	0.819
742.31	0.826
742.49	0.850
742.67	0.872
742.85	0.884
743.04	0.886
743.22	0.899
743.40	0.954
743.58	0.931
743.77	0.950
743.95	0.997
744.13	1.053
744.31	1.029
744.50	1.023
744.68	1.028
744.86	1.002
745.04	1.009
745.23	1.083
745.41	1.067
745.59	1.073
745.77	1.031
745.96	1.011
746.14	1.030
746.32	1.029
746.50	1.020
746.69	1.000
746.87	1.019
747.05	1.007
747.23	0.918
747.42	0.904
747.60	0.942
747.78	0.943
747.96	0.979
748.14	0.926
748.33	0.961
748.51	0.952
748.69	0.946
748.87	0.983
749.06	0.991
749.24	0.995
749.42	0.976
749.60	0.952
749.78	0.969
749.97	0.917
750.15	0.909
750.33	0.910
750.51	0.942
750.69	0.943
750.88	0.936
751.06	0.942
751.24	0.970
751.42	0.957
751.60	0.943
751.79	1.027
751.97	1.086
752.15	1.085
752.33	1.050
752.51	1.126
752.69	1.154
752.88	1.120
753.06	1.180
753.24	1.152
753.42	1.205
753.60	1.455
753.78	1.219
753.97	1.233
754.15	1.273
754.33	1.297
754.51	1.127
754.69	1.106
754.87	1.143
755.06	1.054
755.24	1.053
755.42	1.062
755.60	0.954
755.78	0.965
755.96	0.900
756.15	0.898
756.33	0.911
756.51	0.933
756.69	0.914
756.87	0.877
757.05	0.901
757.23	0.880
757.42	0.839
757.60	0.835
757.78	0.826
757.96	0.824
758.14	0.801
758.32	0.782
758.50	0.798
758.69	0.799
758.87	0.787
759.05	0.788
759.23	0.801
759.41	0.804
759.59	0.796
759.77	0.821
759.95	0.854
760.13	0.910
760.32	0.910
760.50	0.903
760.68	0.931
760.86	0.933
761.04	0.899
761.22	0.904
761.40	0.961
761.58	0.961
761.76	0.925
761.95	0.903
762.13	0.857
762.31	0.854
762.49	0.824
762.67	0.840
762.85	0.858
763.03	0.852
763.21	0.828
763.39	0.806
763.57	0.812
763.75	0.805
763.94	0.790
764.12	0.788
764.30	0.817
764.48	0.819
764.66	0.783
764.84	0.782
765.02	0.825
765.20	0.832
765.38	0.810
765.56	0.811
765.74	0.855
765.92	0.856
766.10	0.864
766.28	0.854
766.46	0.884
766.65	0.885
766.83	0.866
767.01	0.848
767.19	0.859
767.37	0.858
767.55	0.846
767.73	0.828
767.91	0.832
768.09	0.818
768.27	0.803
768.45	0.792
768.63	0.796
768.81	0.800
768.99	0.772
769.17	0.798
769.35	0.816
769.53	0.815
769.71	0.790
769.89	0.799
770.07	0.807
770.25	0.792
770.43	0.767
770.61	0.793
770.79	0.800
770.97	0.812
771.15	0.777
771.33	0.781
771.51	0.783
771.69	0.794
771.87	0.801
772.05	0.807
772.24	0.818
772.42	0.832
772.60	0.808
772.78	0.876
772.96	0.909
773.14	0.901
773.32	0.876
773.49	0.886
773.67	0.885
773.85	0.862
774.03	0.847
774.21	0.880
774.39	0.892
774.57	0.916
774.75	0.831
774.93	0.827
775.11	0.856
775.29	0.861
775.47	0.859
775.65	0.872
775.83	0.892
776.01	0.916
776.19	0.865
776.37	0.868
776.55	0.867
776.73	0.862
776.91	0.852
777.09	0.834
777.27	0.837
777.45	0.824
777.63	0.799
777.81	0.797
777.99	0.786
778.17	0.785
778.35	0.760
778.53	0.750
778.71	0.759
778.89	0.746
779.07	0.732
779.24	0.736
779.42	0.739
779.60	0.758
779.78	0.752
779.96	0.760
780.14	0.767
780.32	0.787
780.50	0.766
780.68	0.764
780.86	0.759
781.04	0.779
781.22	0.782
781.40	0.798
781.58	0.791
781.75	0.784
781.93	0.761
782.11	0.763
782.29	0.751
782.47	0.749
782.65	0.735
782.83	0.764
783.01	0.756
783.19	0.749
783.37	0.729
783.55	0.731
783.72	0.751
783.90	0.762
784.08	0.752
784.26	0.764
784.44	0.787
784.62	0.789
784.80	0.753
784.98	0.759
785.16	0.766
785.33	0.781
785.51	0.764
785.69	0.751
785.87	0.752
786.05	0.765
786.23	0.757
786.41	0.756
786.59	0.765
786.77	0.763
786.94	0.747
787.12	0.750
787.30	0.753
787.48	0.750
787.66	0.736
787.84	0.739
788.02	0.729
788.19	0.727
788.37	0.709
788.55	0.712
788.73	0.714
788.91	0.710
789.09	0.690
789.27	0.678
789.44	0.691
789.62	0.694
789.80	0.700
789.98	0.724
790.16	0.713
790.34	0.712
790.51	0.695
790.69	0.717
790.87	0.723
791.05	0.723
791.23	0.716
791.41	0.720
791.58	0.730
791.76	0.708
791.94	0.675
792.12	0.684
792.30	0.687
792.48	0.686
792.65	0.676
792.83	0.683
793.01	0.691
793.19	0.689
793.37	0.669
793.54	0.667
793.72	0.681
793.90	0.680
794.08	0.667
794.26	0.667
794.43	0.677
794.61	0.661
794.79	0.650
794.97	0.649
795.15	0.656
795.32	0.661
795.50	0.647
795.68	0.642
795.86	0.648
796.04	0.651
796.21	0.643
796.39	0.641
796.57	0.656
796.75	0.663
796.92	0.661
797.10	0.665
797.28	0.669
797.46	0.673
797.64	0.674
797.81	0.684
797.99	0.687
798.17	0.691
798.35	0.684
798.52	0.687
798.70	0.686
798.88	0.696
799.06	0.694
799.23	0.697
799.41	0.705
799.59	0.697
799.77	0.683
799.94	0.693
800.12	0.705
800.30	0.723
800.48	0.722
800.65	0.721
800.83	0.710
801.01	0.702
801.19	0.701
801.36	0.698
801.54	0.702
801.72	0.713
801.90	0.697
802.07	0.692
802.25	0.678
802.43	0.659
802.60	0.654
802.78	0.662
802.96	0.667
803.14	0.662
803.31	0.658
803.49	0.656
803.67	0.652
803.84	0.657
804.02	0.647
804.20	0.652
804.38	0.658
804.55	0.658
804.73	0.642
804.91	0.642
805.08	0.655
805.26	0.651
805.44	0.720
805.61	0.725
805.79	0.726
805.97	0.725
806.15	0.717
806.32	0.710
806.50	0.718
806.68	0.717
806.85	0.706
807.03	0.695
807.21	0.714
807.38	0.643
807.56	0.631
807.74	0.642
807.91	0.649
808.09	0.649
808.27	0.670
808.44	0.695
808.62	0.708
808.80	0.711
808.97	0.705
809.15	0.701
809.33	0.720
809.50	0.727
809.68	0.709
809.86	0.716
810.03	0.754
810.21	0.731
810.39	0.711
810.56	0.717
810.74	0.746
810.91	0.825
811.09	0.811
811.27	0.834
811.44	0.841
811.62	0.844
811.80	0.826
811.97	0.790
812.15	0.794
812.33	0.787
812.50	0.770
812.68	0.755
812.85	0.697
813.03	0.699
813.21	0.665
813.38	0.660
813.56	0.665
813.74	0.676
813.91	0.683
814.09	0.717
814.26	0.714
814.44	0.717
814.62	0.704
814.79	0.708
814.97	0.716
815.14	0.720
815.32	0.723
815.50	0.739
815.67	0.745
815.85	0.734
816.02	0.719
816.20	0.725
816.38	0.745
816.55	0.752
816.73	0.749
816.90	0.759
817.08	0.793
817.26	0.799
817.43	0.776
817.61	0.800
817.78	0.825
817.96	0.800
818.13	0.789
818.31	0.789
818.49	0.806
818.66	0.797
818.84	0.780
819.01	0.757
819.19	0.767
819.36	0.772
819.54	0.738
819.71	0.784
819.89	0.802
820.07	0.814
820.24	0.805
820.42	0.803
820.59	0.828
820.77	0.855
820.94	0.844
821.12	0.862
821.29	0.881
821.47	0.883
821.64	0.811
821.82	0.829
822.00	0.831
822.17	0.831
822.35	0.819
822.52	0.821
822.70	0.808
822.87	0.819
823.05	0.792
823.22	0.806
823.40	0.839
823.57	0.865
823.75	0.838
823.92	0.872
824.10	0.898
824.27	0.952
824.45	0.932
824.62	1.010
824.80	1.033
824.97	1.053
825.15	1.039
825.32	1.058
825.50	1.067
825.67	1.085
825.85	1.040
826.02	1.061
826.20	1.092
826.37	1.287
826.55	1.170
826.72	1.517
826.90	1.741
827.07	1.897
827.25	1.705
827.42	2.747
827.60	-0.000
827.77	-0.000
827.95	-0.000
828.12	-0.000
828.30	-0.000
828.47	-0.000
828.65	1.709
828.82	1.938
829.00	2.851
829.17	-0.000
829.34	-0.000
829.52	-0.000
829.69	-0.000
829.87	-0.000
830.04	-0.000
830.22	-0.000
830.39	-0.000
830.57	-0.000
830.74	-0.000
830.92	-0.000
831.09	-0.000
831.26	-0.000
831.44	-0.000
831.61	-0.000
831.79	-0.000
831.96	-0.000
832.14	-0.000
832.31	-0.000
832.49	-0.000
832.66	-0.000
832.83	-0.000
833.01	-0.000
833.18	-0.000
833.36	-0.000
833.53	-0.000
833.70	-0.000
833.88	-0.000
834.05	-0.000
834.23	-0.000
834.40	-0.000
834.58	-0.000
834.75	-0.000
834.92	-0.000
835.10	-0.000
835.27	-0.000
835.45	-0.000
835.62	-0.000
835.79	-0.000
835.97	-0.000
836.14	-0.000
836.32	-0.000
836.49	-0.000
836.66	-0.000
836.84	-0.000
837.01	-0.000
837.18	-0.000
837.36	-0.000
837.53	-0.000
837.71	-0.000
837.88	-0.000
838.05	-0.000
838.23	-0.000
838.40	-0.000
838.58	-0.000
838.75	-0.000
838.92	-0.000
839.10	-0.000
839.27	-0.000
839.44	-0.000
839.62	-0.000
839.79	-0.000
839.96	-0.000
840.14	-0.000
840.31	-0.000
840.48	-0.000
840.66	-0.000
840.83	-0.000
841.01	-0.000
841.18	-0.000
841.35	-0.000
841.53	-0.000
841.70	-0.000
841.87	-0.000
842.05	-0.000
842.22	-0.000
842.39	-0.000
842.57	-0.000
842.74	-0.000
842.91	-0.000
843.09	-0.000
843.26	-0.000
843.43	-0.000
843.60	-0.000
843.78	-0.000
843.95	-0.000
844.12	-0.000
844.30	-0.000
844.47	-0.000
844.64	-0.000
844.82	-0.000
844.99	-0.000
845.16	-0.000
845.34	-0.000
845.51	-0.000
845.68	-0.000
845.85	-0.000
846.03	-0.000
846.20	-0.000
846.37	-0.000
846.55	-0.000
846.72	-0.000
846.89	-0.000
847.06	-0.000
847.24	-0.000
847.41	-0.000
847.58	-0.000
847.76	-0.000
847.93	-0.000
848.10	-0.000
848.27	-0.000
848.45	-0.000
848.62	-0.000
848.79	-0.000
848.97	-0.000
849.14	-0.000
849.31	-0.000
849.48	-0.000
849.66	-0.000
849.83	-0.000
850.00	-0.000
850.17	-0.000
850.35	-0.000
850.52	-0.000
850.69	-0.000
850.86	-0.000
851.04	-0.000
851.21	-0.000
851.38	-0.000
851.55	-0.000
851.72	-0.000
851.90	-0.000
852.07	-0.000
852.24	-0.000
852.41	-0.000
852.59	-0.000
852.76	-0.000
852.93	-0.000
853.10	-0.000
853.28	-0.000
853.45	-0.000
853.62	-0.000
853.79	-0.000
853.96	-0.000
854.14	-0.000
854.31	-0.000
854.48	-0.000
854.65	-0.000
854.82	-0.000
855.00	-0.000
855.17	-0.000
855.34	-0.000
855.51	-0.000
855.68	-0.000
855.86	-0.000
856.03	-0.000
856.20	-0.000
856.37	-0.000
856.54	-0.000
856.72	-0.000
856.89	-0.000
857.06	-0.000
857.23	-0.000
857.40	-0.000
857.57	-0.000
857.75	-0.000
857.92	-0.000
858.09	-0.000
858.26	-0.000
858.43	-0.000
858.60	-0.000
858.78	-0.000
858.95	-0.000
859.12	-0.000
859.29	-0.000
859.46	-0.000
859.63	-0.000
859.81	-0.000
859.98	-0.000
860.15	-0.000
860.32	-0.000
860.49	-0.000
860.66	-0.000
860.83	-0.000
861.01	-0.000
861.18	-0.000
861.35	-0.000
861.52	-0.000
861.69	-0.000
861.86	-0.000
862.03	-0.000
862.21	-0.000
862.38	-0.000
862.55	-0.000
862.72	-0.000
862.89	-0.000
863.06	-0.000
863.23	-0.000
863.40	-0.000
863.58	-0.000
863.75	-0.000
863.92	-0.000
864.09	-0.000
864.26	-0.000
864.43	-0.000
864.60	-0.000
864.77	-0.000
864.94	-0.000
865.11	-0.000
865.29	-0.000
865.46	-0.000
865.63	-0.000
865.80	-0.000
865.97	-0.000
866.14	-0.000
866.31	-0.000
866.48	-0.000
866.65	-0.000
866.82	-0.000
866.99	-0.000
867.16	-0.000
867.34	-0.000
867.51	-0.000
867.68	-0.000
867.85	-0.000
868.02	-0.000
868.19	-0.000
868.36	-0.000
868.53	-0.000
868.70	-0.000
868.87	-0.000
869.04	-0.000
869.21	-0.000
869.38	-0.000
869.55	-0.000
869.72	-0.000
869.89	-0.000
870.06	-0.000
870.24	-0.000
870.41	-0.000
870.58	-0.000
870.75	-0.000
870.92	-0.000
871.09	-0.000
871.26	-0.000
871.43	-0.000
871.60	-0.000
871.77	-0.000
871.94	-0.000
872.11	-0.000
872.28	-0.000
872.45	-0.000
872.62	-0.000
872.79	-0.000
872.96	-0.000
873.13	-0.000
873.30	-0.000
873.47	-0.000
873.64	-0.000
873.81	-0.000
873.98	-0.000
874.15	-0.000
874.32	-0.000
874.49	-0.000
874.66	-0.000
874.83	-0.000
875.00	-0.000
875.17	-0.000
875.34	-0.000
875.51	-0.000
875.68	-0.000
875.85	-0.000
876.02	-0.000
876.19	-0.000
876.36	-0.000
876.53	-0.000
876.70	-0.000
876.87	-0.000
877.04	-0.000
877.21	-0.000
877.38	-0.000
877.55	-0.000
877.72	-0.000
877.89	-0.000
878.06	-0.000
878.23	-0.000
878.39	-0.000
878.56	-0.000
878.73	-0.000
878.90	-0.000
879.07	-0.000
879.24	-0.000
879.41	-0.000
879.58	-0.000
879.75	-0.000
879.92	-0.000
880.09	-0.000
880.26	-0.000
880.43	-0.000
880.60	-0.000
880.77	-0.000
880.94	-0.000
881.11	-0.000
881.27	-0.000
881.44	-0.000
881.61	-0.000
881.78	-0.000
881.95	-0.000
882.12	-0.000
882.29	-0.000
882.46	-0.000
882.63	-0.000
882.80	-0.000
882.97	-0.000
883.14	-0.000
883.30	-0.000
883.47	-0.000
883.64	-0.000
883.81	-0.000
883.98	-0.000
884.15	-0.000
884.32	-0.000
884.49	-0.000
884.66	-0.000
884.82	-0.000
884.99	-0.000
885.16	-0.000
885.33	-0.000
885.50	-0.000
885.67	-0.000
885.84	-0.000
886.01	-0.000
886.17	-0.000
886.34	-0.000
886.51	-0.000
886.68	-0.000
886.85	-0.000
887.02	-0.000
887.19	-0.000
887.36	-0.000
887.52	-0.000
887.69	-0.000
887.86	-0.000
888.03	-0.000
888.20	-0.000
888.37	-0.000
888.54	-0.000
888.70	-0.000
888.87	-0.000
889.04	-0.000
889.21	-0.000
889.38	-0.000
889.55	-0.000
889.71	-0.000
889.88	-0.000
890.05	-0.000
890.22	-0.000
890.39	-0.000
>>>>>End Processed Spectral Data<<<<<
