SpectraSuite Data File
++++++++++++++++++++++++++++++++++++
Date: Fri Jun 19 14:25:57 CEST 2015
User: introlabs
Dark Spectrum Present: Yes
Reference Spectrum Present: Yes
Number of Sampled Component Spectra: 1
Spectrometers: USB4H08886
Integration Time (usec): 745692 (USB4H08886)
Spectra Averaged: 5 (USB4H08886)
Boxcar Smoothing: 5 (USB4H08886)
Correct for Electrical Dark: Yes (USB4H08886)
Strobe/Lamp Enabled: No (USB4H08886)
Correct for Detector Non-linearity: Yes (USB4H08886)
Correct for Stray Light: Yes (USB4H08886)
Number of Pixels in Processed Spectrum: 3648
>>>>>Begin Processed Spectral Data<<<<<
178.14	-0.000
178.36	-0.000
178.57	-0.000
178.79	-0.000
179.01	-0.000
179.22	-0.000
179.44	-0.000
179.65	-0.000
179.87	-0.000
180.08	-0.000
180.30	-0.000
180.52	-0.000
180.73	-0.000
180.95	-0.000
181.16	-0.000
181.38	-0.000
181.59	-0.000
181.81	-0.000
182.03	-0.000
182.24	-0.000
182.46	-0.000
182.67	-0.000
182.89	-0.000
183.10	-0.000
183.32	-0.000
183.54	-0.000
183.75	-0.000
183.97	-0.000
184.18	-0.000
184.40	-0.000
184.61	-0.000
184.83	-0.000
185.04	-0.000
185.26	-0.000
185.48	-0.000
185.69	-0.000
185.91	-0.000
186.12	-0.000
186.34	-0.000
186.55	-0.000
186.77	-0.000
186.98	-0.000
187.20	-0.000
187.42	-0.000
187.63	-0.000
187.85	-0.000
188.06	-0.000
188.28	-0.000
188.49	-0.000
188.71	-0.000
188.92	-0.000
189.14	-0.000
189.36	-0.000
189.57	-0.000
189.79	-0.000
190.00	-0.000
190.22	-0.000
190.43	-0.000
190.65	-0.000
190.86	-0.000
191.08	-0.000
191.29	-0.000
191.51	-0.000
191.72	-0.000
191.94	-0.000
192.16	-0.000
192.37	-0.000
192.59	-0.000
192.80	-0.000
193.02	-0.000
193.23	-0.000
193.45	-0.000
193.66	-0.000
193.88	-0.000
194.09	-0.000
194.31	-0.000
194.52	-0.000
194.74	-0.000
194.95	-0.000
195.17	-0.000
195.38	-0.000
195.60	-0.000
195.81	-0.000
196.03	-0.000
196.25	-0.000
196.46	-0.000
196.68	-0.000
196.89	-0.000
197.11	-0.000
197.32	-0.000
197.54	-0.000
197.75	-0.000
197.97	-0.000
198.18	-0.000
198.40	-0.000
198.61	-0.000
198.83	-0.000
199.04	-0.000
199.26	-0.000
199.47	-0.000
199.69	-0.000
199.90	-0.000
200.12	-0.000
200.33	-0.000
200.55	-0.000
200.76	-0.000
200.98	-0.000
201.19	-0.000
201.41	-0.000
201.62	-0.000
201.84	-0.000
202.05	-0.000
202.27	-0.000
202.48	-0.000
202.70	-0.000
202.91	-0.000
203.13	-0.000
203.34	-0.000
203.56	-0.000
203.77	-0.000
203.99	-0.000
204.20	-0.000
204.42	-0.000
204.63	-0.000
204.85	-0.000
205.06	-0.000
205.28	-0.000
205.49	-0.000
205.71	-0.000
205.92	-0.000
206.14	-0.000
206.35	-0.000
206.56	-0.000
206.78	-0.000
206.99	-0.000
207.21	-0.000
207.42	-0.000
207.64	-0.000
207.85	-0.000
208.07	-0.000
208.28	-0.000
208.50	-0.000
208.71	-0.000
208.93	-0.000
209.14	-0.000
209.36	-0.000
209.57	-0.000
209.79	-0.000
210.00	-0.000
210.22	-0.000
210.43	-0.000
210.64	-0.000
210.86	-0.000
211.07	-0.000
211.29	-0.000
211.50	-0.000
211.72	-0.000
211.93	-0.000
212.15	-0.000
212.36	-0.000
212.58	-0.000
212.79	-0.000
213.01	-0.000
213.22	-0.000
213.43	-0.000
213.65	-0.000
213.86	-0.000
214.08	-0.000
214.29	-0.000
214.51	-0.000
214.72	-0.000
214.94	-0.000
215.15	-0.000
215.36	-0.000
215.58	-0.000
215.79	-0.000
216.01	-0.000
216.22	-0.000
216.44	-0.000
216.65	-0.000
216.87	-0.000
217.08	-0.000
217.29	-0.000
217.51	-0.000
217.72	-0.000
217.94	-0.000
218.15	-0.000
218.37	-0.000
218.58	-0.000
218.80	-0.000
219.01	-0.000
219.22	-0.000
219.44	-0.000
219.65	-0.000
219.87	-0.000
220.08	-0.000
220.30	-0.000
220.51	-0.000
220.72	-0.000
220.94	-0.000
221.15	-0.000
221.37	-0.000
221.58	-0.000
221.79	-0.000
222.01	-0.000
222.22	-0.000
222.44	-0.000
222.65	-0.000
222.87	-0.000
223.08	-0.000
223.29	-0.000
223.51	-0.000
223.72	-0.000
223.94	-0.000
224.15	-0.000
224.36	-0.000
224.58	-0.000
224.79	-0.000
225.01	-0.000
225.22	-0.000
225.44	-0.000
225.65	-0.000
225.86	-0.000
226.08	-0.000
226.29	-0.000
226.51	-0.000
226.72	-0.000
226.93	-0.000
227.15	-0.000
227.36	-0.000
227.58	-0.000
227.79	-0.000
228.00	-0.000
228.22	-0.000
228.43	-0.000
228.65	-0.000
228.86	-0.000
229.07	-0.000
229.29	-0.000
229.50	-0.000
229.72	-0.000
229.93	-0.000
230.14	-0.000
230.36	-0.000
230.57	-0.000
230.78	-0.000
231.00	-0.000
231.21	-0.000
231.43	-0.000
231.64	-0.000
231.85	-0.000
232.07	-0.000
232.28	-0.000
232.50	-0.000
232.71	-0.000
232.92	-0.000
233.14	-0.000
233.35	-0.000
233.56	-0.000
233.78	-0.000
233.99	-0.000
234.21	-0.000
234.42	-0.000
234.63	-0.000
234.85	-0.000
235.06	-0.000
235.27	-0.000
235.49	-0.000
235.70	-0.000
235.91	-0.000
236.13	-0.000
236.34	-0.000
236.56	-0.000
236.77	-0.000
236.98	-0.000
237.20	-0.000
237.41	-0.000
237.62	-0.000
237.84	-0.000
238.05	-0.000
238.26	-0.000
238.48	-0.000
238.69	-0.000
238.91	-0.000
239.12	-0.000
239.33	-0.000
239.55	-0.000
239.76	-0.000
239.97	-0.000
240.19	-0.000
240.40	-0.000
240.61	-0.000
240.83	-0.000
241.04	-0.000
241.25	-0.000
241.47	-0.000
241.68	-0.000
241.89	-0.000
242.11	-0.000
242.32	-0.000
242.53	-0.000
242.75	-0.000
242.96	-0.000
243.17	-0.000
243.39	-0.000
243.60	-0.000
243.81	-0.000
244.03	-0.000
244.24	-0.000
244.45	-0.000
244.67	-0.000
244.88	-0.000
245.09	-0.000
245.31	-0.000
245.52	-0.000
245.73	-0.000
245.95	-0.000
246.16	-0.000
246.37	-0.000
246.59	-0.000
246.80	-0.000
247.01	-0.000
247.23	-0.000
247.44	-0.000
247.65	-0.000
247.87	-0.000
248.08	-0.000
248.29	-0.000
248.51	-0.000
248.72	-0.000
248.93	-0.000
249.15	-0.000
249.36	-0.000
249.57	-0.000
249.78	-0.000
250.00	-0.000
250.21	-0.000
250.42	-0.000
250.64	-0.000
250.85	-0.000
251.06	-0.000
251.28	-0.000
251.49	-0.000
251.70	-0.000
251.92	-0.000
252.13	-0.000
252.34	-0.000
252.55	-0.000
252.77	-0.000
252.98	-0.000
253.19	-0.000
253.41	-0.000
253.62	-0.000
253.83	-0.000
254.05	-0.000
254.26	-0.000
254.47	-0.000
254.68	-0.000
254.90	-0.000
255.11	-0.000
255.32	-0.000
255.54	-0.000
255.75	-0.000
255.96	-0.000
256.17	-0.000
256.39	-0.000
256.60	-0.000
256.81	-0.000
257.03	-0.000
257.24	-0.000
257.45	-0.000
257.66	-0.000
257.88	-0.000
258.09	-0.000
258.30	-0.000
258.51	-0.000
258.73	-0.000
258.94	-0.000
259.15	-0.000
259.37	-0.000
259.58	-0.000
259.79	-0.000
260.00	-0.000
260.22	-0.000
260.43	-0.000
260.64	-0.000
260.85	-0.000
261.07	-0.000
261.28	-0.000
261.49	-0.000
261.71	-0.000
261.92	-0.000
262.13	-0.000
262.34	-0.000
262.56	-0.000
262.77	-0.000
262.98	-0.000
263.19	-0.000
263.41	-0.000
263.62	-0.000
263.83	-0.000
264.04	-0.000
264.26	-0.000
264.47	-0.000
264.68	-0.000
264.89	-0.000
265.11	-0.000
265.32	-0.000
265.53	-0.000
265.74	-0.000
265.96	-0.000
266.17	-0.000
266.38	-0.000
266.59	-0.000
266.81	-0.000
267.02	-0.000
267.23	-0.000
267.44	-0.000
267.65	-0.000
267.87	-0.000
268.08	-0.000
268.29	-0.000
268.50	-0.000
268.72	-0.000
268.93	-0.000
269.14	-0.000
269.35	-0.000
269.57	-0.000
269.78	-0.000
269.99	-0.000
270.20	-0.000
270.41	-0.000
270.63	-0.000
270.84	-0.000
271.05	-0.000
271.26	-0.000
271.48	-0.000
271.69	-0.000
271.90	-0.000
272.11	-0.000
272.32	-0.000
272.54	-0.000
272.75	-0.000
272.96	-0.000
273.17	-0.000
273.39	-0.000
273.60	-0.000
273.81	-0.000
274.02	-0.000
274.23	-0.000
274.45	-0.000
274.66	-0.000
274.87	-0.000
275.08	-0.000
275.29	-0.000
275.51	-0.000
275.72	-0.000
275.93	-0.000
276.14	-0.000
276.35	-0.000
276.57	-0.000
276.78	-0.000
276.99	-0.000
277.20	-0.000
277.41	-0.000
277.63	-0.000
277.84	-0.000
278.05	-0.000
278.26	-0.000
278.47	-0.000
278.69	-0.000
278.90	-0.000
279.11	-0.000
279.32	-0.000
279.53	-0.000
279.74	-0.000
279.96	-0.000
280.17	-0.000
280.38	-0.000
280.59	-0.000
280.80	-0.000
281.02	-0.000
281.23	-0.000
281.44	-0.000
281.65	-0.000
281.86	-0.000
282.07	-0.000
282.29	-0.000
282.50	-0.000
282.71	-0.000
282.92	-0.000
283.13	-0.000
283.35	-0.000
283.56	-0.000
283.77	-0.000
283.98	-0.000
284.19	-0.000
284.40	-0.000
284.62	-0.000
284.83	-0.000
285.04	-0.000
285.25	-0.000
285.46	-0.000
285.67	-0.000
285.88	-0.000
286.10	-0.000
286.31	-0.000
286.52	-0.000
286.73	-0.000
286.94	-0.000
287.15	-0.000
287.37	-0.000
287.58	-0.000
287.79	-0.000
288.00	-0.000
288.21	-0.000
288.42	-0.000
288.63	-0.000
288.85	-0.000
289.06	-0.000
289.27	-0.000
289.48	-0.000
289.69	-0.000
289.90	-0.000
290.11	-0.000
290.33	-0.000
290.54	-0.000
290.75	-0.000
290.96	-0.000
291.17	-0.000
291.38	-0.000
291.59	-0.000
291.81	-0.000
292.02	-0.000
292.23	-0.000
292.44	-0.000
292.65	-0.000
292.86	-0.000
293.07	-0.000
293.28	-0.000
293.50	-0.000
293.71	-0.000
293.92	-0.000
294.13	-0.000
294.34	-0.000
294.55	-0.000
294.76	-0.000
294.97	-0.000
295.19	-0.000
295.40	-0.000
295.61	-0.000
295.82	-0.000
296.03	-0.000
296.24	-0.000
296.45	2.152
296.66	1.795
296.87	1.836
297.09	1.919
297.30	2.144
297.51	1.727
297.72	1.671
297.93	1.763
298.14	1.726
298.35	1.685
298.56	1.661
298.77	1.795
298.99	1.757
299.20	1.719
299.41	1.700
299.62	1.665
299.83	1.647
300.04	1.594
300.25	1.584
300.46	1.629
300.67	1.598
300.88	1.535
301.10	1.542
301.31	1.616
301.52	1.549
301.73	1.492
301.94	1.491
302.15	1.512
302.36	1.465
302.57	1.403
302.78	1.412
302.99	1.459
303.20	1.478
303.41	1.385
303.63	1.370
303.84	1.381
304.05	1.381
304.26	1.322
304.47	1.332
304.68	1.335
304.89	1.329
305.10	1.286
305.31	1.272
305.52	1.316
305.73	1.307
305.94	1.267
306.15	1.257
306.37	1.281
306.58	1.289
306.79	1.256
307.00	1.279
307.21	1.315
307.42	1.305
307.63	1.268
307.84	1.236
308.05	1.273
308.26	1.273
308.47	1.250
308.68	1.243
308.89	1.243
309.10	1.239
309.31	1.197
309.52	1.188
309.73	1.206
309.95	1.203
310.16	1.177
310.37	1.165
310.58	1.183
310.79	1.183
311.00	1.180
311.21	1.180
311.42	1.184
311.63	1.181
311.84	1.165
312.05	1.164
312.26	1.186
312.47	1.197
312.68	1.173
312.89	1.159
313.10	1.167
313.31	1.139
313.52	1.144
313.73	1.145
313.94	1.149
314.15	1.130
314.36	1.107
314.57	1.098
314.78	1.086
314.99	1.082
315.21	1.066
315.42	1.071
315.63	1.083
315.84	1.059
316.05	1.044
316.26	1.051
316.47	1.069
316.68	1.065
316.89	1.048
317.10	1.067
317.31	1.074
317.52	1.075
317.73	1.053
317.94	1.052
318.15	1.096
318.36	1.095
318.57	1.077
318.78	1.066
318.99	1.103
319.20	1.099
319.41	1.063
319.62	1.064
319.83	1.077
320.04	1.072
320.25	1.060
320.46	1.026
320.67	1.031
320.88	1.028
321.09	1.014
321.30	0.998
321.51	1.013
321.72	1.012
321.93	0.994
322.14	0.988
322.35	1.015
322.56	1.016
322.77	1.005
322.98	1.016
323.19	1.023
323.40	1.029
323.61	1.008
323.82	1.003
324.03	1.008
324.24	1.009
324.45	0.995
324.66	0.976
324.87	0.973
325.08	0.972
325.29	0.952
325.50	0.946
325.71	0.950
325.92	0.958
326.13	0.944
326.34	0.944
326.55	0.950
326.76	0.949
326.97	0.939
327.18	0.932
327.39	0.958
327.60	0.958
327.80	0.957
328.01	0.957
328.22	0.956
328.43	0.960
328.64	0.949
328.85	0.953
329.06	0.955
329.27	0.957
329.48	0.952
329.69	0.934
329.90	0.944
330.11	0.938
330.32	0.929
330.53	0.922
330.74	0.921
330.95	0.919
331.16	0.904
331.37	0.912
331.58	0.911
331.79	0.912
332.00	0.901
332.21	0.894
332.42	0.899
332.63	0.891
332.83	0.888
333.04	0.891
333.25	0.905
333.46	0.905
333.67	0.891
333.88	0.894
334.09	0.905
334.30	0.903
334.51	0.896
334.72	0.891
334.93	0.894
335.14	0.894
335.35	0.885
335.56	0.879
335.77	0.888
335.98	0.886
336.18	0.880
336.39	0.871
336.60	0.875
336.81	0.873
337.02	0.872
337.23	0.876
337.44	0.880
337.65	0.882
337.86	0.871
338.07	0.866
338.28	0.871
338.49	0.868
338.70	0.860
338.91	0.867
339.11	0.874
339.32	0.871
339.53	0.860
339.74	0.857
339.95	0.853
340.16	0.851
340.37	0.843
340.58	0.842
340.79	0.846
341.00	0.847
341.21	0.835
341.41	0.836
341.62	0.838
341.83	0.839
342.04	0.833
342.25	0.845
342.46	0.850
342.67	0.848
342.88	0.841
343.09	0.840
343.30	0.848
343.50	0.850
343.71	0.840
343.92	0.838
344.13	0.843
344.34	0.843
344.55	0.825
344.76	0.824
344.97	0.829
345.18	0.828
345.38	0.825
345.59	0.820
345.80	0.821
346.01	0.820
346.22	0.815
346.43	0.809
346.64	0.817
346.85	0.817
347.06	0.810
347.26	0.811
347.47	0.814
347.68	0.810
347.89	0.805
348.10	0.799
348.31	0.806
348.52	0.805
348.73	0.803
348.93	0.799
349.14	0.801
349.35	0.800
349.56	0.793
349.77	0.789
349.98	0.794
350.19	0.791
350.39	0.787
350.60	0.781
350.81	0.796
351.02	0.795
351.23	0.791
351.44	0.794
351.65	0.797
351.86	0.794
352.06	0.793
352.27	0.793
352.48	0.795
352.69	0.795
352.90	0.790
353.11	0.778
353.31	0.784
353.52	0.780
353.73	0.772
353.94	0.773
354.15	0.779
354.36	0.779
354.57	0.770
354.77	0.773
354.98	0.772
355.19	0.771
355.40	0.771
355.61	0.777
355.82	0.782
356.02	0.782
356.23	0.774
356.44	0.777
356.65	0.781
356.86	0.781
357.07	0.775
357.27	0.778
357.48	0.781
357.69	0.776
357.90	0.761
358.11	0.758
358.32	0.761
358.52	0.763
358.73	0.753
358.94	0.756
359.15	0.760
359.36	0.760
359.56	0.755
359.77	0.751
359.98	0.759
360.19	0.758
360.40	0.755
360.61	0.756
360.81	0.755
361.02	0.755
361.23	0.747
361.44	0.746
361.65	0.747
361.85	0.747
362.06	0.746
362.27	0.747
362.48	0.748
362.69	0.750
362.89	0.743
363.10	0.745
363.31	0.749
363.52	0.752
363.73	0.746
363.93	0.746
364.14	0.748
364.35	0.750
364.56	0.739
364.77	0.741
364.97	0.743
365.18	0.744
365.39	0.738
365.60	0.736
365.81	0.737
366.01	0.736
366.22	0.733
366.43	0.732
366.64	0.734
366.84	0.740
367.05	0.737
367.26	0.737
367.47	0.739
367.68	0.739
367.88	0.736
368.09	0.733
368.30	0.737
368.51	0.737
368.71	0.736
368.92	0.740
369.13	0.739
369.34	0.737
369.55	0.736
369.75	0.736
369.96	0.743
370.17	0.743
370.38	0.740
370.58	0.740
370.79	0.745
371.00	0.744
371.21	0.736
371.41	0.741
371.62	0.745
371.83	0.741
372.04	0.738
372.24	0.730
372.45	0.731
372.66	0.731
372.87	0.728
373.07	0.725
373.28	0.725
373.49	0.727
373.70	0.717
373.90	0.716
374.11	0.726
374.32	0.726
374.53	0.726
374.73	0.727
374.94	0.729
375.15	0.730
375.36	0.727
375.56	0.736
375.77	0.737
375.98	0.736
376.19	0.732
376.39	0.726
376.60	0.729
376.81	0.730
377.02	0.727
377.22	0.725
377.43	0.725
377.64	0.725
377.84	0.715
378.05	0.719
378.26	0.726
378.47	0.726
378.67	0.723
378.88	0.720
379.09	0.721
379.30	0.721
379.50	0.719
379.71	0.722
379.92	0.724
380.12	0.724
380.33	0.716
380.54	0.712
380.75	0.719
380.95	0.719
381.16	0.718
381.37	0.718
381.57	0.720
381.78	0.721
381.99	0.721
382.20	0.721
382.40	0.724
382.61	0.725
382.82	0.721
383.02	0.714
383.23	0.717
383.44	0.716
383.64	0.714
383.85	0.716
384.06	0.719
384.27	0.716
384.47	0.713
384.68	0.713
384.89	0.720
385.09	0.719
385.30	0.719
385.51	0.718
385.71	0.722
385.92	0.722
386.13	0.721
386.33	0.723
386.54	0.725
386.75	0.723
386.95	0.720
387.16	0.716
387.37	0.719
387.58	0.719
387.78	0.717
387.99	0.714
388.20	0.716
388.40	0.713
388.61	0.710
388.82	0.712
389.02	0.715
389.23	0.715
389.44	0.713
389.64	0.713
389.85	0.724
390.06	0.724
390.26	0.724
390.47	0.723
390.68	0.725
390.88	0.724
391.09	0.719
391.30	0.719
391.50	0.718
391.71	0.718
391.92	0.715
392.12	0.708
392.33	0.709
392.53	0.708
392.74	0.709
392.95	0.709
393.15	0.711
393.36	0.713
393.57	0.711
393.77	0.714
393.98	0.716
394.19	0.716
394.39	0.715
394.60	0.716
394.81	0.718
395.01	0.716
395.22	0.714
395.43	0.715
395.63	0.719
395.84	0.721
396.04	0.716
396.25	0.718
396.46	0.720
396.66	0.719
396.87	0.715
397.08	0.712
397.28	0.715
397.49	0.716
397.69	0.712
397.90	0.707
398.11	0.709
398.31	0.710
398.52	0.706
398.73	0.707
398.93	0.706
399.14	0.705
399.34	0.705
399.55	0.705
399.76	0.706
399.96	0.707
400.17	0.705
400.37	0.703
400.58	0.709
400.79	0.711
400.99	0.709
401.20	0.715
401.41	0.717
401.61	0.719
401.82	0.723
402.02	0.723
402.23	0.724
402.44	0.723
402.64	0.723
402.85	0.719
403.05	0.717
403.26	0.716
403.47	0.710
403.67	0.709
403.88	0.710
404.08	0.704
404.29	0.702
404.50	0.701
404.70	0.702
404.91	0.701
405.11	0.698
405.32	0.699
405.52	0.699
405.73	0.698
405.94	0.696
406.14	0.698
406.35	0.701
406.55	0.701
406.76	0.699
406.97	0.700
407.17	0.703
407.38	0.703
407.58	0.701
407.79	0.704
407.99	0.706
408.20	0.707
408.41	0.702
408.61	0.700
408.82	0.701
409.02	0.701
409.23	0.699
409.43	0.698
409.64	0.699
409.84	0.699
410.05	0.696
410.26	0.694
410.46	0.694
410.67	0.694
410.87	0.696
411.08	0.697
411.28	0.698
411.49	0.700
411.69	0.697
411.90	0.699
412.11	0.700
412.31	0.702
412.52	0.700
412.72	0.701
412.93	0.701
413.13	0.700
413.34	0.696
413.54	0.698
413.75	0.700
413.95	0.699
414.16	0.695
414.37	0.698
414.57	0.698
414.78	0.700
414.98	0.698
415.19	0.699
415.39	0.697
415.60	0.699
415.80	0.698
416.01	0.697
416.21	0.699
416.42	0.700
416.62	0.695
416.83	0.695
417.03	0.695
417.24	0.695
417.44	0.693
417.65	0.692
417.86	0.692
418.06	0.691
418.27	0.689
418.47	0.690
418.68	0.691
418.88	0.691
419.09	0.689
419.29	0.690
419.50	0.690
419.70	0.690
419.91	0.688
420.11	0.686
420.32	0.687
420.52	0.687
420.73	0.687
420.93	0.687
421.14	0.689
421.34	0.688
421.55	0.685
421.75	0.685
421.96	0.686
422.16	0.686
422.37	0.685
422.57	0.682
422.78	0.684
422.98	0.680
423.19	0.678
423.39	0.676
423.60	0.680
423.80	0.682
424.01	0.679
424.21	0.682
424.42	0.683
424.62	0.683
424.83	0.682
425.03	0.682
425.23	0.684
425.44	0.684
425.64	0.685
425.85	0.683
426.05	0.683
426.26	0.684
426.46	0.680
426.67	0.679
426.87	0.684
427.08	0.685
427.28	0.683
427.49	0.684
427.69	0.684
427.90	0.683
428.10	0.681
428.31	0.681
428.51	0.683
428.71	0.682
428.92	0.684
429.12	0.681
429.33	0.682
429.53	0.686
429.74	0.690
429.94	0.691
430.15	0.690
430.35	0.690
430.56	0.687
430.76	0.686
430.96	0.687
431.17	0.684
431.37	0.682
431.58	0.680
431.78	0.677
431.99	0.669
432.19	0.671
432.40	0.672
432.60	0.673
432.80	0.676
433.01	0.674
433.21	0.674
433.42	0.676
433.62	0.676
433.83	0.675
434.03	0.677
434.23	0.680
434.44	0.680
434.64	0.677
434.85	0.682
435.05	0.683
435.26	0.684
435.46	0.682
435.66	0.681
435.87	0.681
436.07	0.681
436.28	0.676
436.48	0.674
436.69	0.673
436.89	0.674
437.09	0.667
437.30	0.666
437.50	0.666
437.71	0.678
437.91	0.677
438.11	0.678
438.32	0.683
438.52	0.684
438.73	0.682
438.93	0.680
439.13	0.680
439.34	0.684
439.54	0.682
439.75	0.682
439.95	0.672
440.15	0.677
440.36	0.675
440.56	0.672
440.77	0.673
440.97	0.673
441.17	0.672
441.38	0.674
441.58	0.671
441.79	0.670
441.99	0.669
442.19	0.668
442.40	0.666
442.60	0.666
442.81	0.664
443.01	0.664
443.21	0.664
443.42	0.663
443.62	0.662
443.82	0.662
444.03	0.663
444.23	0.663
444.44	0.663
444.64	0.662
444.84	0.664
445.05	0.664
445.25	0.661
445.45	0.661
445.66	0.664
445.86	0.662
446.06	0.664
446.27	0.664
446.47	0.666
446.68	0.664
446.88	0.663
447.08	0.662
447.29	0.664
447.49	0.664
447.69	0.664
447.90	0.662
448.10	0.666
448.30	0.663
448.51	0.664
448.71	0.661
448.91	0.663
449.12	0.662
449.32	0.664
449.52	0.663
449.73	0.667
449.93	0.666
450.14	0.667
450.34	0.666
450.54	0.669
450.75	0.666
450.95	0.666
451.15	0.665
451.36	0.667
451.56	0.664
451.76	0.663
451.97	0.660
452.17	0.660
452.37	0.659
452.58	0.655
452.78	0.655
452.98	0.657
453.19	0.657
453.39	0.657
453.59	0.656
453.79	0.657
454.00	0.657
454.20	0.656
454.40	0.656
454.61	0.658
454.81	0.659
455.01	0.657
455.22	0.658
455.42	0.660
455.62	0.657
455.83	0.657
456.03	0.660
456.23	0.662
456.44	0.663
456.64	0.661
456.84	0.662
457.04	0.662
457.25	0.661
457.45	0.658
457.65	0.656
457.86	0.657
458.06	0.656
458.26	0.652
458.47	0.650
458.67	0.652
458.87	0.653
459.07	0.650
459.28	0.652
459.48	0.654
459.68	0.655
459.89	0.655
460.09	0.654
460.29	0.655
460.49	0.656
460.70	0.655
460.90	0.654
461.10	0.655
461.31	0.655
461.51	0.652
461.71	0.653
461.91	0.654
462.12	0.654
462.32	0.653
462.52	0.653
462.72	0.656
462.93	0.657
463.13	0.655
463.33	0.656
463.53	0.658
463.74	0.658
463.94	0.653
464.14	0.654
464.35	0.655
464.55	0.655
464.75	0.654
464.95	0.651
465.16	0.653
465.36	0.652
465.56	0.651
465.76	0.649
465.97	0.650
466.17	0.650
466.37	0.649
466.57	0.650
466.78	0.651
466.98	0.651
467.18	0.649
467.38	0.647
467.59	0.650
467.79	0.651
467.99	0.650
468.19	0.652
468.39	0.655
468.60	0.654
468.80	0.652
469.00	0.654
469.20	0.655
469.41	0.655
469.61	0.654
469.81	0.654
470.01	0.653
470.22	0.653
470.42	0.651
470.62	0.649
470.82	0.650
471.02	0.649
471.23	0.647
471.43	0.647
471.63	0.650
471.83	0.649
472.04	0.648
472.24	0.647
472.44	0.653
472.64	0.653
472.84	0.651
473.05	0.651
473.25	0.653
473.45	0.653
473.65	0.651
473.85	0.652
474.06	0.654
474.26	0.653
474.46	0.654
474.66	0.650
474.86	0.651
475.07	0.651
475.27	0.650
475.47	0.648
475.67	0.649
475.87	0.651
476.08	0.647
476.28	0.648
476.48	0.649
476.68	0.647
476.88	0.645
477.09	0.646
477.29	0.649
477.49	0.649
477.69	0.648
477.89	0.648
478.09	0.647
478.30	0.650
478.50	0.647
478.70	0.647
478.90	0.647
479.10	0.650
479.31	0.651
479.51	0.648
479.71	0.649
479.91	0.649
480.11	0.648
480.31	0.648
480.52	0.646
480.72	0.646
480.92	0.644
481.12	0.644
481.32	0.641
481.52	0.639
481.72	0.639
481.93	0.642
482.13	0.643
482.33	0.642
482.53	0.640
482.73	0.641
482.93	0.643
483.14	0.643
483.34	0.641
483.54	0.642
483.74	0.642
483.94	0.641
484.14	0.637
484.34	0.637
484.55	0.637
484.75	0.637
484.95	0.636
485.15	0.635
485.35	0.635
485.55	0.635
485.75	0.633
485.96	0.634
486.16	0.635
486.36	0.635
486.56	0.634
486.76	0.634
486.96	0.635
487.16	0.634
487.36	0.632
487.57	0.632
487.77	0.633
487.97	0.633
488.17	0.631
488.37	0.630
488.57	0.631
488.77	0.630
488.97	0.629
489.18	0.628
489.38	0.630
489.58	0.631
489.78	0.630
489.98	0.629
490.18	0.629
490.38	0.630
490.58	0.629
490.78	0.630
490.98	0.632
491.19	0.632
491.39	0.632
491.59	0.631
491.79	0.634
491.99	0.635
492.19	0.634
492.39	0.637
492.59	0.637
492.79	0.639
492.99	0.639
493.20	0.639
493.40	0.639
493.60	0.641
493.80	0.638
494.00	0.636
494.20	0.637
494.40	0.637
494.60	0.634
494.80	0.638
495.00	0.638
495.20	0.636
495.40	0.635
495.61	0.637
495.81	0.637
496.01	0.641
496.21	0.642
496.41	0.641
496.61	0.641
496.81	0.640
497.01	0.635
497.21	0.634
497.41	0.635
497.61	0.634
497.81	0.632
498.01	0.632
498.21	0.629
498.41	0.627
498.61	0.627
498.82	0.629
499.02	0.632
499.22	0.632
499.42	0.632
499.62	0.633
499.82	0.634
500.02	0.635
500.22	0.634
500.42	0.636
500.62	0.636
500.82	0.637
501.02	0.634
501.22	0.634
501.42	0.634
501.62	0.636
501.82	0.635
502.02	0.635
502.22	0.634
502.42	0.636
502.62	0.633
502.82	0.634
503.02	0.634
503.22	0.634
503.42	0.632
503.63	0.632
503.83	0.630
504.03	0.629
504.23	0.628
504.43	0.628
504.63	0.629
504.83	0.629
505.03	0.628
505.23	0.630
505.43	0.631
505.63	0.632
505.83	0.632
506.03	0.633
506.23	0.636
506.43	0.636
506.63	0.635
506.83	0.633
507.03	0.635
507.23	0.636
507.43	0.633
507.63	0.633
507.83	0.634
508.03	0.634
508.23	0.633
508.43	0.632
508.63	0.634
508.83	0.634
509.03	0.636
509.23	0.635
509.43	0.636
509.63	0.636
509.83	0.635
510.03	0.638
510.23	0.639
510.43	0.640
510.63	0.641
510.83	0.641
511.03	0.642
511.23	0.640
511.43	0.639
511.63	0.641
511.83	0.643
512.03	0.643
512.22	0.640
512.42	0.639
512.62	0.639
512.82	0.639
513.02	0.638
513.22	0.637
513.42	0.639
513.62	0.642
513.82	0.640
514.02	0.639
514.22	0.641
514.42	0.641
514.62	0.641
514.82	0.641
515.02	0.644
515.22	0.647
515.42	0.646
515.62	0.648
515.82	0.647
516.02	0.648
516.22	0.648
516.42	0.649
516.62	0.652
516.82	0.653
517.01	0.651
517.21	0.650
517.41	0.654
517.61	0.654
517.81	0.650
518.01	0.650
518.21	0.649
518.41	0.648
518.61	0.647
518.81	0.647
519.01	0.648
519.21	0.648
519.41	0.646
519.61	0.641
519.81	0.643
520.00	0.643
520.20	0.644
520.40	0.647
520.60	0.648
520.80	0.647
521.00	0.647
521.20	0.648
521.40	0.653
521.60	0.654
521.80	0.652
522.00	0.653
522.20	0.656
522.39	0.655
522.59	0.651
522.79	0.653
522.99	0.656
523.19	0.655
523.39	0.652
523.59	0.650
523.79	0.653
523.99	0.656
524.19	0.654
524.38	0.653
524.58	0.655
524.78	0.655
524.98	0.653
525.18	0.655
525.38	0.656
525.58	0.657
525.78	0.656
525.98	0.654
526.18	0.655
526.37	0.655
526.57	0.656
526.77	0.655
526.97	0.656
527.17	0.656
527.37	0.651
527.57	0.653
527.77	0.654
527.96	0.654
528.16	0.652
528.36	0.653
528.56	0.655
528.76	0.653
528.96	0.652
529.16	0.653
529.36	0.656
529.55	0.657
529.75	0.653
529.95	0.654
530.15	0.655
530.35	0.658
530.55	0.655
530.75	0.655
530.94	0.657
531.14	0.657
531.34	0.655
531.54	0.653
531.74	0.656
531.94	0.660
532.13	0.658
532.33	0.660
532.53	0.658
532.73	0.658
532.93	0.656
533.13	0.657
533.33	0.657
533.52	0.658
533.72	0.660
533.92	0.659
534.12	0.657
534.32	0.657
534.52	0.655
534.71	0.657
534.91	0.661
535.11	0.662
535.31	0.660
535.51	0.662
535.71	0.664
535.90	0.661
536.10	0.662
536.30	0.664
536.50	0.665
536.70	0.665
536.89	0.662
537.09	0.662
537.29	0.664
537.49	0.665
537.69	0.663
537.89	0.664
538.08	0.665
538.28	0.663
538.48	0.663
538.68	0.664
538.88	0.666
539.07	0.666
539.27	0.665
539.47	0.663
539.67	0.664
539.87	0.664
540.06	0.662
540.26	0.663
540.46	0.665
540.66	0.662
540.86	0.660
541.05	0.660
541.25	0.662
541.45	0.662
541.65	0.660
541.84	0.662
542.04	0.663
542.24	0.663
542.44	0.662
542.64	0.663
542.83	0.666
543.03	0.667
543.23	0.664
543.43	0.665
543.62	0.666
543.82	0.667
544.02	0.666
544.22	0.666
544.42	0.669
544.61	0.669
544.81	0.664
545.01	0.663
545.21	0.666
545.40	0.666
545.60	0.665
545.80	0.668
546.00	0.668
546.19	0.667
546.39	0.666
546.59	0.664
546.79	0.666
546.98	0.667
547.18	0.666
547.38	0.667
547.58	0.670
547.77	0.669
547.97	0.665
548.17	0.668
548.37	0.668
548.56	0.669
548.76	0.668
548.96	0.670
549.16	0.672
549.35	0.672
549.55	0.669
549.75	0.669
549.95	0.673
550.14	0.673
550.34	0.671
550.54	0.676
550.73	0.679
550.93	0.680
551.13	0.677
551.33	0.676
551.52	0.676
551.72	0.677
551.92	0.675
552.12	0.675
552.31	0.676
552.51	0.676
552.71	0.671
552.90	0.671
553.10	0.672
553.30	0.672
553.50	0.671
553.69	0.673
553.89	0.674
554.09	0.674
554.28	0.671
554.48	0.673
554.68	0.675
554.87	0.675
555.07	0.671
555.27	0.672
555.47	0.673
555.66	0.674
555.86	0.672
556.06	0.675
556.25	0.676
556.45	0.683
556.65	0.681
556.84	0.685
557.04	0.688
557.24	0.690
557.43	0.689
557.63	0.692
557.83	0.694
558.02	0.695
558.22	0.698
558.42	0.698
558.61	0.692
558.81	0.693
559.01	0.689
559.21	0.688
559.40	0.689
559.60	0.690
559.80	0.685
559.99	0.687
560.19	0.689
560.39	0.683
560.58	0.680
560.78	0.680
560.97	0.683
561.17	0.681
561.37	0.679
561.56	0.680
561.76	0.681
561.96	0.681
562.15	0.678
562.35	0.680
562.55	0.682
562.74	0.682
562.94	0.681
563.14	0.679
563.33	0.681
563.53	0.681
563.73	0.678
563.92	0.680
564.12	0.682
564.31	0.685
564.51	0.682
564.71	0.684
564.90	0.687
565.10	0.688
565.30	0.691
565.49	0.692
565.69	0.694
565.89	0.694
566.08	0.691
566.28	0.693
566.47	0.694
566.67	0.692
566.87	0.689
567.06	0.690
567.26	0.697
567.46	0.692
567.65	0.690
567.85	0.692
568.04	0.696
568.24	0.695
568.44	0.692
568.63	0.691
568.83	0.692
569.02	0.692
569.22	0.687
569.42	0.683
569.61	0.685
569.81	0.685
570.00	0.682
570.20	0.683
570.40	0.684
570.59	0.684
570.79	0.682
570.98	0.680
571.18	0.682
571.38	0.682
571.57	0.679
571.77	0.676
571.96	0.680
572.16	0.677
572.35	0.672
572.55	0.673
572.75	0.671
572.94	0.671
573.14	0.669
573.33	0.669
573.53	0.670
573.73	0.669
573.92	0.667
574.12	0.665
574.31	0.668
574.51	0.669
574.70	0.666
574.90	0.668
575.09	0.670
575.29	0.671
575.49	0.668
575.68	0.669
575.88	0.670
576.07	0.672
576.27	0.670
576.46	0.669
576.66	0.668
576.86	0.667
577.05	0.665
577.25	0.663
577.44	0.665
577.64	0.665
577.83	0.663
578.03	0.663
578.22	0.663
578.42	0.662
578.61	0.661
578.81	0.661
579.00	0.662
579.20	0.662
579.40	0.661
579.59	0.659
579.79	0.659
579.98	0.659
580.18	0.658
580.37	0.659
580.57	0.661
580.76	0.665
580.96	0.663
581.15	0.664
581.35	0.666
581.54	0.665
581.74	0.665
581.93	0.666
582.13	0.668
582.32	0.665
582.52	0.662
582.71	0.662
582.91	0.659
583.10	0.658
583.30	0.657
583.49	0.656
583.69	0.660
583.88	0.662
584.08	0.661
584.27	0.663
584.47	0.667
584.66	0.667
584.86	0.666
585.05	0.668
585.25	0.670
585.44	0.670
585.64	0.669
585.83	0.666
586.03	0.666
586.22	0.665
586.42	0.661
586.61	0.662
586.81	0.665
587.00	0.664
587.20	0.661
587.39	0.663
587.59	0.665
587.78	0.666
587.98	0.665
588.17	0.666
588.37	0.668
588.56	0.670
588.76	0.666
588.95	0.666
589.15	0.670
589.34	0.674
589.54	0.672
589.73	0.672
589.92	0.676
590.12	0.675
590.31	0.673
590.51	0.678
590.70	0.680
590.90	0.680
591.09	0.677
591.29	0.676
591.48	0.675
591.68	0.676
591.87	0.674
592.06	0.673
592.26	0.676
592.45	0.676
592.65	0.669
592.84	0.669
593.04	0.672
593.23	0.674
593.43	0.671
593.62	0.671
593.81	0.671
594.01	0.671
594.20	0.668
594.40	0.668
594.59	0.669
594.79	0.670
594.98	0.668
595.17	0.667
595.37	0.668
595.56	0.670
595.76	0.669
595.95	0.671
596.14	0.674
596.34	0.675
596.53	0.673
596.73	0.675
596.92	0.677
597.12	0.680
597.31	0.680
597.50	0.680
597.70	0.682
597.89	0.681
598.09	0.678
598.28	0.679
598.47	0.681
598.67	0.680
598.86	0.676
599.06	0.678
599.25	0.678
599.44	0.676
599.64	0.673
599.83	0.671
600.03	0.674
600.22	0.675
600.41	0.674
600.61	0.672
600.80	0.675
601.00	0.675
601.19	0.671
601.38	0.669
601.58	0.672
601.77	0.673
601.96	0.675
602.16	0.674
602.35	0.683
602.55	0.681
602.74	0.682
602.93	0.683
603.13	0.688
603.32	0.690
603.51	0.689
603.71	0.692
603.90	0.695
604.09	0.695
604.29	0.692
604.48	0.687
604.68	0.688
604.87	0.687
605.06	0.683
605.26	0.680
605.45	0.681
605.64	0.679
605.84	0.675
606.03	0.674
606.22	0.673
606.42	0.672
606.61	0.668
606.80	0.668
607.00	0.670
607.19	0.670
607.38	0.668
607.58	0.670
607.77	0.672
607.96	0.672
608.16	0.670
608.35	0.675
608.54	0.679
608.74	0.682
608.93	0.686
609.12	0.689
609.32	0.692
609.51	0.696
609.70	0.694
609.90	0.696
610.09	0.702
610.28	0.707
610.48	0.700
610.67	0.701
610.86	0.703
611.06	0.697
611.25	0.695
611.44	0.696
611.64	0.696
611.83	0.699
612.02	0.695
612.21	0.693
612.41	0.693
612.60	0.691
612.79	0.687
612.99	0.687
613.18	0.690
613.37	0.687
613.57	0.684
613.76	0.686
613.95	0.684
614.14	0.684
614.34	0.681
614.53	0.682
614.72	0.685
614.92	0.685
615.11	0.681
615.30	0.678
615.49	0.681
615.69	0.683
615.88	0.679
616.07	0.681
616.26	0.682
616.46	0.683
616.65	0.680
616.84	0.679
617.04	0.680
617.23	0.683
617.42	0.684
617.61	0.687
617.81	0.688
618.00	0.690
618.19	0.688
618.38	0.693
618.58	0.695
618.77	0.697
618.96	0.695
619.15	0.697
619.35	0.699
619.54	0.700
619.73	0.695
619.92	0.697
620.12	0.702
620.31	0.702
620.50	0.697
620.69	0.697
620.89	0.700
621.08	0.700
621.27	0.701
621.46	0.699
621.66	0.703
621.85	0.703
622.04	0.699
622.23	0.699
622.43	0.700
622.62	0.700
622.81	0.699
623.00	0.698
623.19	0.702
623.39	0.700
623.58	0.697
623.77	0.696
623.96	0.699
624.16	0.698
624.35	0.693
624.54	0.696
624.73	0.701
624.92	0.698
625.12	0.695
625.31	0.696
625.50	0.700
625.69	0.701
625.88	0.696
626.08	0.696
626.27	0.698
626.46	0.699
626.65	0.696
626.84	0.696
627.04	0.701
627.23	0.701
627.42	0.696
627.61	0.698
627.80	0.701
628.00	0.702
628.19	0.700
628.38	0.703
628.57	0.706
628.76	0.706
628.96	0.702
629.15	0.703
629.34	0.707
629.53	0.707
629.72	0.701
629.91	0.702
630.11	0.708
630.30	0.708
630.49	0.711
630.68	0.711
630.87	0.714
631.06	0.716
631.26	0.711
631.45	0.713
631.64	0.721
631.83	0.723
632.02	0.720
632.21	0.718
632.41	0.726
632.60	0.720
632.79	0.717
632.98	0.718
633.17	0.720
633.36	0.721
633.55	0.717
633.75	0.713
633.94	0.715
634.13	0.715
634.32	0.712
634.51	0.706
634.70	0.708
634.89	0.709
635.09	0.704
635.28	0.705
635.47	0.707
635.66	0.710
635.85	0.705
636.04	0.706
636.23	0.711
636.43	0.713
636.62	0.712
636.81	0.710
637.00	0.712
637.19	0.715
637.38	0.711
637.57	0.710
637.76	0.712
637.95	0.713
638.15	0.709
638.34	0.707
638.53	0.710
638.72	0.711
638.91	0.709
639.10	0.707
639.29	0.708
639.48	0.710
639.67	0.711
639.87	0.709
640.06	0.715
640.25	0.714
640.44	0.714
640.63	0.715
640.82	0.717
641.01	0.716
641.20	0.714
641.39	0.716
641.58	0.718
641.78	0.716
641.97	0.713
642.16	0.726
642.35	0.727
642.54	0.726
642.73	0.720
642.92	0.719
643.11	0.724
643.30	0.725
643.49	0.719
643.68	0.723
643.87	0.724
644.06	0.725
644.25	0.703
644.45	0.707
644.64	0.708
644.83	0.708
645.02	0.705
645.21	0.704
645.40	0.706
645.59	0.705
645.78	0.699
645.97	0.701
646.16	0.702
646.35	0.702
646.54	0.699
646.73	0.700
646.92	0.702
647.11	0.702
647.30	0.696
647.49	0.699
647.68	0.699
647.88	0.697
648.07	0.689
648.26	0.694
648.45	0.695
648.64	0.692
648.83	0.690
649.02	0.693
649.21	0.703
649.40	0.702
649.59	0.698
649.78	0.699
649.97	0.713
650.16	0.712
650.35	0.706
650.54	0.709
650.73	0.718
650.92	0.714
651.11	0.708
651.30	0.705
651.49	0.710
651.68	0.710
651.87	0.707
652.06	0.697
652.25	0.701
652.44	0.703
652.63	0.699
652.82	0.699
653.01	0.699
653.20	0.697
653.39	0.685
653.58	0.682
653.77	0.682
653.96	0.677
654.15	0.669
654.34	0.668
654.53	0.664
654.72	0.658
654.91	0.649
655.10	0.645
655.29	0.644
655.48	0.642
655.67	0.637
655.86	0.635
656.05	0.633
656.24	0.633
656.43	0.628
656.62	0.626
656.81	0.627
657.00	0.625
657.19	0.622
657.38	0.621
657.57	0.621
657.76	0.623
657.95	0.621
658.14	0.624
658.33	0.627
658.51	0.632
658.70	0.632
658.89	0.633
659.08	0.643
659.27	0.650
659.46	0.651
659.65	0.657
659.84	0.661
660.03	0.664
660.22	0.664
660.41	0.669
660.60	0.669
660.79	0.670
660.98	0.676
661.17	0.674
661.36	0.672
661.55	0.673
661.74	0.670
661.92	0.673
662.11	0.676
662.30	0.675
662.49	0.668
662.68	0.666
662.87	0.670
663.06	0.663
663.25	0.664
663.44	0.665
663.63	0.666
663.82	0.664
664.01	0.659
664.20	0.657
664.38	0.659
664.57	0.659
664.76	0.659
664.95	0.660
665.14	0.665
665.33	0.660
665.52	0.668
665.71	0.672
665.90	0.672
666.09	0.673
666.28	0.671
666.46	0.670
666.65	0.671
666.84	0.669
667.03	0.662
667.22	0.660
667.41	0.664
667.60	0.653
667.79	0.646
667.98	0.647
668.16	0.648
668.35	0.648
668.54	0.644
668.73	0.646
668.92	0.647
669.11	0.646
669.30	0.640
669.49	0.635
669.67	0.637
669.86	0.639
670.05	0.636
670.24	0.634
670.43	0.633
670.62	0.631
670.81	0.626
671.00	0.626
671.18	0.626
671.37	0.626
671.56	0.624
671.75	0.623
671.94	0.620
672.13	0.618
672.32	0.613
672.50	0.613
672.69	0.613
672.88	0.614
673.07	0.609
673.26	0.612
673.45	0.613
673.63	0.613
673.82	0.609
674.01	0.611
674.20	0.611
674.39	0.610
674.58	0.609
674.76	0.609
674.95	0.608
675.14	0.607
675.33	0.603
675.52	0.601
675.71	0.602
675.89	0.601
676.08	0.597
676.27	0.598
676.46	0.599
676.65	0.598
676.84	0.597
677.02	0.599
677.21	0.602
677.40	0.600
677.59	0.598
677.78	0.598
677.96	0.601
678.15	0.601
678.34	0.598
678.53	0.599
678.72	0.599
678.90	0.595
679.09	0.591
679.28	0.587
679.47	0.587
679.66	0.587
679.84	0.583
680.03	0.581
680.22	0.579
680.41	0.581
680.60	0.576
680.78	0.576
680.97	0.579
681.16	0.579
681.35	0.579
681.53	0.577
681.72	0.578
681.91	0.580
682.10	0.578
682.29	0.581
682.47	0.579
682.66	0.579
682.85	0.577
683.04	0.575
683.22	0.575
683.41	0.576
683.60	0.575
683.79	0.577
683.97	0.576
684.16	0.575
684.35	0.572
684.54	0.573
684.72	0.573
684.91	0.574
685.10	0.572
685.29	0.573
685.47	0.571
685.66	0.570
685.85	0.566
686.04	0.566
686.22	0.568
686.41	0.570
686.60	0.567
686.79	0.570
686.97	0.571
687.16	0.573
687.35	0.570
687.54	0.573
687.72	0.577
687.91	0.577
688.10	0.579
688.29	0.579
688.47	0.577
688.66	0.577
688.85	0.573
689.03	0.571
689.22	0.575
689.41	0.576
689.60	0.571
689.78	0.568
689.97	0.568
690.16	0.565
690.34	0.561
690.53	0.560
690.72	0.560
690.91	0.558
691.09	0.556
691.28	0.550
691.47	0.548
691.65	0.547
691.84	0.544
692.03	0.544
692.21	0.543
692.40	0.542
692.59	0.540
692.77	0.539
692.96	0.540
693.15	0.541
693.34	0.539
693.52	0.539
693.71	0.540
693.90	0.541
694.08	0.541
694.27	0.542
694.46	0.552
694.64	0.553
694.83	0.553
695.02	0.552
695.20	0.551
695.39	0.551
695.58	0.550
695.76	0.551
695.95	0.549
696.14	0.549
696.32	0.546
696.51	0.536
696.70	0.536
696.88	0.537
697.07	0.536
697.26	0.537
697.44	0.539
697.63	0.538
697.81	0.535
698.00	0.535
698.19	0.535
698.37	0.536
698.56	0.535
698.75	0.535
698.93	0.534
699.12	0.534
699.31	0.533
699.49	0.532
699.68	0.533
699.87	0.536
700.05	0.535
700.24	0.534
700.42	0.536
700.61	0.536
700.80	0.534
700.98	0.534
701.17	0.536
701.36	0.535
701.54	0.534
701.73	0.536
701.91	0.533
702.10	0.532
702.29	0.530
702.47	0.529
702.66	0.530
702.84	0.531
703.03	0.529
703.22	0.530
703.40	0.531
703.59	0.532
703.77	0.531
703.96	0.531
704.15	0.532
704.33	0.532
704.52	0.531
704.70	0.531
704.89	0.531
705.08	0.529
705.26	0.525
705.45	0.525
705.63	0.524
705.82	0.522
706.00	0.520
706.19	0.520
706.38	0.520
706.56	0.520
706.75	0.518
706.93	0.517
707.12	0.519
707.30	0.519
707.49	0.516
707.68	0.515
707.86	0.514
708.05	0.514
708.23	0.510
708.42	0.511
708.60	0.514
708.79	0.513
708.98	0.511
709.16	0.511
709.35	0.513
709.53	0.517
709.72	0.515
709.90	0.517
710.09	0.519
710.27	0.522
710.46	0.525
710.64	0.523
710.83	0.525
711.02	0.527
711.20	0.526
711.39	0.524
711.57	0.522
711.76	0.523
711.94	0.521
712.13	0.521
712.31	0.521
712.50	0.516
712.68	0.514
712.87	0.515
713.05	0.515
713.24	0.516
713.42	0.515
713.61	0.516
713.79	0.517
713.98	0.517
714.16	0.517
714.35	0.517
714.54	0.519
714.72	0.518
714.91	0.516
715.09	0.522
715.28	0.525
715.46	0.524
715.65	0.521
715.83	0.521
716.02	0.524
716.20	0.521
716.39	0.520
716.57	0.521
716.76	0.523
716.94	0.523
717.12	0.516
717.31	0.517
717.49	0.521
717.68	0.523
717.86	0.522
718.05	0.523
718.23	0.525
718.42	0.527
718.60	0.528
718.79	0.536
718.97	0.540
719.16	0.540
719.34	0.537
719.53	0.537
719.71	0.537
719.90	0.538
720.08	0.535
720.27	0.535
720.45	0.536
720.63	0.534
720.82	0.528
721.00	0.529
721.19	0.533
721.37	0.532
721.56	0.532
721.74	0.534
721.93	0.543
722.11	0.550
722.30	0.551
722.48	0.555
722.66	0.557
722.85	0.557
723.03	0.557
723.22	0.556
723.40	0.560
723.59	0.560
723.77	0.563
723.95	0.557
724.14	0.559
724.32	0.559
724.51	0.558
724.69	0.559
724.88	0.558
725.06	0.557
725.24	0.557
725.43	0.559
725.61	0.561
725.80	0.554
725.98	0.551
726.16	0.548
726.35	0.553
726.53	0.553
726.72	0.551
726.90	0.562
727.09	0.563
727.27	0.569
727.45	0.566
727.64	0.575
727.82	0.585
728.01	0.589
728.19	0.586
728.37	0.591
728.56	0.595
728.74	0.601
728.92	0.589
729.11	0.590
729.29	0.588
729.48	0.590
729.66	0.580
729.84	0.578
730.03	0.581
730.21	0.583
730.40	0.573
730.58	0.574
730.76	0.576
730.95	0.579
731.13	0.579
731.31	0.592
731.50	0.601
731.68	0.604
731.86	0.600
732.05	0.617
732.23	0.621
732.42	0.625
732.60	0.629
732.78	0.633
732.97	0.651
733.15	0.658
733.33	0.647
733.52	0.654
733.70	0.665
733.88	0.675
734.07	0.658
734.25	0.683
734.43	0.692
734.62	0.693
734.80	0.686
734.98	0.677
735.17	0.684
735.35	0.689
735.53	0.677
735.72	0.680
735.90	0.703
736.08	0.720
736.27	0.695
736.45	0.703
736.63	0.715
736.82	0.727
737.00	0.727
737.18	0.737
737.37	0.767
737.55	0.791
737.73	0.784
737.92	0.784
738.10	0.780
738.28	0.803
738.46	0.788
738.65	0.798
738.83	0.815
739.01	0.870
739.20	0.857
739.38	0.842
739.56	0.832
739.75	0.837
739.93	0.805
740.11	0.833
740.29	0.832
740.48	0.842
740.66	0.821
740.84	0.818
741.03	0.781
741.21	0.792
741.39	0.770
741.57	0.782
741.76	0.796
741.94	0.801
742.12	0.764
742.31	0.768
742.49	0.786
742.67	0.809
742.85	0.820
743.04	0.822
743.22	0.832
743.40	0.881
743.58	0.863
743.77	0.881
743.95	0.913
744.13	0.962
744.31	0.946
744.50	0.940
744.68	0.937
744.86	0.918
745.04	0.931
745.23	0.994
745.41	0.983
745.59	0.994
745.77	0.957
745.96	0.944
746.14	0.950
746.32	0.947
746.50	0.936
746.69	0.921
746.87	0.933
747.05	0.917
747.23	0.843
747.42	0.827
747.60	0.851
747.78	0.853
747.96	0.883
748.14	0.843
748.33	0.872
748.51	0.867
748.69	0.861
748.87	0.885
749.06	0.883
749.24	0.883
749.42	0.870
749.60	0.850
749.78	0.863
749.97	0.816
750.15	0.807
750.33	0.805
750.51	0.830
750.69	0.837
750.88	0.839
751.06	0.848
751.24	0.874
751.42	0.866
751.60	0.859
751.79	0.926
751.97	0.977
752.15	0.977
752.33	0.947
752.51	1.008
752.69	1.022
752.88	0.992
753.06	1.037
753.24	1.016
753.42	1.043
753.60	1.194
753.78	1.054
753.97	1.068
754.15	1.090
754.33	1.114
754.51	0.995
754.69	0.981
754.87	1.010
755.06	0.942
755.24	0.935
755.42	0.947
755.60	0.860
755.78	0.870
755.96	0.818
756.15	0.818
756.33	0.823
756.51	0.844
756.69	0.834
756.87	0.800
757.05	0.817
757.23	0.804
757.42	0.774
757.60	0.773
757.78	0.764
757.96	0.762
758.14	0.746
758.32	0.735
758.50	0.745
758.69	0.742
758.87	0.732
759.05	0.737
759.23	0.748
759.41	0.749
759.59	0.742
759.77	0.762
759.95	0.788
760.13	0.831
760.32	0.827
760.50	0.825
760.68	0.846
760.86	0.849
761.04	0.822
761.22	0.825
761.40	0.871
761.58	0.873
761.76	0.845
761.95	0.827
762.13	0.787
762.31	0.787
762.49	0.757
762.67	0.774
762.85	0.788
763.03	0.787
763.21	0.766
763.39	0.745
763.57	0.749
763.75	0.744
763.94	0.731
764.12	0.734
764.30	0.758
764.48	0.762
764.66	0.727
764.84	0.724
765.02	0.759
765.20	0.769
765.38	0.753
765.56	0.758
765.74	0.797
765.92	0.797
766.10	0.806
766.28	0.798
766.46	0.828
766.65	0.831
766.83	0.816
767.01	0.800
767.19	0.809
767.37	0.810
767.55	0.796
767.73	0.775
767.91	0.780
768.09	0.766
768.27	0.755
768.45	0.744
768.63	0.750
768.81	0.753
768.99	0.728
769.17	0.750
769.35	0.762
769.53	0.757
769.71	0.738
769.89	0.747
770.07	0.752
770.25	0.739
770.43	0.718
770.61	0.740
770.79	0.747
770.97	0.755
771.15	0.724
771.33	0.727
771.51	0.732
771.69	0.743
771.87	0.749
772.05	0.756
772.24	0.761
772.42	0.769
772.60	0.748
772.78	0.802
772.96	0.832
773.14	0.827
773.32	0.805
773.49	0.810
773.67	0.809
773.85	0.789
774.03	0.776
774.21	0.806
774.39	0.815
774.57	0.838
774.75	0.770
774.93	0.767
775.11	0.790
775.29	0.799
775.47	0.798
775.65	0.810
775.83	0.829
776.01	0.851
776.19	0.802
776.37	0.804
776.55	0.803
776.73	0.797
776.91	0.791
777.09	0.774
777.27	0.772
777.45	0.765
777.63	0.740
777.81	0.734
777.99	0.721
778.17	0.722
778.35	0.702
778.53	0.689
778.71	0.696
778.89	0.683
779.07	0.672
779.24	0.677
779.42	0.679
779.60	0.697
779.78	0.692
779.96	0.699
780.14	0.709
780.32	0.728
780.50	0.714
780.68	0.715
780.86	0.707
781.04	0.722
781.22	0.723
781.40	0.735
781.58	0.726
781.75	0.718
781.93	0.701
782.11	0.699
782.29	0.688
782.47	0.687
782.65	0.675
782.83	0.704
783.01	0.699
783.19	0.693
783.37	0.678
783.55	0.682
783.72	0.702
783.90	0.712
784.08	0.705
784.26	0.715
784.44	0.733
784.62	0.735
784.80	0.701
784.98	0.707
785.16	0.712
785.33	0.724
785.51	0.709
785.69	0.696
785.87	0.697
786.05	0.709
786.23	0.705
786.41	0.704
786.59	0.711
786.77	0.712
786.94	0.699
787.12	0.703
787.30	0.706
787.48	0.704
787.66	0.693
787.84	0.693
788.02	0.684
788.19	0.681
788.37	0.667
788.55	0.668
788.73	0.670
788.91	0.664
789.09	0.647
789.27	0.637
789.44	0.648
789.62	0.653
789.80	0.659
789.98	0.683
790.16	0.670
790.34	0.666
790.51	0.656
790.69	0.674
790.87	0.682
791.05	0.679
791.23	0.673
791.41	0.674
791.58	0.681
791.76	0.663
791.94	0.634
792.12	0.642
792.30	0.646
792.48	0.642
792.65	0.635
792.83	0.641
793.01	0.651
793.19	0.648
793.37	0.633
793.54	0.628
793.72	0.638
793.90	0.635
794.08	0.626
794.26	0.626
794.43	0.635
794.61	0.619
794.79	0.608
794.97	0.606
795.15	0.612
795.32	0.617
795.50	0.608
795.68	0.603
795.86	0.608
796.04	0.610
796.21	0.604
796.39	0.602
796.57	0.615
796.75	0.623
796.92	0.623
797.10	0.629
797.28	0.631
797.46	0.635
797.64	0.636
797.81	0.643
797.99	0.646
798.17	0.651
798.35	0.646
798.52	0.649
798.70	0.645
798.88	0.654
799.06	0.652
799.23	0.656
799.41	0.664
799.59	0.658
799.77	0.647
799.94	0.656
800.12	0.667
800.30	0.686
800.48	0.683
800.65	0.684
800.83	0.674
801.01	0.665
801.19	0.664
801.36	0.658
801.54	0.662
801.72	0.673
801.90	0.659
802.07	0.653
802.25	0.638
802.43	0.624
802.60	0.619
802.78	0.625
802.96	0.630
803.14	0.622
803.31	0.619
803.49	0.619
803.67	0.615
803.84	0.619
804.02	0.611
804.20	0.613
804.38	0.619
804.55	0.618
804.73	0.604
804.91	0.605
805.08	0.618
805.26	0.615
805.44	0.676
805.61	0.680
805.79	0.679
805.97	0.677
806.15	0.667
806.32	0.662
806.50	0.668
806.68	0.670
806.85	0.661
807.03	0.653
807.21	0.671
807.38	0.606
807.56	0.595
807.74	0.606
807.91	0.613
808.09	0.615
808.27	0.631
808.44	0.656
808.62	0.665
808.80	0.667
808.97	0.660
809.15	0.655
809.33	0.673
809.50	0.680
809.68	0.665
809.86	0.674
810.03	0.706
810.21	0.686
810.39	0.668
810.56	0.675
810.74	0.697
810.91	0.769
811.09	0.756
811.27	0.774
811.44	0.780
811.62	0.783
811.80	0.766
811.97	0.736
812.15	0.735
812.33	0.731
812.50	0.715
812.68	0.705
812.85	0.651
813.03	0.654
813.21	0.622
813.38	0.617
813.56	0.620
813.74	0.630
813.91	0.637
814.09	0.667
814.26	0.661
814.44	0.664
814.62	0.654
814.79	0.659
814.97	0.666
815.14	0.669
815.32	0.673
815.50	0.688
815.67	0.690
815.85	0.680
816.02	0.670
816.20	0.677
816.38	0.694
816.55	0.698
816.73	0.694
816.90	0.703
817.08	0.731
817.26	0.738
817.43	0.718
817.61	0.743
817.78	0.762
817.96	0.743
818.13	0.732
818.31	0.730
818.49	0.744
818.66	0.737
818.84	0.721
819.01	0.702
819.19	0.707
819.36	0.710
819.54	0.681
819.71	0.722
819.89	0.735
820.07	0.745
820.24	0.737
820.42	0.738
820.59	0.754
820.77	0.778
820.94	0.770
821.12	0.790
821.29	0.806
821.47	0.805
821.64	0.743
821.82	0.752
822.00	0.752
822.17	0.750
822.35	0.742
822.52	0.745
822.70	0.735
822.87	0.743
823.05	0.720
823.22	0.730
823.40	0.757
823.57	0.779
823.75	0.765
823.92	0.790
824.10	0.807
824.27	0.843
824.45	0.832
824.62	0.886
824.80	0.898
824.97	0.908
825.15	0.892
825.32	0.902
825.50	0.902
825.67	0.911
825.85	0.884
826.02	0.902
826.20	0.924
826.37	1.035
826.55	0.961
826.72	1.135
826.90	1.211
827.07	1.260
827.25	1.201
827.42	1.341
827.60	1.455
827.77	1.612
827.95	1.568
828.12	1.650
828.30	1.345
828.47	1.471
828.65	1.145
828.82	1.184
829.00	1.229
829.17	1.312
829.34	1.306
829.52	1.348
829.69	-0.000
829.87	-0.000
830.04	-0.000
830.22	-0.000
830.39	-0.000
830.57	-0.000
830.74	-0.000
830.92	-0.000
831.09	-0.000
831.26	-0.000
831.44	-0.000
831.61	-0.000
831.79	-0.000
831.96	-0.000
832.14	-0.000
832.31	-0.000
832.49	-0.000
832.66	-0.000
832.83	-0.000
833.01	-0.000
833.18	-0.000
833.36	-0.000
833.53	-0.000
833.70	-0.000
833.88	-0.000
834.05	-0.000
834.23	-0.000
834.40	-0.000
834.58	-0.000
834.75	-0.000
834.92	-0.000
835.10	-0.000
835.27	-0.000
835.45	-0.000
835.62	-0.000
835.79	-0.000
835.97	-0.000
836.14	-0.000
836.32	-0.000
836.49	-0.000
836.66	-0.000
836.84	-0.000
837.01	-0.000
837.18	-0.000
837.36	-0.000
837.53	-0.000
837.71	-0.000
837.88	-0.000
838.05	-0.000
838.23	-0.000
838.40	-0.000
838.58	-0.000
838.75	-0.000
838.92	-0.000
839.10	-0.000
839.27	-0.000
839.44	-0.000
839.62	-0.000
839.79	-0.000
839.96	-0.000
840.14	-0.000
840.31	-0.000
840.48	-0.000
840.66	-0.000
840.83	-0.000
841.01	-0.000
841.18	-0.000
841.35	-0.000
841.53	-0.000
841.70	-0.000
841.87	-0.000
842.05	-0.000
842.22	-0.000
842.39	-0.000
842.57	-0.000
842.74	-0.000
842.91	-0.000
843.09	-0.000
843.26	-0.000
843.43	-0.000
843.60	-0.000
843.78	-0.000
843.95	-0.000
844.12	-0.000
844.30	-0.000
844.47	-0.000
844.64	-0.000
844.82	-0.000
844.99	-0.000
845.16	-0.000
845.34	-0.000
845.51	-0.000
845.68	-0.000
845.85	-0.000
846.03	-0.000
846.20	-0.000
846.37	-0.000
846.55	-0.000
846.72	-0.000
846.89	-0.000
847.06	-0.000
847.24	-0.000
847.41	-0.000
847.58	-0.000
847.76	-0.000
847.93	-0.000
848.10	-0.000
848.27	-0.000
848.45	-0.000
848.62	-0.000
848.79	-0.000
848.97	-0.000
849.14	-0.000
849.31	-0.000
849.48	-0.000
849.66	-0.000
849.83	-0.000
850.00	-0.000
850.17	-0.000
850.35	-0.000
850.52	-0.000
850.69	-0.000
850.86	-0.000
851.04	-0.000
851.21	-0.000
851.38	-0.000
851.55	-0.000
851.72	-0.000
851.90	-0.000
852.07	-0.000
852.24	-0.000
852.41	-0.000
852.59	-0.000
852.76	-0.000
852.93	-0.000
853.10	-0.000
853.28	-0.000
853.45	-0.000
853.62	-0.000
853.79	-0.000
853.96	-0.000
854.14	-0.000
854.31	-0.000
854.48	-0.000
854.65	-0.000
854.82	-0.000
855.00	-0.000
855.17	-0.000
855.34	-0.000
855.51	-0.000
855.68	-0.000
855.86	-0.000
856.03	-0.000
856.20	-0.000
856.37	-0.000
856.54	-0.000
856.72	-0.000
856.89	-0.000
857.06	-0.000
857.23	-0.000
857.40	-0.000
857.57	-0.000
857.75	-0.000
857.92	-0.000
858.09	-0.000
858.26	-0.000
858.43	-0.000
858.60	-0.000
858.78	-0.000
858.95	-0.000
859.12	-0.000
859.29	-0.000
859.46	-0.000
859.63	-0.000
859.81	-0.000
859.98	-0.000
860.15	-0.000
860.32	-0.000
860.49	-0.000
860.66	-0.000
860.83	-0.000
861.01	-0.000
861.18	-0.000
861.35	-0.000
861.52	-0.000
861.69	-0.000
861.86	-0.000
862.03	-0.000
862.21	-0.000
862.38	-0.000
862.55	-0.000
862.72	-0.000
862.89	-0.000
863.06	-0.000
863.23	-0.000
863.40	-0.000
863.58	-0.000
863.75	-0.000
863.92	-0.000
864.09	-0.000
864.26	-0.000
864.43	-0.000
864.60	-0.000
864.77	-0.000
864.94	-0.000
865.11	-0.000
865.29	-0.000
865.46	-0.000
865.63	-0.000
865.80	-0.000
865.97	-0.000
866.14	-0.000
866.31	-0.000
866.48	-0.000
866.65	-0.000
866.82	-0.000
866.99	-0.000
867.16	-0.000
867.34	-0.000
867.51	-0.000
867.68	-0.000
867.85	-0.000
868.02	-0.000
868.19	-0.000
868.36	-0.000
868.53	-0.000
868.70	-0.000
868.87	-0.000
869.04	-0.000
869.21	-0.000
869.38	-0.000
869.55	-0.000
869.72	-0.000
869.89	-0.000
870.06	-0.000
870.24	-0.000
870.41	-0.000
870.58	-0.000
870.75	-0.000
870.92	-0.000
871.09	-0.000
871.26	-0.000
871.43	-0.000
871.60	-0.000
871.77	-0.000
871.94	-0.000
872.11	-0.000
872.28	-0.000
872.45	-0.000
872.62	-0.000
872.79	-0.000
872.96	-0.000
873.13	-0.000
873.30	-0.000
873.47	-0.000
873.64	-0.000
873.81	-0.000
873.98	-0.000
874.15	-0.000
874.32	-0.000
874.49	-0.000
874.66	-0.000
874.83	-0.000
875.00	-0.000
875.17	-0.000
875.34	-0.000
875.51	-0.000
875.68	-0.000
875.85	-0.000
876.02	-0.000
876.19	-0.000
876.36	-0.000
876.53	-0.000
876.70	-0.000
876.87	-0.000
877.04	-0.000
877.21	-0.000
877.38	-0.000
877.55	-0.000
877.72	-0.000
877.89	-0.000
878.06	-0.000
878.23	-0.000
878.39	-0.000
878.56	-0.000
878.73	-0.000
878.90	-0.000
879.07	-0.000
879.24	-0.000
879.41	-0.000
879.58	-0.000
879.75	-0.000
879.92	-0.000
880.09	-0.000
880.26	-0.000
880.43	-0.000
880.60	-0.000
880.77	-0.000
880.94	-0.000
881.11	-0.000
881.27	-0.000
881.44	-0.000
881.61	-0.000
881.78	-0.000
881.95	-0.000
882.12	-0.000
882.29	-0.000
882.46	-0.000
882.63	-0.000
882.80	-0.000
882.97	-0.000
883.14	-0.000
883.30	-0.000
883.47	-0.000
883.64	-0.000
883.81	-0.000
883.98	-0.000
884.15	-0.000
884.32	-0.000
884.49	-0.000
884.66	-0.000
884.82	-0.000
884.99	-0.000
885.16	-0.000
885.33	-0.000
885.50	-0.000
885.67	-0.000
885.84	-0.000
886.01	-0.000
886.17	-0.000
886.34	-0.000
886.51	-0.000
886.68	-0.000
886.85	-0.000
887.02	-0.000
887.19	-0.000
887.36	-0.000
887.52	-0.000
887.69	-0.000
887.86	-0.000
888.03	-0.000
888.20	-0.000
888.37	-0.000
888.54	-0.000
888.70	-0.000
888.87	-0.000
889.04	-0.000
889.21	-0.000
889.38	-0.000
889.55	-0.000
889.71	-0.000
889.88	-0.000
890.05	-0.000
890.22	-0.000
890.39	-0.000
>>>>>End Processed Spectral Data<<<<<
