SpectraSuite Data File
++++++++++++++++++++++++++++++++++++
Date: Fri Jun 19 13:27:23 CEST 2015
User: introlabs
Dark Spectrum Present: Yes
Reference Spectrum Present: Yes
Number of Sampled Component Spectra: 1
Spectrometers: USB4H08886
Integration Time (usec): 745692 (USB4H08886)
Spectra Averaged: 5 (USB4H08886)
Boxcar Smoothing: 5 (USB4H08886)
Correct for Electrical Dark: Yes (USB4H08886)
Strobe/Lamp Enabled: No (USB4H08886)
Correct for Detector Non-linearity: Yes (USB4H08886)
Correct for Stray Light: Yes (USB4H08886)
Number of Pixels in Processed Spectrum: 3648
>>>>>Begin Processed Spectral Data<<<<<
178.14	-0.000
178.36	-0.000
178.57	-0.000
178.79	-0.000
179.01	-0.000
179.22	-0.000
179.44	-0.000
179.65	-0.000
179.87	-0.000
180.08	-0.000
180.30	-0.000
180.52	-0.000
180.73	-0.000
180.95	-0.000
181.16	-0.000
181.38	-0.000
181.59	-0.000
181.81	-0.000
182.03	-0.000
182.24	-0.000
182.46	-0.000
182.67	-0.000
182.89	-0.000
183.10	-0.000
183.32	-0.000
183.54	-0.000
183.75	-0.000
183.97	-0.000
184.18	-0.000
184.40	-0.000
184.61	-0.000
184.83	-0.000
185.04	-0.000
185.26	-0.000
185.48	-0.000
185.69	-0.000
185.91	-0.000
186.12	-0.000
186.34	-0.000
186.55	-0.000
186.77	-0.000
186.98	-0.000
187.20	-0.000
187.42	-0.000
187.63	-0.000
187.85	-0.000
188.06	-0.000
188.28	-0.000
188.49	-0.000
188.71	-0.000
188.92	-0.000
189.14	-0.000
189.36	-0.000
189.57	-0.000
189.79	-0.000
190.00	-0.000
190.22	-0.000
190.43	-0.000
190.65	-0.000
190.86	-0.000
191.08	-0.000
191.29	-0.000
191.51	-0.000
191.72	-0.000
191.94	-0.000
192.16	-0.000
192.37	-0.000
192.59	-0.000
192.80	-0.000
193.02	-0.000
193.23	-0.000
193.45	-0.000
193.66	-0.000
193.88	-0.000
194.09	-0.000
194.31	-0.000
194.52	-0.000
194.74	-0.000
194.95	-0.000
195.17	-0.000
195.38	-0.000
195.60	-0.000
195.81	-0.000
196.03	-0.000
196.25	-0.000
196.46	-0.000
196.68	-0.000
196.89	-0.000
197.11	-0.000
197.32	-0.000
197.54	-0.000
197.75	-0.000
197.97	-0.000
198.18	-0.000
198.40	-0.000
198.61	-0.000
198.83	-0.000
199.04	-0.000
199.26	-0.000
199.47	-0.000
199.69	-0.000
199.90	-0.000
200.12	-0.000
200.33	-0.000
200.55	-0.000
200.76	-0.000
200.98	-0.000
201.19	-0.000
201.41	-0.000
201.62	-0.000
201.84	-0.000
202.05	-0.000
202.27	-0.000
202.48	-0.000
202.70	-0.000
202.91	-0.000
203.13	-0.000
203.34	-0.000
203.56	-0.000
203.77	-0.000
203.99	-0.000
204.20	-0.000
204.42	-0.000
204.63	-0.000
204.85	-0.000
205.06	-0.000
205.28	-0.000
205.49	-0.000
205.71	-0.000
205.92	-0.000
206.14	-0.000
206.35	-0.000
206.56	-0.000
206.78	-0.000
206.99	-0.000
207.21	-0.000
207.42	-0.000
207.64	-0.000
207.85	-0.000
208.07	-0.000
208.28	-0.000
208.50	-0.000
208.71	-0.000
208.93	-0.000
209.14	-0.000
209.36	-0.000
209.57	-0.000
209.79	-0.000
210.00	-0.000
210.22	-0.000
210.43	-0.000
210.64	-0.000
210.86	-0.000
211.07	-0.000
211.29	-0.000
211.50	-0.000
211.72	-0.000
211.93	-0.000
212.15	-0.000
212.36	-0.000
212.58	-0.000
212.79	-0.000
213.01	-0.000
213.22	-0.000
213.43	-0.000
213.65	-0.000
213.86	-0.000
214.08	-0.000
214.29	-0.000
214.51	-0.000
214.72	-0.000
214.94	-0.000
215.15	-0.000
215.36	-0.000
215.58	-0.000
215.79	-0.000
216.01	-0.000
216.22	-0.000
216.44	-0.000
216.65	-0.000
216.87	-0.000
217.08	-0.000
217.29	-0.000
217.51	-0.000
217.72	-0.000
217.94	-0.000
218.15	-0.000
218.37	-0.000
218.58	-0.000
218.80	-0.000
219.01	-0.000
219.22	-0.000
219.44	-0.000
219.65	-0.000
219.87	-0.000
220.08	-0.000
220.30	-0.000
220.51	-0.000
220.72	-0.000
220.94	-0.000
221.15	-0.000
221.37	-0.000
221.58	-0.000
221.79	-0.000
222.01	-0.000
222.22	-0.000
222.44	-0.000
222.65	-0.000
222.87	-0.000
223.08	-0.000
223.29	-0.000
223.51	-0.000
223.72	-0.000
223.94	-0.000
224.15	-0.000
224.36	-0.000
224.58	-0.000
224.79	-0.000
225.01	-0.000
225.22	-0.000
225.44	-0.000
225.65	-0.000
225.86	-0.000
226.08	-0.000
226.29	-0.000
226.51	-0.000
226.72	-0.000
226.93	-0.000
227.15	-0.000
227.36	-0.000
227.58	-0.000
227.79	-0.000
228.00	-0.000
228.22	-0.000
228.43	-0.000
228.65	-0.000
228.86	-0.000
229.07	-0.000
229.29	-0.000
229.50	-0.000
229.72	-0.000
229.93	-0.000
230.14	-0.000
230.36	-0.000
230.57	-0.000
230.78	-0.000
231.00	-0.000
231.21	-0.000
231.43	-0.000
231.64	-0.000
231.85	-0.000
232.07	-0.000
232.28	-0.000
232.50	-0.000
232.71	-0.000
232.92	-0.000
233.14	-0.000
233.35	-0.000
233.56	-0.000
233.78	-0.000
233.99	-0.000
234.21	-0.000
234.42	-0.000
234.63	-0.000
234.85	-0.000
235.06	-0.000
235.27	-0.000
235.49	-0.000
235.70	-0.000
235.91	-0.000
236.13	-0.000
236.34	-0.000
236.56	-0.000
236.77	-0.000
236.98	-0.000
237.20	-0.000
237.41	-0.000
237.62	-0.000
237.84	-0.000
238.05	-0.000
238.26	-0.000
238.48	-0.000
238.69	-0.000
238.91	-0.000
239.12	-0.000
239.33	-0.000
239.55	-0.000
239.76	-0.000
239.97	-0.000
240.19	-0.000
240.40	-0.000
240.61	-0.000
240.83	-0.000
241.04	-0.000
241.25	-0.000
241.47	-0.000
241.68	-0.000
241.89	-0.000
242.11	-0.000
242.32	-0.000
242.53	-0.000
242.75	-0.000
242.96	-0.000
243.17	-0.000
243.39	-0.000
243.60	-0.000
243.81	-0.000
244.03	-0.000
244.24	-0.000
244.45	-0.000
244.67	-0.000
244.88	-0.000
245.09	-0.000
245.31	-0.000
245.52	-0.000
245.73	-0.000
245.95	-0.000
246.16	-0.000
246.37	-0.000
246.59	-0.000
246.80	-0.000
247.01	-0.000
247.23	-0.000
247.44	-0.000
247.65	-0.000
247.87	-0.000
248.08	-0.000
248.29	-0.000
248.51	-0.000
248.72	-0.000
248.93	-0.000
249.15	-0.000
249.36	-0.000
249.57	-0.000
249.78	-0.000
250.00	-0.000
250.21	-0.000
250.42	-0.000
250.64	-0.000
250.85	-0.000
251.06	-0.000
251.28	-0.000
251.49	-0.000
251.70	-0.000
251.92	-0.000
252.13	-0.000
252.34	-0.000
252.55	-0.000
252.77	-0.000
252.98	-0.000
253.19	-0.000
253.41	-0.000
253.62	-0.000
253.83	-0.000
254.05	-0.000
254.26	-0.000
254.47	-0.000
254.68	-0.000
254.90	-0.000
255.11	-0.000
255.32	-0.000
255.54	-0.000
255.75	-0.000
255.96	-0.000
256.17	-0.000
256.39	-0.000
256.60	-0.000
256.81	-0.000
257.03	-0.000
257.24	-0.000
257.45	-0.000
257.66	-0.000
257.88	-0.000
258.09	-0.000
258.30	-0.000
258.51	-0.000
258.73	-0.000
258.94	-0.000
259.15	-0.000
259.37	-0.000
259.58	-0.000
259.79	-0.000
260.00	-0.000
260.22	-0.000
260.43	-0.000
260.64	-0.000
260.85	-0.000
261.07	-0.000
261.28	-0.000
261.49	-0.000
261.71	-0.000
261.92	-0.000
262.13	-0.000
262.34	-0.000
262.56	-0.000
262.77	-0.000
262.98	-0.000
263.19	-0.000
263.41	-0.000
263.62	-0.000
263.83	-0.000
264.04	-0.000
264.26	-0.000
264.47	-0.000
264.68	-0.000
264.89	-0.000
265.11	-0.000
265.32	-0.000
265.53	-0.000
265.74	-0.000
265.96	-0.000
266.17	-0.000
266.38	-0.000
266.59	-0.000
266.81	-0.000
267.02	-0.000
267.23	-0.000
267.44	-0.000
267.65	-0.000
267.87	-0.000
268.08	-0.000
268.29	-0.000
268.50	-0.000
268.72	-0.000
268.93	-0.000
269.14	-0.000
269.35	-0.000
269.57	-0.000
269.78	-0.000
269.99	-0.000
270.20	-0.000
270.41	-0.000
270.63	-0.000
270.84	-0.000
271.05	-0.000
271.26	-0.000
271.48	-0.000
271.69	-0.000
271.90	-0.000
272.11	-0.000
272.32	-0.000
272.54	-0.000
272.75	-0.000
272.96	-0.000
273.17	-0.000
273.39	-0.000
273.60	-0.000
273.81	-0.000
274.02	-0.000
274.23	-0.000
274.45	-0.000
274.66	-0.000
274.87	-0.000
275.08	-0.000
275.29	-0.000
275.51	-0.000
275.72	-0.000
275.93	-0.000
276.14	-0.000
276.35	-0.000
276.57	-0.000
276.78	-0.000
276.99	-0.000
277.20	-0.000
277.41	-0.000
277.63	-0.000
277.84	-0.000
278.05	-0.000
278.26	-0.000
278.47	-0.000
278.69	-0.000
278.90	-0.000
279.11	-0.000
279.32	-0.000
279.53	-0.000
279.74	-0.000
279.96	-0.000
280.17	-0.000
280.38	-0.000
280.59	-0.000
280.80	-0.000
281.02	-0.000
281.23	-0.000
281.44	-0.000
281.65	-0.000
281.86	-0.000
282.07	-0.000
282.29	-0.000
282.50	-0.000
282.71	-0.000
282.92	-0.000
283.13	-0.000
283.35	-0.000
283.56	-0.000
283.77	-0.000
283.98	-0.000
284.19	-0.000
284.40	-0.000
284.62	-0.000
284.83	-0.000
285.04	-0.000
285.25	-0.000
285.46	-0.000
285.67	-0.000
285.88	-0.000
286.10	-0.000
286.31	-0.000
286.52	-0.000
286.73	-0.000
286.94	-0.000
287.15	-0.000
287.37	-0.000
287.58	-0.000
287.79	-0.000
288.00	-0.000
288.21	-0.000
288.42	-0.000
288.63	-0.000
288.85	-0.000
289.06	-0.000
289.27	-0.000
289.48	-0.000
289.69	-0.000
289.90	-0.000
290.11	-0.000
290.33	-0.000
290.54	-0.000
290.75	-0.000
290.96	-0.000
291.17	-0.000
291.38	-0.000
291.59	-0.000
291.81	-0.000
292.02	-0.000
292.23	-0.000
292.44	-0.000
292.65	-0.000
292.86	-0.000
293.07	-0.000
293.28	-0.000
293.50	-0.000
293.71	-0.000
293.92	-0.000
294.13	-0.000
294.34	-0.000
294.55	-0.000
294.76	-0.000
294.97	-0.000
295.19	-0.000
295.40	-0.000
295.61	-0.000
295.82	-0.000
296.03	-0.000
296.24	-0.000
296.45	-0.000
296.66	3.110
296.87	-0.000
297.09	-0.000
297.30	-0.000
297.51	2.317
297.72	2.178
297.93	2.663
298.14	2.394
298.35	2.225
298.56	2.161
298.77	2.849
298.99	2.524
299.20	2.335
299.41	2.247
299.62	2.123
299.83	2.099
300.04	1.916
300.25	1.881
300.46	1.992
300.67	1.922
300.88	1.816
301.10	1.828
301.31	1.985
301.52	1.840
301.73	1.733
301.94	1.738
302.15	1.758
302.36	1.674
302.57	1.575
302.78	1.582
302.99	1.641
303.20	1.651
303.41	1.516
303.63	1.489
303.84	1.503
304.05	1.494
304.26	1.416
304.47	1.426
304.68	1.436
304.89	1.418
305.10	1.365
305.31	1.350
305.52	1.404
305.73	1.397
305.94	1.351
306.15	1.339
306.37	1.369
306.58	1.378
306.79	1.335
307.00	1.359
307.21	1.411
307.42	1.404
307.63	1.359
307.84	1.320
308.05	1.364
308.26	1.363
308.47	1.331
308.68	1.324
308.89	1.326
309.10	1.322
309.31	1.270
309.52	1.261
309.73	1.276
309.95	1.270
310.16	1.235
310.37	1.222
310.58	1.241
310.79	1.240
311.00	1.231
311.21	1.234
311.42	1.240
311.63	1.235
311.84	1.211
312.05	1.209
312.26	1.236
312.47	1.251
312.68	1.221
312.89	1.205
313.10	1.212
313.31	1.182
313.52	1.181
313.73	1.180
313.94	1.185
314.15	1.165
314.36	1.139
314.57	1.129
314.78	1.113
314.99	1.108
315.21	1.093
315.42	1.099
315.63	1.113
315.84	1.089
316.05	1.073
316.26	1.080
316.47	1.101
316.68	1.096
316.89	1.076
317.10	1.100
317.31	1.105
317.52	1.107
317.73	1.084
317.94	1.083
318.15	1.135
318.36	1.135
318.57	1.115
318.78	1.101
318.99	1.141
319.20	1.137
319.41	1.097
319.62	1.100
319.83	1.114
320.04	1.109
320.25	1.094
320.46	1.052
320.67	1.055
320.88	1.050
321.09	1.034
321.30	1.018
321.51	1.035
321.72	1.033
321.93	1.015
322.14	1.007
322.35	1.034
322.56	1.035
322.77	1.021
322.98	1.035
323.19	1.044
323.40	1.052
323.61	1.028
323.82	1.022
324.03	1.030
324.24	1.025
324.45	1.011
324.66	0.991
324.87	0.988
325.08	0.988
325.29	0.966
325.50	0.959
325.71	0.965
325.92	0.972
326.13	0.958
326.34	0.958
326.55	0.968
326.76	0.965
326.97	0.955
327.18	0.947
327.39	0.973
327.60	0.974
327.80	0.974
328.01	0.972
328.22	0.974
328.43	0.977
328.64	0.964
328.85	0.967
329.06	0.971
329.27	0.970
329.48	0.966
329.69	0.947
329.90	0.959
330.11	0.952
330.32	0.944
330.53	0.936
330.74	0.935
330.95	0.934
331.16	0.920
331.37	0.927
331.58	0.928
331.79	0.927
332.00	0.917
332.21	0.909
332.42	0.912
332.63	0.904
332.83	0.900
333.04	0.902
333.25	0.914
333.46	0.913
333.67	0.899
333.88	0.902
334.09	0.911
334.30	0.908
334.51	0.899
334.72	0.895
334.93	0.899
335.14	0.898
335.35	0.889
335.56	0.885
335.77	0.894
335.98	0.891
336.18	0.883
336.39	0.876
336.60	0.881
336.81	0.880
337.02	0.878
337.23	0.882
337.44	0.885
337.65	0.887
337.86	0.875
338.07	0.870
338.28	0.877
338.49	0.873
338.70	0.865
338.91	0.872
339.11	0.879
339.32	0.875
339.53	0.861
339.74	0.858
339.95	0.856
340.16	0.855
340.37	0.847
340.58	0.845
340.79	0.850
341.00	0.850
341.21	0.839
341.41	0.839
341.62	0.841
341.83	0.842
342.04	0.837
342.25	0.847
342.46	0.852
342.67	0.850
342.88	0.842
343.09	0.841
343.30	0.848
343.50	0.850
343.71	0.841
343.92	0.839
344.13	0.844
344.34	0.843
344.55	0.827
344.76	0.825
344.97	0.830
345.18	0.829
345.38	0.826
345.59	0.820
345.80	0.821
346.01	0.819
346.22	0.814
346.43	0.809
346.64	0.818
346.85	0.818
347.06	0.812
347.26	0.812
347.47	0.817
347.68	0.812
347.89	0.807
348.10	0.802
348.31	0.809
348.52	0.808
348.73	0.805
348.93	0.801
349.14	0.804
349.35	0.803
349.56	0.796
349.77	0.791
349.98	0.798
350.19	0.796
350.39	0.791
350.60	0.787
350.81	0.803
351.02	0.802
351.23	0.797
351.44	0.798
351.65	0.802
351.86	0.800
352.06	0.799
352.27	0.799
352.48	0.802
352.69	0.801
352.90	0.794
353.11	0.780
353.31	0.788
353.52	0.783
353.73	0.775
353.94	0.777
354.15	0.783
354.36	0.781
354.57	0.772
354.77	0.773
354.98	0.773
355.19	0.773
355.40	0.772
355.61	0.777
355.82	0.783
356.02	0.783
356.23	0.777
356.44	0.779
356.65	0.783
356.86	0.785
357.07	0.779
357.27	0.782
357.48	0.785
357.69	0.780
357.90	0.765
358.11	0.761
358.32	0.766
358.52	0.768
358.73	0.757
358.94	0.760
359.15	0.765
359.36	0.765
359.56	0.759
359.77	0.756
359.98	0.765
360.19	0.764
360.40	0.760
360.61	0.760
360.81	0.759
361.02	0.761
361.23	0.751
361.44	0.749
361.65	0.750
361.85	0.750
362.06	0.747
362.27	0.748
362.48	0.749
362.69	0.751
362.89	0.745
363.10	0.748
363.31	0.753
363.52	0.756
363.73	0.751
363.93	0.751
364.14	0.754
364.35	0.756
364.56	0.746
364.77	0.748
364.97	0.751
365.18	0.751
365.39	0.745
365.60	0.741
365.81	0.743
366.01	0.744
366.22	0.741
366.43	0.740
366.64	0.742
366.84	0.748
367.05	0.744
367.26	0.743
367.47	0.745
367.68	0.745
367.88	0.741
368.09	0.739
368.30	0.741
368.51	0.740
368.71	0.739
368.92	0.743
369.13	0.741
369.34	0.740
369.55	0.738
369.75	0.739
369.96	0.746
370.17	0.746
370.38	0.742
370.58	0.742
370.79	0.749
371.00	0.748
371.21	0.739
371.41	0.745
371.62	0.749
371.83	0.745
372.04	0.742
372.24	0.734
372.45	0.736
372.66	0.736
372.87	0.732
373.07	0.728
373.28	0.729
373.49	0.733
373.70	0.723
373.90	0.722
374.11	0.732
374.32	0.732
374.53	0.730
374.73	0.731
374.94	0.734
375.15	0.734
375.36	0.731
375.56	0.740
375.77	0.740
375.98	0.740
376.19	0.737
376.39	0.730
376.60	0.734
376.81	0.735
377.02	0.732
377.22	0.731
377.43	0.730
377.64	0.731
377.84	0.721
378.05	0.725
378.26	0.731
378.47	0.730
378.67	0.727
378.88	0.724
379.09	0.724
379.30	0.724
379.50	0.721
379.71	0.724
379.92	0.727
380.12	0.726
380.33	0.718
380.54	0.716
380.75	0.723
380.95	0.723
381.16	0.720
381.37	0.720
381.57	0.722
381.78	0.722
381.99	0.721
382.20	0.720
382.40	0.723
382.61	0.723
382.82	0.719
383.02	0.712
383.23	0.716
383.44	0.717
383.64	0.715
383.85	0.717
384.06	0.720
384.27	0.718
384.47	0.716
384.68	0.716
384.89	0.722
385.09	0.722
385.30	0.720
385.51	0.718
385.71	0.722
385.92	0.722
386.13	0.720
386.33	0.722
386.54	0.724
386.75	0.722
386.95	0.718
387.16	0.713
387.37	0.715
387.58	0.715
387.78	0.714
387.99	0.711
388.20	0.713
388.40	0.710
388.61	0.705
388.82	0.708
389.02	0.710
389.23	0.710
389.44	0.709
389.64	0.709
389.85	0.720
390.06	0.720
390.26	0.721
390.47	0.719
390.68	0.722
390.88	0.721
391.09	0.716
391.30	0.714
391.50	0.714
391.71	0.713
391.92	0.710
392.12	0.702
392.33	0.702
392.53	0.702
392.74	0.702
392.95	0.702
393.15	0.705
393.36	0.707
393.57	0.705
393.77	0.708
393.98	0.710
394.19	0.710
394.39	0.709
394.60	0.711
394.81	0.713
395.01	0.710
395.22	0.708
395.43	0.709
395.63	0.715
395.84	0.716
396.04	0.712
396.25	0.713
396.46	0.716
396.66	0.713
396.87	0.710
397.08	0.707
397.28	0.710
397.49	0.710
397.69	0.706
397.90	0.701
398.11	0.702
398.31	0.703
398.52	0.699
398.73	0.700
398.93	0.699
399.14	0.698
399.34	0.697
399.55	0.698
399.76	0.698
399.96	0.699
400.17	0.697
400.37	0.696
400.58	0.703
400.79	0.705
400.99	0.702
401.20	0.708
401.41	0.711
401.61	0.711
401.82	0.715
402.02	0.715
402.23	0.716
402.44	0.716
402.64	0.715
402.85	0.710
403.05	0.708
403.26	0.707
403.47	0.701
403.67	0.700
403.88	0.700
404.08	0.695
404.29	0.692
404.50	0.692
404.70	0.693
404.91	0.692
405.11	0.689
405.32	0.689
405.52	0.690
405.73	0.690
405.94	0.688
406.14	0.691
406.35	0.693
406.55	0.693
406.76	0.691
406.97	0.691
407.17	0.693
407.38	0.693
407.58	0.691
407.79	0.693
407.99	0.696
408.20	0.697
408.41	0.693
408.61	0.691
408.82	0.692
409.02	0.692
409.23	0.689
409.43	0.688
409.64	0.690
409.84	0.689
410.05	0.686
410.26	0.684
410.46	0.683
410.67	0.683
410.87	0.684
411.08	0.686
411.28	0.687
411.49	0.689
411.69	0.686
411.90	0.688
412.11	0.689
412.31	0.690
412.52	0.688
412.72	0.689
412.93	0.690
413.13	0.689
413.34	0.685
413.54	0.686
413.75	0.688
413.95	0.687
414.16	0.684
414.37	0.686
414.57	0.687
414.78	0.689
414.98	0.687
415.19	0.689
415.39	0.687
415.60	0.689
415.80	0.688
416.01	0.686
416.21	0.688
416.42	0.688
416.62	0.683
416.83	0.683
417.03	0.683
417.24	0.684
417.44	0.681
417.65	0.680
417.86	0.681
418.06	0.679
418.27	0.677
418.47	0.679
418.68	0.680
418.88	0.680
419.09	0.679
419.29	0.679
419.50	0.680
419.70	0.680
419.91	0.678
420.11	0.676
420.32	0.679
420.52	0.678
420.73	0.677
420.93	0.677
421.14	0.678
421.34	0.677
421.55	0.674
421.75	0.673
421.96	0.675
422.16	0.674
422.37	0.673
422.57	0.670
422.78	0.672
422.98	0.669
423.19	0.667
423.39	0.666
423.60	0.670
423.80	0.671
424.01	0.669
424.21	0.672
424.42	0.673
424.62	0.673
424.83	0.672
425.03	0.672
425.23	0.675
425.44	0.675
425.64	0.675
425.85	0.673
426.05	0.675
426.26	0.676
426.46	0.672
426.67	0.671
426.87	0.677
427.08	0.677
427.28	0.675
427.49	0.676
427.69	0.677
427.90	0.676
428.10	0.673
428.31	0.672
428.51	0.674
428.71	0.673
428.92	0.674
429.12	0.672
429.33	0.672
429.53	0.676
429.74	0.680
429.94	0.680
430.15	0.680
430.35	0.680
430.56	0.677
430.76	0.676
430.96	0.677
431.17	0.675
431.37	0.672
431.58	0.671
431.78	0.668
431.99	0.662
432.19	0.664
432.40	0.666
432.60	0.667
432.80	0.669
433.01	0.667
433.21	0.668
433.42	0.670
433.62	0.670
433.83	0.669
434.03	0.671
434.23	0.674
434.44	0.673
434.64	0.670
434.85	0.675
435.05	0.676
435.26	0.677
435.46	0.675
435.66	0.674
435.87	0.674
436.07	0.674
436.28	0.670
436.48	0.667
436.69	0.667
436.89	0.667
437.09	0.660
437.30	0.659
437.50	0.659
437.71	0.670
437.91	0.670
438.11	0.671
438.32	0.675
438.52	0.676
438.73	0.675
438.93	0.674
439.13	0.673
439.34	0.677
439.54	0.675
439.75	0.675
439.95	0.666
440.15	0.670
440.36	0.669
440.56	0.667
440.77	0.668
440.97	0.668
441.17	0.667
441.38	0.669
441.58	0.666
441.79	0.665
441.99	0.664
442.19	0.663
442.40	0.661
442.60	0.661
442.81	0.657
443.01	0.657
443.21	0.658
443.42	0.658
443.62	0.656
443.82	0.656
444.03	0.658
444.23	0.658
444.44	0.658
444.64	0.656
444.84	0.658
445.05	0.659
445.25	0.657
445.45	0.656
445.66	0.659
445.86	0.659
446.06	0.660
446.27	0.660
446.47	0.663
446.68	0.662
446.88	0.660
447.08	0.660
447.29	0.661
447.49	0.662
447.69	0.662
447.90	0.660
448.10	0.664
448.30	0.662
448.51	0.663
448.71	0.660
448.91	0.663
449.12	0.662
449.32	0.663
449.52	0.662
449.73	0.665
449.93	0.664
450.14	0.665
450.34	0.664
450.54	0.666
450.75	0.664
450.95	0.663
451.15	0.663
451.36	0.665
451.56	0.662
451.76	0.661
451.97	0.659
452.17	0.660
452.37	0.659
452.58	0.655
452.78	0.655
452.98	0.657
453.19	0.656
453.39	0.657
453.59	0.655
453.79	0.656
454.00	0.657
454.20	0.655
454.40	0.656
454.61	0.658
454.81	0.659
455.01	0.658
455.22	0.659
455.42	0.661
455.62	0.658
455.83	0.658
456.03	0.661
456.23	0.662
456.44	0.663
456.64	0.661
456.84	0.661
457.04	0.662
457.25	0.660
457.45	0.657
457.65	0.656
457.86	0.657
458.06	0.656
458.26	0.651
458.47	0.650
458.67	0.652
458.87	0.652
459.07	0.650
459.28	0.652
459.48	0.654
459.68	0.655
459.89	0.653
460.09	0.653
460.29	0.655
460.49	0.657
460.70	0.656
460.90	0.655
461.10	0.656
461.31	0.656
461.51	0.653
461.71	0.655
461.91	0.657
462.12	0.656
462.32	0.655
462.52	0.655
462.72	0.658
462.93	0.658
463.13	0.657
463.33	0.657
463.53	0.659
463.74	0.658
463.94	0.654
464.14	0.653
464.35	0.655
464.55	0.656
464.75	0.654
464.95	0.651
465.16	0.654
465.36	0.652
465.56	0.650
465.76	0.650
465.97	0.651
466.17	0.651
466.37	0.649
466.57	0.651
466.78	0.652
466.98	0.652
467.18	0.650
467.38	0.648
467.59	0.650
467.79	0.652
467.99	0.650
468.19	0.651
468.39	0.654
468.60	0.655
468.80	0.652
469.00	0.653
469.20	0.654
469.41	0.655
469.61	0.654
469.81	0.654
470.01	0.654
470.22	0.654
470.42	0.652
470.62	0.651
470.82	0.652
471.02	0.651
471.23	0.649
471.43	0.650
471.63	0.652
471.83	0.652
472.04	0.650
472.24	0.648
472.44	0.654
472.64	0.654
472.84	0.652
473.05	0.651
473.25	0.654
473.45	0.654
473.65	0.652
473.85	0.652
474.06	0.654
474.26	0.653
474.46	0.655
474.66	0.651
474.86	0.652
475.07	0.652
475.27	0.650
475.47	0.648
475.67	0.648
475.87	0.651
476.08	0.647
476.28	0.648
476.48	0.650
476.68	0.648
476.88	0.646
477.09	0.648
477.29	0.650
477.49	0.650
477.69	0.649
477.89	0.649
478.09	0.649
478.30	0.651
478.50	0.648
478.70	0.648
478.90	0.649
479.10	0.651
479.31	0.651
479.51	0.649
479.71	0.650
479.91	0.650
480.11	0.648
480.31	0.648
480.52	0.647
480.72	0.647
480.92	0.646
481.12	0.645
481.32	0.643
481.52	0.641
481.72	0.641
481.93	0.644
482.13	0.645
482.33	0.644
482.53	0.642
482.73	0.643
482.93	0.644
483.14	0.643
483.34	0.643
483.54	0.643
483.74	0.643
483.94	0.642
484.14	0.638
484.34	0.638
484.55	0.638
484.75	0.638
484.95	0.636
485.15	0.636
485.35	0.636
485.55	0.636
485.75	0.634
485.96	0.634
486.16	0.636
486.36	0.635
486.56	0.633
486.76	0.634
486.96	0.634
487.16	0.634
487.36	0.631
487.57	0.632
487.77	0.632
487.97	0.633
488.17	0.631
488.37	0.630
488.57	0.631
488.77	0.631
488.97	0.629
489.18	0.629
489.38	0.632
489.58	0.633
489.78	0.632
489.98	0.631
490.18	0.631
490.38	0.632
490.58	0.630
490.78	0.631
490.98	0.634
491.19	0.634
491.39	0.633
491.59	0.632
491.79	0.635
491.99	0.636
492.19	0.635
492.39	0.638
492.59	0.638
492.79	0.640
492.99	0.640
493.20	0.640
493.40	0.640
493.60	0.641
493.80	0.639
494.00	0.637
494.20	0.638
494.40	0.638
494.60	0.635
494.80	0.639
495.00	0.639
495.20	0.638
495.40	0.636
495.61	0.638
495.81	0.638
496.01	0.641
496.21	0.642
496.41	0.641
496.61	0.642
496.81	0.641
497.01	0.636
497.21	0.635
497.41	0.636
497.61	0.635
497.81	0.633
498.01	0.633
498.21	0.631
498.41	0.628
498.61	0.628
498.82	0.630
499.02	0.632
499.22	0.633
499.42	0.632
499.62	0.633
499.82	0.635
500.02	0.636
500.22	0.635
500.42	0.637
500.62	0.638
500.82	0.639
501.02	0.636
501.22	0.636
501.42	0.636
501.62	0.638
501.82	0.638
502.02	0.638
502.22	0.637
502.42	0.638
502.62	0.636
502.82	0.636
503.02	0.637
503.22	0.637
503.42	0.635
503.63	0.634
503.83	0.632
504.03	0.631
504.23	0.629
504.43	0.630
504.63	0.631
504.83	0.630
505.03	0.629
505.23	0.631
505.43	0.632
505.63	0.633
505.83	0.633
506.03	0.635
506.23	0.637
506.43	0.638
506.63	0.637
506.83	0.636
507.03	0.638
507.23	0.639
507.43	0.636
507.63	0.637
507.83	0.638
508.03	0.638
508.23	0.637
508.43	0.635
508.63	0.637
508.83	0.637
509.03	0.638
509.23	0.637
509.43	0.638
509.63	0.638
509.83	0.636
510.03	0.638
510.23	0.640
510.43	0.641
510.63	0.642
510.83	0.641
511.03	0.643
511.23	0.640
511.43	0.640
511.63	0.641
511.83	0.644
512.03	0.644
512.22	0.641
512.42	0.640
512.62	0.641
512.82	0.641
513.02	0.639
513.22	0.639
513.42	0.641
513.62	0.644
513.82	0.642
514.02	0.642
514.22	0.643
514.42	0.644
514.62	0.643
514.82	0.644
515.02	0.646
515.22	0.650
515.42	0.648
515.62	0.650
515.82	0.649
516.02	0.650
516.22	0.650
516.42	0.651
516.62	0.653
516.82	0.654
517.01	0.652
517.21	0.651
517.41	0.655
517.61	0.656
517.81	0.652
518.01	0.650
518.21	0.650
518.41	0.650
518.61	0.649
518.81	0.649
519.01	0.650
519.21	0.650
519.41	0.649
519.61	0.644
519.81	0.646
520.00	0.647
520.20	0.648
520.40	0.651
520.60	0.651
520.80	0.650
521.00	0.651
521.20	0.652
521.40	0.657
521.60	0.657
521.80	0.656
522.00	0.656
522.20	0.659
522.39	0.658
522.59	0.654
522.79	0.656
522.99	0.659
523.19	0.657
523.39	0.655
523.59	0.653
523.79	0.656
523.99	0.659
524.19	0.658
524.38	0.656
524.58	0.658
524.78	0.659
524.98	0.657
525.18	0.659
525.38	0.661
525.58	0.661
525.78	0.659
525.98	0.658
526.18	0.658
526.37	0.657
526.57	0.658
526.77	0.658
526.97	0.659
527.17	0.659
527.37	0.654
527.57	0.657
527.77	0.658
527.96	0.658
528.16	0.656
528.36	0.657
528.56	0.659
528.76	0.658
528.96	0.656
529.16	0.657
529.36	0.661
529.55	0.661
529.75	0.657
529.95	0.657
530.15	0.659
530.35	0.663
530.55	0.659
530.75	0.660
530.94	0.661
531.14	0.662
531.34	0.660
531.54	0.657
531.74	0.660
531.94	0.663
532.13	0.661
532.33	0.663
532.53	0.661
532.73	0.662
532.93	0.660
533.13	0.661
533.33	0.661
533.52	0.662
533.72	0.666
533.92	0.664
534.12	0.663
534.32	0.663
534.52	0.661
534.71	0.663
534.91	0.666
535.11	0.668
535.31	0.665
535.51	0.668
535.71	0.670
535.90	0.666
536.10	0.667
536.30	0.668
536.50	0.669
536.70	0.670
536.89	0.667
537.09	0.666
537.29	0.668
537.49	0.668
537.69	0.666
537.89	0.666
538.08	0.667
538.28	0.665
538.48	0.665
538.68	0.666
538.88	0.669
539.07	0.669
539.27	0.667
539.47	0.666
539.67	0.667
539.87	0.668
540.06	0.666
540.26	0.666
540.46	0.669
540.66	0.666
540.86	0.663
541.05	0.663
541.25	0.665
541.45	0.665
541.65	0.663
541.84	0.665
542.04	0.666
542.24	0.667
542.44	0.666
542.64	0.667
542.83	0.670
543.03	0.671
543.23	0.669
543.43	0.669
543.62	0.671
543.82	0.671
544.02	0.669
544.22	0.670
544.42	0.673
544.61	0.673
544.81	0.670
545.01	0.669
545.21	0.671
545.40	0.671
545.60	0.669
545.80	0.672
546.00	0.673
546.19	0.672
546.39	0.671
546.59	0.668
546.79	0.670
546.98	0.670
547.18	0.669
547.38	0.670
547.58	0.673
547.77	0.674
547.97	0.670
548.17	0.672
548.37	0.672
548.56	0.672
548.76	0.671
548.96	0.673
549.16	0.676
549.35	0.676
549.55	0.673
549.75	0.674
549.95	0.677
550.14	0.678
550.34	0.676
550.54	0.680
550.73	0.685
550.93	0.685
551.13	0.681
551.33	0.680
551.52	0.681
551.72	0.682
551.92	0.679
552.12	0.680
552.31	0.681
552.51	0.681
552.71	0.677
552.90	0.677
553.10	0.678
553.30	0.678
553.50	0.677
553.69	0.678
553.89	0.679
554.09	0.680
554.28	0.676
554.48	0.677
554.68	0.679
554.87	0.678
555.07	0.675
555.27	0.675
555.47	0.677
555.66	0.677
555.86	0.675
556.06	0.677
556.25	0.679
556.45	0.687
556.65	0.686
556.84	0.689
557.04	0.693
557.24	0.694
557.43	0.693
557.63	0.696
557.83	0.698
558.02	0.699
558.22	0.702
558.42	0.702
558.61	0.695
558.81	0.695
559.01	0.691
559.21	0.691
559.40	0.693
559.60	0.694
559.80	0.690
559.99	0.690
560.19	0.692
560.39	0.686
560.58	0.683
560.78	0.683
560.97	0.687
561.17	0.685
561.37	0.682
561.56	0.683
561.76	0.684
561.96	0.685
562.15	0.683
562.35	0.685
562.55	0.687
562.74	0.687
562.94	0.686
563.14	0.684
563.33	0.685
563.53	0.685
563.73	0.682
563.92	0.683
564.12	0.686
564.31	0.688
564.51	0.685
564.71	0.687
564.90	0.690
565.10	0.691
565.30	0.693
565.49	0.694
565.69	0.697
565.89	0.697
566.08	0.694
566.28	0.696
566.47	0.698
566.67	0.696
566.87	0.693
567.06	0.694
567.26	0.700
567.46	0.696
567.65	0.695
567.85	0.696
568.04	0.699
568.24	0.698
568.44	0.695
568.63	0.693
568.83	0.695
569.02	0.694
569.22	0.689
569.42	0.685
569.61	0.688
569.81	0.686
570.00	0.684
570.20	0.686
570.40	0.687
570.59	0.687
570.79	0.685
570.98	0.683
571.18	0.685
571.38	0.685
571.57	0.682
571.77	0.680
571.96	0.684
572.16	0.681
572.35	0.675
572.55	0.676
572.75	0.674
572.94	0.674
573.14	0.673
573.33	0.673
573.53	0.673
573.73	0.673
573.92	0.671
574.12	0.668
574.31	0.671
574.51	0.672
574.70	0.669
574.90	0.670
575.09	0.673
575.29	0.672
575.49	0.669
575.68	0.670
575.88	0.671
576.07	0.672
576.27	0.670
576.46	0.669
576.66	0.668
576.86	0.667
577.05	0.665
577.25	0.663
577.44	0.665
577.64	0.665
577.83	0.663
578.03	0.664
578.22	0.664
578.42	0.663
578.61	0.661
578.81	0.662
579.00	0.663
579.20	0.663
579.40	0.662
579.59	0.661
579.79	0.661
579.98	0.661
580.18	0.660
580.37	0.660
580.57	0.662
580.76	0.667
580.96	0.665
581.15	0.666
581.35	0.668
581.54	0.668
581.74	0.667
581.93	0.668
582.13	0.670
582.32	0.667
582.52	0.666
582.71	0.665
582.91	0.661
583.10	0.661
583.30	0.660
583.49	0.659
583.69	0.663
583.88	0.664
584.08	0.663
584.27	0.665
584.47	0.668
584.66	0.668
584.86	0.667
585.05	0.669
585.25	0.671
585.44	0.671
585.64	0.669
585.83	0.666
586.03	0.667
586.22	0.665
586.42	0.661
586.61	0.663
586.81	0.666
587.00	0.666
587.20	0.663
587.39	0.664
587.59	0.666
587.78	0.667
587.98	0.668
588.17	0.668
588.37	0.671
588.56	0.673
588.76	0.669
588.95	0.669
589.15	0.673
589.34	0.676
589.54	0.675
589.73	0.675
589.92	0.678
590.12	0.678
590.31	0.676
590.51	0.681
590.70	0.683
590.90	0.684
591.09	0.681
591.29	0.679
591.48	0.679
591.68	0.680
591.87	0.678
592.06	0.677
592.26	0.680
592.45	0.680
592.65	0.673
592.84	0.672
593.04	0.675
593.23	0.677
593.43	0.675
593.62	0.674
593.81	0.675
594.01	0.674
594.20	0.671
594.40	0.670
594.59	0.672
594.79	0.673
594.98	0.672
595.17	0.671
595.37	0.672
595.56	0.674
595.76	0.673
595.95	0.675
596.14	0.678
596.34	0.680
596.53	0.678
596.73	0.680
596.92	0.681
597.12	0.683
597.31	0.683
597.50	0.682
597.70	0.685
597.89	0.684
598.09	0.680
598.28	0.682
598.47	0.684
598.67	0.682
598.86	0.678
599.06	0.680
599.25	0.681
599.44	0.679
599.64	0.677
599.83	0.674
600.03	0.678
600.22	0.679
600.41	0.679
600.61	0.677
600.80	0.680
601.00	0.681
601.19	0.676
601.38	0.674
601.58	0.676
601.77	0.678
601.96	0.680
602.16	0.679
602.35	0.688
602.55	0.686
602.74	0.686
602.93	0.687
603.13	0.693
603.32	0.694
603.51	0.694
603.71	0.697
603.90	0.699
604.09	0.699
604.29	0.696
604.48	0.690
604.68	0.692
604.87	0.691
605.06	0.687
605.26	0.683
605.45	0.684
605.64	0.683
605.84	0.678
606.03	0.677
606.22	0.677
606.42	0.676
606.61	0.672
606.80	0.672
607.00	0.674
607.19	0.674
607.38	0.673
607.58	0.675
607.77	0.678
607.96	0.678
608.16	0.676
608.35	0.681
608.54	0.684
608.74	0.688
608.93	0.693
609.12	0.696
609.32	0.699
609.51	0.703
609.70	0.701
609.90	0.702
610.09	0.708
610.28	0.714
610.48	0.707
610.67	0.708
610.86	0.708
611.06	0.702
611.25	0.699
611.44	0.700
611.64	0.700
611.83	0.703
612.02	0.699
612.21	0.697
612.41	0.696
612.60	0.695
612.79	0.691
612.99	0.691
613.18	0.693
613.37	0.691
613.57	0.688
613.76	0.690
613.95	0.687
614.14	0.687
614.34	0.684
614.53	0.685
614.72	0.688
614.92	0.688
615.11	0.685
615.30	0.682
615.49	0.684
615.69	0.687
615.88	0.683
616.07	0.685
616.26	0.687
616.46	0.689
616.65	0.686
616.84	0.684
617.04	0.687
617.23	0.690
617.42	0.690
617.61	0.694
617.81	0.695
618.00	0.697
618.19	0.694
618.38	0.698
618.58	0.702
618.77	0.702
618.96	0.702
619.15	0.703
619.35	0.705
619.54	0.705
619.73	0.700
619.92	0.702
620.12	0.707
620.31	0.707
620.50	0.702
620.69	0.702
620.89	0.706
621.08	0.706
621.27	0.707
621.46	0.706
621.66	0.710
621.85	0.710
622.04	0.706
622.23	0.707
622.43	0.708
622.62	0.707
622.81	0.706
623.00	0.706
623.19	0.710
623.39	0.709
623.58	0.706
623.77	0.704
623.96	0.708
624.16	0.708
624.35	0.703
624.54	0.707
624.73	0.711
624.92	0.709
625.12	0.705
625.31	0.706
625.50	0.709
625.69	0.710
625.88	0.706
626.08	0.706
626.27	0.707
626.46	0.708
626.65	0.703
626.84	0.703
627.04	0.709
627.23	0.709
627.42	0.704
627.61	0.706
627.80	0.709
628.00	0.710
628.19	0.707
628.38	0.711
628.57	0.714
628.76	0.713
628.96	0.709
629.15	0.710
629.34	0.714
629.53	0.715
629.72	0.709
629.91	0.709
630.11	0.714
630.30	0.715
630.49	0.717
630.68	0.717
630.87	0.721
631.06	0.722
631.26	0.716
631.45	0.718
631.64	0.727
631.83	0.729
632.02	0.726
632.21	0.725
632.41	0.732
632.60	0.726
632.79	0.724
632.98	0.726
633.17	0.728
633.36	0.730
633.55	0.726
633.75	0.722
633.94	0.723
634.13	0.724
634.32	0.721
634.51	0.716
634.70	0.719
634.89	0.719
635.09	0.715
635.28	0.716
635.47	0.717
635.66	0.719
635.85	0.715
636.04	0.717
636.23	0.721
636.43	0.723
636.62	0.722
636.81	0.720
637.00	0.723
637.19	0.726
637.38	0.722
637.57	0.722
637.76	0.725
637.95	0.726
638.15	0.722
638.34	0.719
638.53	0.723
638.72	0.724
638.91	0.720
639.10	0.718
639.29	0.719
639.48	0.720
639.67	0.719
639.87	0.718
640.06	0.724
640.25	0.723
640.44	0.724
640.63	0.723
640.82	0.726
641.01	0.726
641.20	0.725
641.39	0.726
641.58	0.728
641.78	0.727
641.97	0.722
642.16	0.737
642.35	0.737
642.54	0.735
642.73	0.730
642.92	0.728
643.11	0.732
643.30	0.733
643.49	0.727
643.68	0.731
643.87	0.733
644.06	0.733
644.25	0.712
644.45	0.716
644.64	0.718
644.83	0.719
645.02	0.716
645.21	0.714
645.40	0.716
645.59	0.716
645.78	0.708
645.97	0.710
646.16	0.711
646.35	0.711
646.54	0.708
646.73	0.710
646.92	0.712
647.11	0.710
647.30	0.707
647.49	0.709
647.68	0.709
647.88	0.708
648.07	0.701
648.26	0.705
648.45	0.707
648.64	0.703
648.83	0.699
649.02	0.702
649.21	0.713
649.40	0.712
649.59	0.707
649.78	0.708
649.97	0.723
650.16	0.722
650.35	0.716
650.54	0.719
650.73	0.728
650.92	0.724
651.11	0.717
651.30	0.715
651.49	0.719
651.68	0.720
651.87	0.716
652.06	0.707
652.25	0.710
652.44	0.711
652.63	0.709
652.82	0.708
653.01	0.709
653.20	0.706
653.39	0.693
653.58	0.691
653.77	0.690
653.96	0.685
654.15	0.676
654.34	0.674
654.53	0.669
654.72	0.664
654.91	0.654
655.10	0.651
655.29	0.649
655.48	0.647
655.67	0.642
655.86	0.639
656.05	0.638
656.24	0.637
656.43	0.632
656.62	0.631
656.81	0.632
657.00	0.629
657.19	0.627
657.38	0.626
657.57	0.626
657.76	0.628
657.95	0.626
658.14	0.629
658.33	0.632
658.51	0.637
658.70	0.638
658.89	0.639
659.08	0.649
659.27	0.656
659.46	0.657
659.65	0.664
659.84	0.667
660.03	0.671
660.22	0.672
660.41	0.677
660.60	0.676
660.79	0.678
660.98	0.684
661.17	0.683
661.36	0.683
661.55	0.684
661.74	0.680
661.92	0.684
662.11	0.686
662.30	0.685
662.49	0.677
662.68	0.677
662.87	0.680
663.06	0.674
663.25	0.674
663.44	0.674
663.63	0.676
663.82	0.676
664.01	0.670
664.20	0.668
664.38	0.670
664.57	0.671
664.76	0.670
664.95	0.670
665.14	0.674
665.33	0.668
665.52	0.676
665.71	0.679
665.90	0.679
666.09	0.680
666.28	0.678
666.46	0.677
666.65	0.678
666.84	0.675
667.03	0.670
667.22	0.668
667.41	0.671
667.60	0.661
667.79	0.654
667.98	0.656
668.16	0.657
668.35	0.656
668.54	0.652
668.73	0.653
668.92	0.655
669.11	0.654
669.30	0.648
669.49	0.644
669.67	0.645
669.86	0.647
670.05	0.644
670.24	0.641
670.43	0.639
670.62	0.638
670.81	0.632
671.00	0.633
671.18	0.634
671.37	0.633
671.56	0.631
671.75	0.631
671.94	0.628
672.13	0.626
672.32	0.622
672.50	0.621
672.69	0.622
672.88	0.623
673.07	0.618
673.26	0.620
673.45	0.621
673.63	0.622
673.82	0.618
674.01	0.620
674.20	0.620
674.39	0.619
674.58	0.618
674.76	0.618
674.95	0.616
675.14	0.616
675.33	0.611
675.52	0.610
675.71	0.609
675.89	0.608
676.08	0.604
676.27	0.604
676.46	0.605
676.65	0.604
676.84	0.603
677.02	0.605
677.21	0.607
677.40	0.607
677.59	0.604
677.78	0.605
677.96	0.608
678.15	0.607
678.34	0.604
678.53	0.605
678.72	0.605
678.90	0.602
679.09	0.597
679.28	0.594
679.47	0.595
679.66	0.595
679.84	0.591
680.03	0.588
680.22	0.587
680.41	0.590
680.60	0.586
680.78	0.585
680.97	0.587
681.16	0.587
681.35	0.586
681.53	0.585
681.72	0.587
681.91	0.588
682.10	0.587
682.29	0.590
682.47	0.588
682.66	0.588
682.85	0.587
683.04	0.584
683.22	0.585
683.41	0.587
683.60	0.585
683.79	0.586
683.97	0.584
684.16	0.583
684.35	0.579
684.54	0.580
684.72	0.580
684.91	0.581
685.10	0.579
685.29	0.580
685.47	0.577
685.66	0.576
685.85	0.573
686.04	0.572
686.22	0.575
686.41	0.577
686.60	0.574
686.79	0.577
686.97	0.579
687.16	0.580
687.35	0.577
687.54	0.581
687.72	0.585
687.91	0.585
688.10	0.586
688.29	0.585
688.47	0.584
688.66	0.584
688.85	0.579
689.03	0.577
689.22	0.581
689.41	0.582
689.60	0.577
689.78	0.575
689.97	0.575
690.16	0.572
690.34	0.569
690.53	0.569
690.72	0.569
690.91	0.567
691.09	0.565
691.28	0.560
691.47	0.558
691.65	0.557
691.84	0.553
692.03	0.553
692.21	0.551
692.40	0.551
692.59	0.548
692.77	0.547
692.96	0.548
693.15	0.549
693.34	0.546
693.52	0.546
693.71	0.547
693.90	0.548
694.08	0.548
694.27	0.549
694.46	0.558
694.64	0.559
694.83	0.558
695.02	0.557
695.20	0.557
695.39	0.557
695.58	0.557
695.76	0.558
695.95	0.558
696.14	0.557
696.32	0.555
696.51	0.545
696.70	0.545
696.88	0.546
697.07	0.545
697.26	0.546
697.44	0.547
697.63	0.546
697.81	0.544
698.00	0.543
698.19	0.543
698.37	0.543
698.56	0.542
698.75	0.542
698.93	0.542
699.12	0.542
699.31	0.540
699.49	0.540
699.68	0.541
699.87	0.543
700.05	0.543
700.24	0.542
700.42	0.543
700.61	0.543
700.80	0.541
700.98	0.542
701.17	0.544
701.36	0.542
701.54	0.542
701.73	0.542
701.91	0.540
702.10	0.540
702.29	0.538
702.47	0.538
702.66	0.539
702.84	0.540
703.03	0.538
703.22	0.540
703.40	0.540
703.59	0.541
703.77	0.540
703.96	0.540
704.15	0.540
704.33	0.540
704.52	0.539
704.70	0.538
704.89	0.538
705.08	0.537
705.26	0.533
705.45	0.533
705.63	0.534
705.82	0.530
706.00	0.529
706.19	0.528
706.38	0.528
706.56	0.527
706.75	0.525
706.93	0.524
707.12	0.525
707.30	0.526
707.49	0.523
707.68	0.521
707.86	0.521
708.05	0.521
708.23	0.519
708.42	0.520
708.60	0.523
708.79	0.523
708.98	0.522
709.16	0.521
709.35	0.523
709.53	0.527
709.72	0.526
709.90	0.528
710.09	0.530
710.27	0.532
710.46	0.536
710.64	0.534
710.83	0.536
711.02	0.537
711.20	0.535
711.39	0.533
711.57	0.531
711.76	0.532
711.94	0.529
712.13	0.529
712.31	0.529
712.50	0.524
712.68	0.521
712.87	0.522
713.05	0.522
713.24	0.523
713.42	0.522
713.61	0.522
713.79	0.523
713.98	0.523
714.16	0.524
714.35	0.524
714.54	0.525
714.72	0.526
714.91	0.523
715.09	0.530
715.28	0.533
715.46	0.533
715.65	0.531
715.83	0.531
716.02	0.534
716.20	0.531
716.39	0.530
716.57	0.530
716.76	0.532
716.94	0.533
717.12	0.525
717.31	0.527
717.49	0.530
717.68	0.531
717.86	0.530
718.05	0.532
718.23	0.533
718.42	0.536
718.60	0.537
718.79	0.545
718.97	0.547
719.16	0.548
719.34	0.545
719.53	0.544
719.71	0.545
719.90	0.547
720.08	0.544
720.27	0.544
720.45	0.545
720.63	0.544
720.82	0.538
721.00	0.541
721.19	0.545
721.37	0.544
721.56	0.544
721.74	0.546
721.93	0.556
722.11	0.563
722.30	0.562
722.48	0.565
722.66	0.566
722.85	0.565
723.03	0.565
723.22	0.563
723.40	0.567
723.59	0.568
723.77	0.572
723.95	0.564
724.14	0.566
724.32	0.567
724.51	0.566
724.69	0.568
724.88	0.569
725.06	0.568
725.24	0.569
725.43	0.571
725.61	0.573
725.80	0.567
725.98	0.566
726.16	0.563
726.35	0.569
726.53	0.569
726.72	0.567
726.90	0.578
727.09	0.579
727.27	0.584
727.45	0.581
727.64	0.590
727.82	0.599
728.01	0.603
728.19	0.601
728.37	0.606
728.56	0.610
728.74	0.616
728.92	0.604
729.11	0.605
729.29	0.604
729.48	0.607
729.66	0.597
729.84	0.598
730.03	0.603
730.21	0.605
730.40	0.595
730.58	0.597
730.76	0.598
730.95	0.600
731.13	0.600
731.31	0.613
731.50	0.623
731.68	0.625
731.86	0.619
732.05	0.634
732.23	0.638
732.42	0.642
732.60	0.645
732.78	0.650
732.97	0.673
733.15	0.680
733.33	0.668
733.52	0.675
733.70	0.687
733.88	0.698
734.07	0.680
734.25	0.707
734.43	0.716
734.62	0.718
734.80	0.712
734.98	0.701
735.17	0.709
735.35	0.716
735.53	0.703
735.72	0.705
735.90	0.730
736.08	0.752
736.27	0.725
736.45	0.738
736.63	0.754
736.82	0.764
737.00	0.761
737.18	0.772
737.37	0.807
737.55	0.835
737.73	0.829
737.92	0.832
738.10	0.831
738.28	0.855
738.46	0.842
738.65	0.852
738.83	0.878
739.01	0.939
739.20	0.928
739.38	0.910
739.56	0.899
739.75	0.904
739.93	0.864
740.11	0.890
740.29	0.891
740.48	0.897
740.66	0.877
740.84	0.873
741.03	0.838
741.21	0.851
741.39	0.827
741.57	0.844
741.76	0.863
741.94	0.868
742.12	0.830
742.31	0.837
742.49	0.860
742.67	0.880
742.85	0.892
743.04	0.896
743.22	0.905
743.40	0.969
743.58	0.946
743.77	0.968
743.95	1.011
744.13	1.072
744.31	1.049
744.50	1.042
744.68	1.048
744.86	1.018
745.04	1.031
745.23	1.113
745.41	1.094
745.59	1.101
745.77	1.057
745.96	1.044
746.14	1.054
746.32	1.050
746.50	1.034
746.69	1.012
746.87	1.034
747.05	1.012
747.23	0.931
747.42	0.914
747.60	0.951
747.78	0.958
747.96	0.995
748.14	0.942
748.33	0.975
748.51	0.975
748.69	0.971
748.87	1.001
749.06	1.005
749.24	0.998
749.42	0.978
749.60	0.952
749.78	0.961
749.97	0.903
750.15	0.900
750.33	0.903
750.51	0.933
750.69	0.936
750.88	0.935
751.06	0.943
751.24	0.976
751.42	0.967
751.60	0.959
751.79	1.039
751.97	1.100
752.15	1.094
752.33	1.052
752.51	1.134
752.69	1.162
752.88	1.120
753.06	1.179
753.24	1.152
753.42	1.196
753.60	1.434
753.78	1.222
753.97	1.247
754.15	1.280
754.33	1.325
754.51	1.143
754.69	1.123
754.87	1.166
755.06	1.070
755.24	1.062
755.42	1.073
755.60	0.955
755.78	0.961
755.96	0.900
756.15	0.896
756.33	0.904
756.51	0.921
756.69	0.902
756.87	0.866
757.05	0.889
757.23	0.870
757.42	0.833
757.60	0.833
757.78	0.827
757.96	0.823
758.14	0.807
758.32	0.787
758.50	0.804
758.69	0.802
758.87	0.791
759.05	0.796
759.23	0.812
759.41	0.813
759.59	0.802
759.77	0.821
759.95	0.852
760.13	0.902
760.32	0.903
760.50	0.895
760.68	0.926
760.86	0.929
761.04	0.895
761.22	0.893
761.40	0.947
761.58	0.949
761.76	0.921
761.95	0.899
762.13	0.857
762.31	0.858
762.49	0.822
762.67	0.838
762.85	0.852
763.03	0.844
763.21	0.825
763.39	0.803
763.57	0.805
763.75	0.796
763.94	0.781
764.12	0.780
764.30	0.807
764.48	0.814
764.66	0.776
764.84	0.776
765.02	0.819
765.20	0.826
765.38	0.805
765.56	0.818
765.74	0.865
765.92	0.866
766.10	0.870
766.28	0.858
766.46	0.891
766.65	0.892
766.83	0.874
767.01	0.855
767.19	0.866
767.37	0.865
767.55	0.845
767.73	0.823
767.91	0.828
768.09	0.820
768.27	0.808
768.45	0.797
768.63	0.801
768.81	0.804
768.99	0.777
769.17	0.801
769.35	0.822
769.53	0.822
769.71	0.800
769.89	0.811
770.07	0.818
770.25	0.801
770.43	0.777
770.61	0.805
770.79	0.815
770.97	0.825
771.15	0.790
771.33	0.793
771.51	0.795
771.69	0.809
771.87	0.813
772.05	0.820
772.24	0.829
772.42	0.837
772.60	0.810
772.78	0.875
772.96	0.906
773.14	0.903
773.32	0.874
773.49	0.884
773.67	0.879
773.85	0.856
774.03	0.842
774.21	0.879
774.39	0.896
774.57	0.924
774.75	0.841
774.93	0.839
775.11	0.866
775.29	0.872
775.47	0.873
775.65	0.884
775.83	0.909
776.01	0.932
776.19	0.877
776.37	0.878
776.55	0.879
776.73	0.873
776.91	0.863
777.09	0.846
777.27	0.844
777.45	0.829
777.63	0.804
777.81	0.798
777.99	0.787
778.17	0.783
778.35	0.761
778.53	0.748
778.71	0.756
778.89	0.744
779.07	0.730
779.24	0.735
779.42	0.738
779.60	0.760
779.78	0.754
779.96	0.759
780.14	0.770
780.32	0.789
780.50	0.771
780.68	0.772
780.86	0.763
781.04	0.781
781.22	0.787
781.40	0.797
781.58	0.784
781.75	0.774
781.93	0.756
782.11	0.757
782.29	0.743
782.47	0.740
782.65	0.727
782.83	0.758
783.01	0.752
783.19	0.744
783.37	0.729
783.55	0.735
783.72	0.758
783.90	0.767
784.08	0.756
784.26	0.769
784.44	0.790
784.62	0.793
784.80	0.754
784.98	0.760
785.16	0.768
785.33	0.782
785.51	0.765
785.69	0.748
785.87	0.748
786.05	0.760
786.23	0.754
786.41	0.751
786.59	0.758
786.77	0.757
786.94	0.741
787.12	0.744
787.30	0.746
787.48	0.743
787.66	0.733
787.84	0.733
788.02	0.725
788.19	0.722
788.37	0.706
788.55	0.707
788.73	0.709
788.91	0.703
789.09	0.685
789.27	0.674
789.44	0.686
789.62	0.692
789.80	0.700
789.98	0.724
790.16	0.711
790.34	0.710
790.51	0.698
790.69	0.719
790.87	0.729
791.05	0.726
791.23	0.719
791.41	0.720
791.58	0.727
791.76	0.705
791.94	0.673
792.12	0.683
792.30	0.685
792.48	0.681
792.65	0.673
792.83	0.679
793.01	0.687
793.19	0.685
793.37	0.669
793.54	0.666
793.72	0.678
793.90	0.677
794.08	0.666
794.26	0.668
794.43	0.679
794.61	0.660
794.79	0.647
794.97	0.647
795.15	0.654
795.32	0.659
795.50	0.648
795.68	0.643
795.86	0.648
796.04	0.649
796.21	0.642
796.39	0.640
796.57	0.657
796.75	0.667
796.92	0.669
797.10	0.674
797.28	0.678
797.46	0.679
797.64	0.679
797.81	0.687
797.99	0.693
798.17	0.697
798.35	0.688
798.52	0.693
798.70	0.687
798.88	0.695
799.06	0.693
799.23	0.693
799.41	0.706
799.59	0.699
799.77	0.687
799.94	0.695
800.12	0.707
800.30	0.726
800.48	0.724
800.65	0.727
800.83	0.717
801.01	0.709
801.19	0.707
801.36	0.702
801.54	0.707
801.72	0.716
801.90	0.701
802.07	0.695
802.25	0.679
802.43	0.661
802.60	0.655
802.78	0.663
802.96	0.667
803.14	0.661
803.31	0.659
803.49	0.660
803.67	0.657
803.84	0.659
804.02	0.649
804.20	0.654
804.38	0.660
804.55	0.660
804.73	0.643
804.91	0.643
805.08	0.657
805.26	0.652
805.44	0.717
805.61	0.719
805.79	0.721
805.97	0.721
806.15	0.711
806.32	0.704
806.50	0.710
806.68	0.710
806.85	0.701
807.03	0.692
807.21	0.711
807.38	0.641
807.56	0.631
807.74	0.642
807.91	0.649
808.09	0.651
808.27	0.672
808.44	0.698
808.62	0.711
808.80	0.713
808.97	0.706
809.15	0.701
809.33	0.719
809.50	0.726
809.68	0.709
809.86	0.719
810.03	0.755
810.21	0.732
810.39	0.713
810.56	0.717
810.74	0.745
810.91	0.824
811.09	0.810
811.27	0.831
811.44	0.842
811.62	0.844
811.80	0.821
811.97	0.789
812.15	0.790
812.33	0.786
812.50	0.769
812.68	0.755
812.85	0.695
813.03	0.699
813.21	0.665
813.38	0.658
813.56	0.664
813.74	0.676
813.91	0.682
814.09	0.715
814.26	0.710
814.44	0.712
814.62	0.701
814.79	0.704
814.97	0.709
815.14	0.713
815.32	0.716
815.50	0.733
815.67	0.737
815.85	0.728
816.02	0.712
816.20	0.720
816.38	0.737
816.55	0.744
816.73	0.744
816.90	0.755
817.08	0.790
817.26	0.800
817.43	0.774
817.61	0.798
817.78	0.823
817.96	0.803
818.13	0.793
818.31	0.797
818.49	0.813
818.66	0.802
818.84	0.787
819.01	0.763
819.19	0.770
819.36	0.776
819.54	0.746
819.71	0.793
819.89	0.811
820.07	0.825
820.24	0.814
820.42	0.814
820.59	0.839
820.77	0.867
820.94	0.856
821.12	0.878
821.29	0.893
821.47	0.892
821.64	0.816
821.82	0.830
822.00	0.826
822.17	0.825
822.35	0.818
822.52	0.818
822.70	0.805
822.87	0.815
823.05	0.790
823.22	0.806
823.40	0.840
823.57	0.867
823.75	0.847
823.92	0.874
824.10	0.901
824.27	0.949
824.45	0.938
824.62	1.022
824.80	1.050
824.97	1.069
825.15	1.055
825.32	1.071
825.50	1.071
825.67	1.085
825.85	1.059
826.02	1.079
826.20	1.114
826.37	1.303
826.55	1.180
826.72	1.511
826.90	1.711
827.07	1.934
827.25	1.713
827.42	-0.000
827.60	-0.000
827.77	-0.000
827.95	-0.000
828.12	-0.000
828.30	-0.000
828.47	-0.000
828.65	1.831
828.82	2.196
829.00	-0.000
829.17	-0.000
829.34	-0.000
829.52	-0.000
829.69	-0.000
829.87	-0.000
830.04	-0.000
830.22	-0.000
830.39	-0.000
830.57	-0.000
830.74	-0.000
830.92	-0.000
831.09	-0.000
831.26	-0.000
831.44	-0.000
831.61	-0.000
831.79	-0.000
831.96	-0.000
832.14	-0.000
832.31	-0.000
832.49	-0.000
832.66	-0.000
832.83	-0.000
833.01	-0.000
833.18	-0.000
833.36	-0.000
833.53	-0.000
833.70	-0.000
833.88	-0.000
834.05	-0.000
834.23	-0.000
834.40	-0.000
834.58	-0.000
834.75	-0.000
834.92	-0.000
835.10	-0.000
835.27	-0.000
835.45	-0.000
835.62	-0.000
835.79	-0.000
835.97	-0.000
836.14	-0.000
836.32	-0.000
836.49	-0.000
836.66	-0.000
836.84	-0.000
837.01	-0.000
837.18	-0.000
837.36	-0.000
837.53	-0.000
837.71	-0.000
837.88	-0.000
838.05	-0.000
838.23	-0.000
838.40	-0.000
838.58	-0.000
838.75	-0.000
838.92	-0.000
839.10	-0.000
839.27	-0.000
839.44	-0.000
839.62	-0.000
839.79	-0.000
839.96	-0.000
840.14	-0.000
840.31	-0.000
840.48	-0.000
840.66	-0.000
840.83	-0.000
841.01	-0.000
841.18	-0.000
841.35	-0.000
841.53	-0.000
841.70	-0.000
841.87	-0.000
842.05	-0.000
842.22	-0.000
842.39	-0.000
842.57	-0.000
842.74	-0.000
842.91	-0.000
843.09	-0.000
843.26	-0.000
843.43	-0.000
843.60	-0.000
843.78	-0.000
843.95	-0.000
844.12	-0.000
844.30	-0.000
844.47	-0.000
844.64	-0.000
844.82	-0.000
844.99	-0.000
845.16	-0.000
845.34	-0.000
845.51	-0.000
845.68	-0.000
845.85	-0.000
846.03	-0.000
846.20	-0.000
846.37	-0.000
846.55	-0.000
846.72	-0.000
846.89	-0.000
847.06	-0.000
847.24	-0.000
847.41	-0.000
847.58	-0.000
847.76	-0.000
847.93	-0.000
848.10	-0.000
848.27	-0.000
848.45	-0.000
848.62	-0.000
848.79	-0.000
848.97	-0.000
849.14	-0.000
849.31	-0.000
849.48	-0.000
849.66	-0.000
849.83	-0.000
850.00	-0.000
850.17	-0.000
850.35	-0.000
850.52	-0.000
850.69	-0.000
850.86	-0.000
851.04	-0.000
851.21	-0.000
851.38	-0.000
851.55	-0.000
851.72	-0.000
851.90	-0.000
852.07	-0.000
852.24	-0.000
852.41	-0.000
852.59	-0.000
852.76	-0.000
852.93	-0.000
853.10	-0.000
853.28	-0.000
853.45	-0.000
853.62	-0.000
853.79	-0.000
853.96	-0.000
854.14	-0.000
854.31	-0.000
854.48	-0.000
854.65	-0.000
854.82	-0.000
855.00	-0.000
855.17	-0.000
855.34	-0.000
855.51	-0.000
855.68	-0.000
855.86	-0.000
856.03	-0.000
856.20	-0.000
856.37	-0.000
856.54	-0.000
856.72	-0.000
856.89	-0.000
857.06	-0.000
857.23	-0.000
857.40	-0.000
857.57	-0.000
857.75	-0.000
857.92	-0.000
858.09	-0.000
858.26	-0.000
858.43	-0.000
858.60	-0.000
858.78	-0.000
858.95	-0.000
859.12	-0.000
859.29	-0.000
859.46	-0.000
859.63	-0.000
859.81	-0.000
859.98	-0.000
860.15	-0.000
860.32	-0.000
860.49	-0.000
860.66	-0.000
860.83	-0.000
861.01	-0.000
861.18	-0.000
861.35	-0.000
861.52	-0.000
861.69	-0.000
861.86	-0.000
862.03	-0.000
862.21	-0.000
862.38	-0.000
862.55	-0.000
862.72	-0.000
862.89	-0.000
863.06	-0.000
863.23	-0.000
863.40	-0.000
863.58	-0.000
863.75	-0.000
863.92	-0.000
864.09	-0.000
864.26	-0.000
864.43	-0.000
864.60	-0.000
864.77	-0.000
864.94	-0.000
865.11	-0.000
865.29	-0.000
865.46	-0.000
865.63	-0.000
865.80	-0.000
865.97	-0.000
866.14	-0.000
866.31	-0.000
866.48	-0.000
866.65	-0.000
866.82	-0.000
866.99	-0.000
867.16	-0.000
867.34	-0.000
867.51	-0.000
867.68	-0.000
867.85	-0.000
868.02	-0.000
868.19	-0.000
868.36	-0.000
868.53	-0.000
868.70	-0.000
868.87	-0.000
869.04	-0.000
869.21	-0.000
869.38	-0.000
869.55	-0.000
869.72	-0.000
869.89	-0.000
870.06	-0.000
870.24	-0.000
870.41	-0.000
870.58	-0.000
870.75	-0.000
870.92	-0.000
871.09	-0.000
871.26	-0.000
871.43	-0.000
871.60	-0.000
871.77	-0.000
871.94	-0.000
872.11	-0.000
872.28	-0.000
872.45	-0.000
872.62	-0.000
872.79	-0.000
872.96	-0.000
873.13	-0.000
873.30	-0.000
873.47	-0.000
873.64	-0.000
873.81	-0.000
873.98	-0.000
874.15	-0.000
874.32	-0.000
874.49	-0.000
874.66	-0.000
874.83	-0.000
875.00	-0.000
875.17	-0.000
875.34	-0.000
875.51	-0.000
875.68	-0.000
875.85	-0.000
876.02	-0.000
876.19	-0.000
876.36	-0.000
876.53	-0.000
876.70	-0.000
876.87	-0.000
877.04	-0.000
877.21	-0.000
877.38	-0.000
877.55	-0.000
877.72	-0.000
877.89	-0.000
878.06	-0.000
878.23	-0.000
878.39	-0.000
878.56	-0.000
878.73	-0.000
878.90	-0.000
879.07	-0.000
879.24	-0.000
879.41	-0.000
879.58	-0.000
879.75	-0.000
879.92	-0.000
880.09	-0.000
880.26	-0.000
880.43	-0.000
880.60	-0.000
880.77	-0.000
880.94	-0.000
881.11	-0.000
881.27	-0.000
881.44	-0.000
881.61	-0.000
881.78	-0.000
881.95	-0.000
882.12	-0.000
882.29	-0.000
882.46	-0.000
882.63	-0.000
882.80	-0.000
882.97	-0.000
883.14	-0.000
883.30	-0.000
883.47	-0.000
883.64	-0.000
883.81	-0.000
883.98	-0.000
884.15	-0.000
884.32	-0.000
884.49	-0.000
884.66	-0.000
884.82	-0.000
884.99	-0.000
885.16	-0.000
885.33	-0.000
885.50	-0.000
885.67	-0.000
885.84	-0.000
886.01	-0.000
886.17	-0.000
886.34	-0.000
886.51	-0.000
886.68	-0.000
886.85	-0.000
887.02	-0.000
887.19	-0.000
887.36	-0.000
887.52	-0.000
887.69	-0.000
887.86	-0.000
888.03	-0.000
888.20	-0.000
888.37	-0.000
888.54	-0.000
888.70	-0.000
888.87	-0.000
889.04	-0.000
889.21	-0.000
889.38	-0.000
889.55	-0.000
889.71	-0.000
889.88	-0.000
890.05	-0.000
890.22	-0.000
890.39	-0.000
>>>>>End Processed Spectral Data<<<<<
