SpectraSuite Data File
++++++++++++++++++++++++++++++++++++
Date: Fri Jun 19 15:04:52 CEST 2015
User: introlabs
Dark Spectrum Present: Yes
Reference Spectrum Present: Yes
Number of Sampled Component Spectra: 1
Spectrometers: USB4H08886
Integration Time (usec): 745692 (USB4H08886)
Spectra Averaged: 5 (USB4H08886)
Boxcar Smoothing: 5 (USB4H08886)
Correct for Electrical Dark: Yes (USB4H08886)
Strobe/Lamp Enabled: No (USB4H08886)
Correct for Detector Non-linearity: Yes (USB4H08886)
Correct for Stray Light: Yes (USB4H08886)
Number of Pixels in Processed Spectrum: 3648
>>>>>Begin Processed Spectral Data<<<<<
178.14	-0.000
178.36	-0.000
178.57	-0.000
178.79	-0.000
179.01	-0.000
179.22	-0.000
179.44	-0.000
179.65	-0.000
179.87	-0.000
180.08	-0.000
180.30	-0.000
180.52	-0.000
180.73	-0.000
180.95	-0.000
181.16	-0.000
181.38	-0.000
181.59	-0.000
181.81	-0.000
182.03	-0.000
182.24	-0.000
182.46	-0.000
182.67	-0.000
182.89	-0.000
183.10	-0.000
183.32	-0.000
183.54	-0.000
183.75	-0.000
183.97	-0.000
184.18	-0.000
184.40	-0.000
184.61	-0.000
184.83	-0.000
185.04	-0.000
185.26	-0.000
185.48	-0.000
185.69	-0.000
185.91	-0.000
186.12	-0.000
186.34	-0.000
186.55	-0.000
186.77	-0.000
186.98	-0.000
187.20	-0.000
187.42	-0.000
187.63	-0.000
187.85	-0.000
188.06	-0.000
188.28	-0.000
188.49	-0.000
188.71	-0.000
188.92	-0.000
189.14	-0.000
189.36	-0.000
189.57	-0.000
189.79	-0.000
190.00	-0.000
190.22	-0.000
190.43	-0.000
190.65	-0.000
190.86	-0.000
191.08	-0.000
191.29	-0.000
191.51	-0.000
191.72	-0.000
191.94	-0.000
192.16	-0.000
192.37	-0.000
192.59	-0.000
192.80	-0.000
193.02	-0.000
193.23	-0.000
193.45	-0.000
193.66	-0.000
193.88	-0.000
194.09	-0.000
194.31	-0.000
194.52	-0.000
194.74	-0.000
194.95	-0.000
195.17	-0.000
195.38	-0.000
195.60	-0.000
195.81	-0.000
196.03	-0.000
196.25	-0.000
196.46	-0.000
196.68	-0.000
196.89	-0.000
197.11	-0.000
197.32	-0.000
197.54	-0.000
197.75	-0.000
197.97	-0.000
198.18	-0.000
198.40	-0.000
198.61	-0.000
198.83	-0.000
199.04	-0.000
199.26	-0.000
199.47	-0.000
199.69	-0.000
199.90	-0.000
200.12	-0.000
200.33	-0.000
200.55	-0.000
200.76	-0.000
200.98	-0.000
201.19	-0.000
201.41	-0.000
201.62	-0.000
201.84	-0.000
202.05	-0.000
202.27	-0.000
202.48	-0.000
202.70	-0.000
202.91	-0.000
203.13	-0.000
203.34	-0.000
203.56	-0.000
203.77	-0.000
203.99	-0.000
204.20	-0.000
204.42	-0.000
204.63	-0.000
204.85	-0.000
205.06	-0.000
205.28	-0.000
205.49	-0.000
205.71	-0.000
205.92	-0.000
206.14	-0.000
206.35	-0.000
206.56	-0.000
206.78	-0.000
206.99	-0.000
207.21	-0.000
207.42	-0.000
207.64	-0.000
207.85	-0.000
208.07	-0.000
208.28	-0.000
208.50	-0.000
208.71	-0.000
208.93	-0.000
209.14	-0.000
209.36	-0.000
209.57	-0.000
209.79	-0.000
210.00	-0.000
210.22	-0.000
210.43	-0.000
210.64	-0.000
210.86	-0.000
211.07	-0.000
211.29	-0.000
211.50	-0.000
211.72	-0.000
211.93	-0.000
212.15	-0.000
212.36	-0.000
212.58	-0.000
212.79	-0.000
213.01	-0.000
213.22	-0.000
213.43	-0.000
213.65	-0.000
213.86	-0.000
214.08	-0.000
214.29	-0.000
214.51	-0.000
214.72	-0.000
214.94	-0.000
215.15	-0.000
215.36	-0.000
215.58	-0.000
215.79	-0.000
216.01	-0.000
216.22	-0.000
216.44	-0.000
216.65	-0.000
216.87	-0.000
217.08	-0.000
217.29	-0.000
217.51	-0.000
217.72	-0.000
217.94	-0.000
218.15	-0.000
218.37	-0.000
218.58	-0.000
218.80	-0.000
219.01	-0.000
219.22	-0.000
219.44	-0.000
219.65	-0.000
219.87	-0.000
220.08	-0.000
220.30	-0.000
220.51	-0.000
220.72	-0.000
220.94	-0.000
221.15	-0.000
221.37	-0.000
221.58	-0.000
221.79	-0.000
222.01	-0.000
222.22	-0.000
222.44	-0.000
222.65	-0.000
222.87	-0.000
223.08	-0.000
223.29	-0.000
223.51	-0.000
223.72	-0.000
223.94	-0.000
224.15	-0.000
224.36	-0.000
224.58	-0.000
224.79	-0.000
225.01	-0.000
225.22	-0.000
225.44	-0.000
225.65	-0.000
225.86	-0.000
226.08	-0.000
226.29	-0.000
226.51	-0.000
226.72	-0.000
226.93	-0.000
227.15	-0.000
227.36	-0.000
227.58	-0.000
227.79	-0.000
228.00	-0.000
228.22	-0.000
228.43	-0.000
228.65	-0.000
228.86	-0.000
229.07	-0.000
229.29	-0.000
229.50	-0.000
229.72	-0.000
229.93	-0.000
230.14	-0.000
230.36	-0.000
230.57	-0.000
230.78	-0.000
231.00	-0.000
231.21	-0.000
231.43	-0.000
231.64	-0.000
231.85	-0.000
232.07	-0.000
232.28	-0.000
232.50	-0.000
232.71	-0.000
232.92	-0.000
233.14	-0.000
233.35	-0.000
233.56	-0.000
233.78	-0.000
233.99	-0.000
234.21	-0.000
234.42	-0.000
234.63	-0.000
234.85	-0.000
235.06	-0.000
235.27	-0.000
235.49	-0.000
235.70	-0.000
235.91	-0.000
236.13	-0.000
236.34	-0.000
236.56	-0.000
236.77	-0.000
236.98	-0.000
237.20	-0.000
237.41	-0.000
237.62	-0.000
237.84	-0.000
238.05	-0.000
238.26	-0.000
238.48	-0.000
238.69	-0.000
238.91	-0.000
239.12	-0.000
239.33	-0.000
239.55	-0.000
239.76	-0.000
239.97	-0.000
240.19	-0.000
240.40	-0.000
240.61	-0.000
240.83	-0.000
241.04	-0.000
241.25	-0.000
241.47	-0.000
241.68	-0.000
241.89	-0.000
242.11	-0.000
242.32	-0.000
242.53	-0.000
242.75	-0.000
242.96	-0.000
243.17	-0.000
243.39	-0.000
243.60	-0.000
243.81	-0.000
244.03	-0.000
244.24	-0.000
244.45	-0.000
244.67	-0.000
244.88	-0.000
245.09	-0.000
245.31	-0.000
245.52	-0.000
245.73	-0.000
245.95	-0.000
246.16	-0.000
246.37	-0.000
246.59	-0.000
246.80	-0.000
247.01	-0.000
247.23	-0.000
247.44	-0.000
247.65	-0.000
247.87	-0.000
248.08	-0.000
248.29	-0.000
248.51	-0.000
248.72	-0.000
248.93	-0.000
249.15	-0.000
249.36	-0.000
249.57	-0.000
249.78	-0.000
250.00	-0.000
250.21	-0.000
250.42	-0.000
250.64	-0.000
250.85	-0.000
251.06	-0.000
251.28	-0.000
251.49	-0.000
251.70	-0.000
251.92	-0.000
252.13	-0.000
252.34	-0.000
252.55	-0.000
252.77	-0.000
252.98	-0.000
253.19	-0.000
253.41	-0.000
253.62	-0.000
253.83	-0.000
254.05	-0.000
254.26	-0.000
254.47	-0.000
254.68	-0.000
254.90	-0.000
255.11	-0.000
255.32	-0.000
255.54	-0.000
255.75	-0.000
255.96	-0.000
256.17	-0.000
256.39	-0.000
256.60	-0.000
256.81	-0.000
257.03	-0.000
257.24	-0.000
257.45	-0.000
257.66	-0.000
257.88	-0.000
258.09	-0.000
258.30	-0.000
258.51	-0.000
258.73	-0.000
258.94	-0.000
259.15	-0.000
259.37	-0.000
259.58	-0.000
259.79	-0.000
260.00	-0.000
260.22	-0.000
260.43	-0.000
260.64	-0.000
260.85	-0.000
261.07	-0.000
261.28	-0.000
261.49	-0.000
261.71	-0.000
261.92	-0.000
262.13	-0.000
262.34	-0.000
262.56	-0.000
262.77	-0.000
262.98	-0.000
263.19	-0.000
263.41	-0.000
263.62	-0.000
263.83	-0.000
264.04	-0.000
264.26	-0.000
264.47	-0.000
264.68	-0.000
264.89	-0.000
265.11	-0.000
265.32	-0.000
265.53	-0.000
265.74	-0.000
265.96	-0.000
266.17	-0.000
266.38	-0.000
266.59	-0.000
266.81	-0.000
267.02	-0.000
267.23	-0.000
267.44	-0.000
267.65	-0.000
267.87	-0.000
268.08	-0.000
268.29	-0.000
268.50	-0.000
268.72	-0.000
268.93	-0.000
269.14	-0.000
269.35	-0.000
269.57	-0.000
269.78	-0.000
269.99	-0.000
270.20	-0.000
270.41	-0.000
270.63	-0.000
270.84	-0.000
271.05	-0.000
271.26	-0.000
271.48	-0.000
271.69	-0.000
271.90	-0.000
272.11	-0.000
272.32	-0.000
272.54	-0.000
272.75	-0.000
272.96	-0.000
273.17	-0.000
273.39	-0.000
273.60	-0.000
273.81	-0.000
274.02	-0.000
274.23	-0.000
274.45	-0.000
274.66	-0.000
274.87	-0.000
275.08	-0.000
275.29	-0.000
275.51	-0.000
275.72	-0.000
275.93	-0.000
276.14	-0.000
276.35	-0.000
276.57	-0.000
276.78	-0.000
276.99	-0.000
277.20	-0.000
277.41	-0.000
277.63	-0.000
277.84	-0.000
278.05	-0.000
278.26	-0.000
278.47	-0.000
278.69	-0.000
278.90	-0.000
279.11	-0.000
279.32	-0.000
279.53	-0.000
279.74	-0.000
279.96	-0.000
280.17	-0.000
280.38	-0.000
280.59	-0.000
280.80	-0.000
281.02	-0.000
281.23	-0.000
281.44	-0.000
281.65	-0.000
281.86	-0.000
282.07	-0.000
282.29	-0.000
282.50	-0.000
282.71	-0.000
282.92	-0.000
283.13	-0.000
283.35	-0.000
283.56	-0.000
283.77	-0.000
283.98	-0.000
284.19	-0.000
284.40	-0.000
284.62	-0.000
284.83	-0.000
285.04	-0.000
285.25	-0.000
285.46	-0.000
285.67	-0.000
285.88	-0.000
286.10	-0.000
286.31	-0.000
286.52	-0.000
286.73	-0.000
286.94	-0.000
287.15	-0.000
287.37	-0.000
287.58	-0.000
287.79	-0.000
288.00	-0.000
288.21	-0.000
288.42	-0.000
288.63	-0.000
288.85	-0.000
289.06	-0.000
289.27	-0.000
289.48	-0.000
289.69	-0.000
289.90	-0.000
290.11	-0.000
290.33	-0.000
290.54	-0.000
290.75	-0.000
290.96	-0.000
291.17	-0.000
291.38	-0.000
291.59	-0.000
291.81	-0.000
292.02	-0.000
292.23	-0.000
292.44	-0.000
292.65	-0.000
292.86	-0.000
293.07	-0.000
293.28	-0.000
293.50	-0.000
293.71	-0.000
293.92	-0.000
294.13	-0.000
294.34	-0.000
294.55	-0.000
294.76	-0.000
294.97	-0.000
295.19	-0.000
295.40	-0.000
295.61	-0.000
295.82	-0.000
296.03	-0.000
296.24	-0.000
296.45	2.193
296.66	1.802
296.87	1.791
297.09	1.844
297.30	2.026
297.51	1.683
297.72	1.653
297.93	1.722
298.14	1.690
298.35	1.652
298.56	1.623
298.77	1.730
298.99	1.706
299.20	1.704
299.41	1.688
299.62	1.645
299.83	1.641
300.04	1.587
300.25	1.575
300.46	1.613
300.67	1.594
300.88	1.547
301.10	1.553
301.31	1.625
301.52	1.563
301.73	1.512
301.94	1.521
302.15	1.535
302.36	1.490
302.57	1.436
302.78	1.446
302.99	1.487
303.20	1.503
303.41	1.407
303.63	1.389
303.84	1.392
304.05	1.388
304.26	1.325
304.47	1.327
304.68	1.322
304.89	1.310
305.10	1.274
305.31	1.260
305.52	1.304
305.73	1.303
305.94	1.267
306.15	1.262
306.37	1.286
306.58	1.296
306.79	1.268
307.00	1.295
307.21	1.340
307.42	1.331
307.63	1.296
307.84	1.260
308.05	1.294
308.26	1.294
308.47	1.268
308.68	1.266
308.89	1.261
309.10	1.259
309.31	1.219
309.52	1.208
309.73	1.223
309.95	1.218
310.16	1.191
310.37	1.180
310.58	1.196
310.79	1.195
311.00	1.191
311.21	1.194
311.42	1.194
311.63	1.189
311.84	1.171
312.05	1.168
312.26	1.187
312.47	1.199
312.68	1.175
312.89	1.158
313.10	1.165
313.31	1.137
313.52	1.141
313.73	1.142
313.94	1.145
314.15	1.127
314.36	1.107
314.57	1.100
314.78	1.087
314.99	1.082
315.21	1.073
315.42	1.077
315.63	1.088
315.84	1.065
316.05	1.052
316.26	1.059
316.47	1.076
316.68	1.074
316.89	1.058
317.10	1.078
317.31	1.084
317.52	1.084
317.73	1.063
317.94	1.063
318.15	1.106
318.36	1.107
318.57	1.090
318.78	1.078
318.99	1.113
319.20	1.108
319.41	1.075
319.62	1.077
319.83	1.092
320.04	1.087
320.25	1.075
320.46	1.040
320.67	1.043
320.88	1.037
321.09	1.025
321.30	1.008
321.51	1.023
321.72	1.021
321.93	1.004
322.14	0.993
322.35	1.020
322.56	1.019
322.77	1.009
322.98	1.019
323.19	1.029
323.40	1.037
323.61	1.018
323.82	1.013
324.03	1.018
324.24	1.016
324.45	1.004
324.66	0.985
324.87	0.982
325.08	0.981
325.29	0.963
325.50	0.958
325.71	0.962
325.92	0.969
326.13	0.955
326.34	0.956
326.55	0.963
326.76	0.963
326.97	0.954
327.18	0.947
327.39	0.971
327.60	0.971
327.80	0.969
328.01	0.967
328.22	0.966
328.43	0.969
328.64	0.958
328.85	0.962
329.06	0.965
329.27	0.963
329.48	0.961
329.69	0.942
329.90	0.953
330.11	0.946
330.32	0.939
330.53	0.933
330.74	0.933
330.95	0.932
331.16	0.918
331.37	0.926
331.58	0.926
331.79	0.925
332.00	0.916
332.21	0.910
332.42	0.913
332.63	0.905
332.83	0.902
333.04	0.905
333.25	0.917
333.46	0.915
333.67	0.901
333.88	0.904
334.09	0.915
334.30	0.911
334.51	0.902
334.72	0.897
334.93	0.899
335.14	0.898
335.35	0.890
335.56	0.883
335.77	0.892
335.98	0.891
336.18	0.884
336.39	0.876
336.60	0.881
336.81	0.880
337.02	0.879
337.23	0.884
337.44	0.885
337.65	0.887
337.86	0.879
338.07	0.875
338.28	0.879
338.49	0.877
338.70	0.871
338.91	0.877
339.11	0.884
339.32	0.880
339.53	0.870
339.74	0.868
339.95	0.864
340.16	0.863
340.37	0.855
340.58	0.852
340.79	0.856
341.00	0.856
341.21	0.847
341.41	0.847
341.62	0.848
341.83	0.849
342.04	0.844
342.25	0.855
342.46	0.858
342.67	0.856
342.88	0.850
343.09	0.849
343.30	0.855
343.50	0.858
343.71	0.849
343.92	0.846
344.13	0.852
344.34	0.851
344.55	0.835
344.76	0.834
344.97	0.838
345.18	0.836
345.38	0.834
345.59	0.828
345.80	0.827
346.01	0.825
346.22	0.822
346.43	0.815
346.64	0.823
346.85	0.824
347.06	0.817
347.26	0.816
347.47	0.821
347.68	0.816
347.89	0.813
348.10	0.808
348.31	0.814
348.52	0.813
348.73	0.811
348.93	0.808
349.14	0.810
349.35	0.810
349.56	0.806
349.77	0.801
349.98	0.806
350.19	0.803
350.39	0.798
350.60	0.793
350.81	0.808
351.02	0.806
351.23	0.802
351.44	0.805
351.65	0.807
351.86	0.804
352.06	0.803
352.27	0.804
352.48	0.804
352.69	0.804
352.90	0.800
353.11	0.786
353.31	0.793
353.52	0.789
353.73	0.780
353.94	0.782
354.15	0.788
354.36	0.788
354.57	0.780
354.77	0.783
354.98	0.781
355.19	0.781
355.40	0.781
355.61	0.787
355.82	0.791
356.02	0.790
356.23	0.783
356.44	0.784
356.65	0.787
356.86	0.786
357.07	0.780
357.27	0.784
357.48	0.787
357.69	0.783
357.90	0.766
358.11	0.763
358.32	0.766
358.52	0.770
358.73	0.760
358.94	0.762
359.15	0.767
359.36	0.768
359.56	0.762
359.77	0.759
359.98	0.766
360.19	0.766
360.40	0.763
360.61	0.764
360.81	0.763
361.02	0.764
361.23	0.756
361.44	0.754
361.65	0.755
361.85	0.756
362.06	0.754
362.27	0.756
362.48	0.755
362.69	0.757
362.89	0.751
363.10	0.752
363.31	0.756
363.52	0.759
363.73	0.755
363.93	0.754
364.14	0.755
364.35	0.757
364.56	0.747
364.77	0.749
364.97	0.752
365.18	0.752
365.39	0.747
365.60	0.744
365.81	0.746
366.01	0.745
366.22	0.742
366.43	0.741
366.64	0.742
366.84	0.747
367.05	0.744
367.26	0.742
367.47	0.744
367.68	0.744
367.88	0.742
368.09	0.739
368.30	0.741
368.51	0.741
368.71	0.741
368.92	0.745
369.13	0.743
369.34	0.744
369.55	0.742
369.75	0.742
369.96	0.748
370.17	0.747
370.38	0.744
370.58	0.744
370.79	0.749
371.00	0.748
371.21	0.740
371.41	0.746
371.62	0.749
371.83	0.746
372.04	0.744
372.24	0.737
372.45	0.738
372.66	0.738
372.87	0.736
373.07	0.732
373.28	0.733
373.49	0.737
373.70	0.728
373.90	0.726
374.11	0.735
374.32	0.734
374.53	0.734
374.73	0.734
374.94	0.736
375.15	0.737
375.36	0.735
375.56	0.743
375.77	0.743
375.98	0.743
376.19	0.740
376.39	0.734
376.60	0.738
376.81	0.738
377.02	0.736
377.22	0.734
377.43	0.734
377.64	0.733
377.84	0.725
378.05	0.729
378.26	0.736
378.47	0.735
378.67	0.733
378.88	0.730
379.09	0.731
379.30	0.731
379.50	0.729
379.71	0.732
379.92	0.734
380.12	0.733
380.33	0.725
380.54	0.722
380.75	0.728
380.95	0.728
381.16	0.727
381.37	0.727
381.57	0.728
381.78	0.729
381.99	0.729
382.20	0.728
382.40	0.731
382.61	0.731
382.82	0.728
383.02	0.722
383.23	0.725
383.44	0.726
383.64	0.724
383.85	0.727
384.06	0.730
384.27	0.727
384.47	0.726
384.68	0.726
384.89	0.731
385.09	0.730
385.30	0.730
385.51	0.729
385.71	0.732
385.92	0.732
386.13	0.731
386.33	0.733
386.54	0.733
386.75	0.733
386.95	0.729
387.16	0.725
387.37	0.728
387.58	0.728
387.78	0.725
387.99	0.723
388.20	0.724
388.40	0.721
388.61	0.717
388.82	0.720
389.02	0.723
389.23	0.723
389.44	0.722
389.64	0.722
389.85	0.734
390.06	0.734
390.26	0.734
390.47	0.734
390.68	0.736
390.88	0.735
391.09	0.730
391.30	0.729
391.50	0.729
391.71	0.728
391.92	0.725
392.12	0.717
392.33	0.718
392.53	0.718
392.74	0.718
392.95	0.718
393.15	0.720
393.36	0.723
393.57	0.721
393.77	0.724
393.98	0.727
394.19	0.726
394.39	0.726
394.60	0.727
394.81	0.728
395.01	0.726
395.22	0.724
395.43	0.725
395.63	0.729
395.84	0.730
396.04	0.726
396.25	0.728
396.46	0.730
396.66	0.728
396.87	0.726
397.08	0.724
397.28	0.726
397.49	0.727
397.69	0.724
397.90	0.719
398.11	0.720
398.31	0.722
398.52	0.718
398.73	0.720
398.93	0.719
399.14	0.718
399.34	0.717
399.55	0.719
399.76	0.720
399.96	0.720
400.17	0.719
400.37	0.718
400.58	0.724
400.79	0.726
400.99	0.724
401.20	0.730
401.41	0.732
401.61	0.733
401.82	0.738
402.02	0.738
402.23	0.739
402.44	0.738
402.64	0.738
402.85	0.732
403.05	0.730
403.26	0.729
403.47	0.723
403.67	0.722
403.88	0.722
404.08	0.716
404.29	0.714
404.50	0.715
404.70	0.715
404.91	0.714
405.11	0.712
405.32	0.712
405.52	0.713
405.73	0.712
405.94	0.710
406.14	0.714
406.35	0.716
406.55	0.716
406.76	0.713
406.97	0.714
407.17	0.716
407.38	0.715
407.58	0.714
407.79	0.717
407.99	0.719
408.20	0.719
408.41	0.715
408.61	0.712
408.82	0.713
409.02	0.713
409.23	0.712
409.43	0.711
409.64	0.712
409.84	0.712
410.05	0.709
410.26	0.708
410.46	0.708
410.67	0.707
410.87	0.709
411.08	0.711
411.28	0.712
411.49	0.713
411.69	0.711
411.90	0.712
412.11	0.714
412.31	0.715
412.52	0.713
412.72	0.714
412.93	0.715
413.13	0.713
413.34	0.710
413.54	0.711
413.75	0.713
413.95	0.712
414.16	0.709
414.37	0.711
414.57	0.711
414.78	0.714
414.98	0.712
415.19	0.714
415.39	0.710
415.60	0.712
415.80	0.712
416.01	0.710
416.21	0.711
416.42	0.712
416.62	0.707
416.83	0.707
417.03	0.706
417.24	0.706
417.44	0.704
417.65	0.704
417.86	0.705
418.06	0.703
418.27	0.702
418.47	0.703
418.68	0.704
418.88	0.704
419.09	0.703
419.29	0.704
419.50	0.705
419.70	0.704
419.91	0.703
420.11	0.701
420.32	0.704
420.52	0.703
420.73	0.702
420.93	0.702
421.14	0.703
421.34	0.702
421.55	0.699
421.75	0.699
421.96	0.699
422.16	0.699
422.37	0.697
422.57	0.694
422.78	0.696
422.98	0.693
423.19	0.691
423.39	0.689
423.60	0.693
423.80	0.694
424.01	0.692
424.21	0.695
424.42	0.696
424.62	0.696
424.83	0.696
425.03	0.696
425.23	0.698
425.44	0.698
425.64	0.698
425.85	0.697
426.05	0.697
426.26	0.698
426.46	0.694
426.67	0.694
426.87	0.698
427.08	0.698
427.28	0.696
427.49	0.696
427.69	0.698
427.90	0.696
428.10	0.694
428.31	0.694
428.51	0.695
428.71	0.695
428.92	0.696
429.12	0.694
429.33	0.695
429.53	0.699
429.74	0.703
429.94	0.704
430.15	0.703
430.35	0.702
430.56	0.699
430.76	0.698
430.96	0.699
431.17	0.696
431.37	0.693
431.58	0.691
431.78	0.688
431.99	0.680
432.19	0.682
432.40	0.684
432.60	0.685
432.80	0.687
433.01	0.685
433.21	0.686
433.42	0.687
433.62	0.687
433.83	0.687
434.03	0.689
434.23	0.692
434.44	0.691
434.64	0.688
434.85	0.693
435.05	0.695
435.26	0.695
435.46	0.693
435.66	0.693
435.87	0.694
436.07	0.694
436.28	0.690
436.48	0.687
436.69	0.686
436.89	0.686
437.09	0.680
437.30	0.678
437.50	0.679
437.71	0.690
437.91	0.689
438.11	0.690
438.32	0.694
438.52	0.694
438.73	0.694
438.93	0.692
439.13	0.692
439.34	0.696
439.54	0.694
439.75	0.693
439.95	0.684
440.15	0.688
440.36	0.686
440.56	0.683
440.77	0.684
440.97	0.684
441.17	0.683
441.38	0.684
441.58	0.681
441.79	0.681
441.99	0.679
442.19	0.677
442.40	0.675
442.60	0.675
442.81	0.673
443.01	0.673
443.21	0.674
443.42	0.674
443.62	0.673
443.82	0.672
444.03	0.674
444.23	0.674
444.44	0.674
444.64	0.673
444.84	0.674
445.05	0.674
445.25	0.672
445.45	0.672
445.66	0.674
445.86	0.673
446.06	0.675
446.27	0.674
446.47	0.677
446.68	0.674
446.88	0.673
447.08	0.672
447.29	0.674
447.49	0.674
447.69	0.674
447.90	0.672
448.10	0.676
448.30	0.672
448.51	0.673
448.71	0.670
448.91	0.673
449.12	0.672
449.32	0.674
449.52	0.673
449.73	0.676
449.93	0.675
450.14	0.675
450.34	0.675
450.54	0.677
450.75	0.675
450.95	0.674
451.15	0.674
451.36	0.676
451.56	0.673
451.76	0.673
451.97	0.669
452.17	0.670
452.37	0.668
452.58	0.664
452.78	0.664
452.98	0.667
453.19	0.666
453.39	0.667
453.59	0.665
453.79	0.666
454.00	0.666
454.20	0.665
454.40	0.666
454.61	0.668
454.81	0.669
455.01	0.667
455.22	0.668
455.42	0.669
455.62	0.667
455.83	0.667
456.03	0.670
456.23	0.671
456.44	0.672
456.64	0.671
456.84	0.670
457.04	0.671
457.25	0.670
457.45	0.667
457.65	0.666
457.86	0.666
458.06	0.665
458.26	0.661
458.47	0.660
458.67	0.661
458.87	0.661
459.07	0.659
459.28	0.661
459.48	0.663
459.68	0.662
459.89	0.662
460.09	0.660
460.29	0.661
460.49	0.663
460.70	0.662
460.90	0.662
461.10	0.663
461.31	0.662
461.51	0.660
461.71	0.662
461.91	0.663
462.12	0.663
462.32	0.661
462.52	0.662
462.72	0.664
462.93	0.665
463.13	0.663
463.33	0.664
463.53	0.665
463.74	0.664
463.94	0.659
464.14	0.660
464.35	0.661
464.55	0.662
464.75	0.660
464.95	0.658
465.16	0.659
465.36	0.658
465.56	0.657
465.76	0.656
465.97	0.657
466.17	0.658
466.37	0.657
466.57	0.658
466.78	0.658
466.98	0.658
467.18	0.656
467.38	0.655
467.59	0.656
467.79	0.658
467.99	0.657
468.19	0.658
468.39	0.660
468.60	0.660
468.80	0.658
469.00	0.659
469.20	0.660
469.41	0.661
469.61	0.661
469.81	0.661
470.01	0.661
470.22	0.661
470.42	0.660
470.62	0.657
470.82	0.659
471.02	0.658
471.23	0.656
471.43	0.657
471.63	0.659
471.83	0.658
472.04	0.657
472.24	0.655
472.44	0.661
472.64	0.662
472.84	0.660
473.05	0.660
473.25	0.663
473.45	0.662
473.65	0.660
473.85	0.661
474.06	0.662
474.26	0.662
474.46	0.663
474.66	0.659
474.86	0.659
475.07	0.659
475.27	0.657
475.47	0.655
475.67	0.655
475.87	0.657
476.08	0.654
476.28	0.655
476.48	0.656
476.68	0.654
476.88	0.652
477.09	0.652
477.29	0.654
477.49	0.655
477.69	0.654
477.89	0.654
478.09	0.653
478.30	0.655
478.50	0.652
478.70	0.652
478.90	0.653
479.10	0.655
479.31	0.656
479.51	0.654
479.71	0.655
479.91	0.654
480.11	0.653
480.31	0.654
480.52	0.652
480.72	0.652
480.92	0.652
481.12	0.650
481.32	0.648
481.52	0.646
481.72	0.647
481.93	0.651
482.13	0.652
482.33	0.651
482.53	0.650
482.73	0.650
482.93	0.651
483.14	0.650
483.34	0.649
483.54	0.651
483.74	0.650
483.94	0.649
484.14	0.644
484.34	0.645
484.55	0.645
484.75	0.645
484.95	0.643
485.15	0.642
485.35	0.643
485.55	0.643
485.75	0.641
485.96	0.641
486.16	0.642
486.36	0.641
486.56	0.639
486.76	0.639
486.96	0.640
487.16	0.639
487.36	0.637
487.57	0.637
487.77	0.637
487.97	0.637
488.17	0.636
488.37	0.635
488.57	0.635
488.77	0.636
488.97	0.635
489.18	0.634
489.38	0.637
489.58	0.638
489.78	0.637
489.98	0.637
490.18	0.637
490.38	0.637
490.58	0.636
490.78	0.637
490.98	0.639
491.19	0.639
491.39	0.638
491.59	0.636
491.79	0.639
491.99	0.640
492.19	0.639
492.39	0.643
492.59	0.642
492.79	0.644
492.99	0.645
493.20	0.645
493.40	0.645
493.60	0.646
493.80	0.644
494.00	0.642
494.20	0.642
494.40	0.642
494.60	0.640
494.80	0.644
495.00	0.643
495.20	0.642
495.40	0.640
495.61	0.642
495.81	0.642
496.01	0.645
496.21	0.646
496.41	0.646
496.61	0.647
496.81	0.646
497.01	0.641
497.21	0.640
497.41	0.640
497.61	0.640
497.81	0.638
498.01	0.638
498.21	0.636
498.41	0.634
498.61	0.634
498.82	0.635
499.02	0.637
499.22	0.638
499.42	0.637
499.62	0.639
499.82	0.640
500.02	0.640
500.22	0.639
500.42	0.641
500.62	0.641
500.82	0.641
501.02	0.639
501.22	0.639
501.42	0.639
501.62	0.641
501.82	0.640
502.02	0.640
502.22	0.640
502.42	0.642
502.62	0.639
502.82	0.640
503.02	0.640
503.22	0.640
503.42	0.638
503.63	0.637
503.83	0.635
504.03	0.634
504.23	0.633
504.43	0.634
504.63	0.634
504.83	0.634
505.03	0.633
505.23	0.635
505.43	0.636
505.63	0.637
505.83	0.637
506.03	0.638
506.23	0.641
506.43	0.640
506.63	0.639
506.83	0.638
507.03	0.640
507.23	0.641
507.43	0.638
507.63	0.639
507.83	0.639
508.03	0.639
508.23	0.639
508.43	0.638
508.63	0.640
508.83	0.640
509.03	0.641
509.23	0.641
509.43	0.642
509.63	0.642
509.83	0.641
510.03	0.643
510.23	0.644
510.43	0.645
510.63	0.645
510.83	0.645
511.03	0.646
511.23	0.644
511.43	0.643
511.63	0.645
511.83	0.648
512.03	0.648
512.22	0.644
512.42	0.644
512.62	0.645
512.82	0.644
513.02	0.644
513.22	0.643
513.42	0.644
513.62	0.647
513.82	0.645
514.02	0.644
514.22	0.645
514.42	0.645
514.62	0.645
514.82	0.646
515.02	0.649
515.22	0.652
515.42	0.651
515.62	0.654
515.82	0.652
516.02	0.653
516.22	0.653
516.42	0.654
516.62	0.656
516.82	0.657
517.01	0.655
517.21	0.654
517.41	0.658
517.61	0.658
517.81	0.655
518.01	0.654
518.21	0.653
518.41	0.653
518.61	0.652
518.81	0.652
519.01	0.652
519.21	0.652
519.41	0.651
519.61	0.645
519.81	0.648
520.00	0.648
520.20	0.649
520.40	0.653
520.60	0.654
520.80	0.652
521.00	0.653
521.20	0.654
521.40	0.659
521.60	0.660
521.80	0.659
522.00	0.658
522.20	0.661
522.39	0.660
522.59	0.657
522.79	0.658
522.99	0.661
523.19	0.659
523.39	0.657
523.59	0.655
523.79	0.657
523.99	0.660
524.19	0.658
524.38	0.657
524.58	0.658
524.78	0.659
524.98	0.657
525.18	0.659
525.38	0.660
525.58	0.661
525.78	0.658
525.98	0.657
526.18	0.657
526.37	0.657
526.57	0.659
526.77	0.658
526.97	0.659
527.17	0.659
527.37	0.655
527.57	0.658
527.77	0.660
527.96	0.660
528.16	0.658
528.36	0.660
528.56	0.662
528.76	0.660
528.96	0.659
529.16	0.660
529.36	0.662
529.55	0.662
529.75	0.659
529.95	0.659
530.15	0.661
530.35	0.663
530.55	0.660
530.75	0.661
530.94	0.663
531.14	0.663
531.34	0.662
531.54	0.660
531.74	0.663
531.94	0.666
532.13	0.664
532.33	0.666
532.53	0.665
532.73	0.665
532.93	0.663
533.13	0.664
533.33	0.665
533.52	0.666
533.72	0.669
533.92	0.666
534.12	0.664
534.32	0.664
534.52	0.662
534.71	0.663
534.91	0.666
535.11	0.668
535.31	0.665
535.51	0.666
535.71	0.667
535.90	0.664
536.10	0.666
536.30	0.668
536.50	0.668
536.70	0.668
536.89	0.666
537.09	0.666
537.29	0.667
537.49	0.669
537.69	0.667
537.89	0.668
538.08	0.668
538.28	0.667
538.48	0.667
538.68	0.669
538.88	0.671
539.07	0.671
539.27	0.669
539.47	0.668
539.67	0.668
539.87	0.669
540.06	0.667
540.26	0.668
540.46	0.670
540.66	0.666
540.86	0.665
541.05	0.664
541.25	0.666
541.45	0.666
541.65	0.665
541.84	0.666
542.04	0.667
542.24	0.667
542.44	0.667
542.64	0.668
542.83	0.671
543.03	0.672
543.23	0.669
543.43	0.670
543.62	0.672
543.82	0.672
544.02	0.670
544.22	0.670
544.42	0.673
544.61	0.674
544.81	0.670
545.01	0.669
545.21	0.670
545.40	0.671
545.60	0.668
545.80	0.671
546.00	0.672
546.19	0.671
546.39	0.671
546.59	0.668
546.79	0.670
546.98	0.670
547.18	0.670
547.38	0.670
547.58	0.673
547.77	0.674
547.97	0.670
548.17	0.671
548.37	0.672
548.56	0.672
548.76	0.671
548.96	0.673
549.16	0.676
549.35	0.675
549.55	0.673
549.75	0.674
549.95	0.678
550.14	0.678
550.34	0.676
550.54	0.681
550.73	0.685
550.93	0.685
551.13	0.681
551.33	0.680
551.52	0.681
551.72	0.681
551.92	0.680
552.12	0.680
552.31	0.680
552.51	0.681
552.71	0.676
552.90	0.677
553.10	0.677
553.30	0.678
553.50	0.676
553.69	0.678
553.89	0.679
554.09	0.678
554.28	0.676
554.48	0.678
554.68	0.679
554.87	0.679
555.07	0.676
555.27	0.676
555.47	0.678
555.66	0.679
555.86	0.677
556.06	0.679
556.25	0.680
556.45	0.687
556.65	0.685
556.84	0.689
557.04	0.692
557.24	0.693
557.43	0.693
557.63	0.696
557.83	0.697
558.02	0.698
558.22	0.702
558.42	0.703
558.61	0.695
558.81	0.696
559.01	0.692
559.21	0.691
559.40	0.692
559.60	0.691
559.80	0.688
559.99	0.689
560.19	0.691
560.39	0.685
560.58	0.683
560.78	0.683
560.97	0.687
561.17	0.685
561.37	0.683
561.56	0.684
561.76	0.685
561.96	0.684
562.15	0.681
562.35	0.683
562.55	0.684
562.74	0.684
562.94	0.683
563.14	0.681
563.33	0.683
563.53	0.683
563.73	0.681
563.92	0.683
564.12	0.685
564.31	0.688
564.51	0.687
564.71	0.689
564.90	0.691
565.10	0.693
565.30	0.695
565.49	0.695
565.69	0.697
565.89	0.697
566.08	0.695
566.28	0.696
566.47	0.698
566.67	0.696
566.87	0.693
567.06	0.696
567.26	0.702
567.46	0.698
567.65	0.698
567.85	0.699
568.04	0.702
568.24	0.701
568.44	0.699
568.63	0.697
568.83	0.698
569.02	0.697
569.22	0.692
569.42	0.688
569.61	0.690
569.81	0.689
570.00	0.687
570.20	0.688
570.40	0.689
570.59	0.689
570.79	0.687
570.98	0.685
571.18	0.687
571.38	0.687
571.57	0.684
571.77	0.682
571.96	0.685
572.16	0.682
572.35	0.678
572.55	0.678
572.75	0.676
572.94	0.676
573.14	0.675
573.33	0.675
573.53	0.675
573.73	0.674
573.92	0.672
574.12	0.670
574.31	0.672
574.51	0.672
574.70	0.670
574.90	0.671
575.09	0.673
575.29	0.673
575.49	0.671
575.68	0.672
575.88	0.673
576.07	0.674
576.27	0.672
576.46	0.672
576.66	0.671
576.86	0.670
577.05	0.667
577.25	0.666
577.44	0.667
577.64	0.668
577.83	0.665
578.03	0.667
578.22	0.667
578.42	0.666
578.61	0.664
578.81	0.665
579.00	0.665
579.20	0.665
579.40	0.664
579.59	0.663
579.79	0.663
579.98	0.662
580.18	0.661
580.37	0.661
580.57	0.663
580.76	0.668
580.96	0.667
581.15	0.668
581.35	0.670
581.54	0.669
581.74	0.669
581.93	0.670
582.13	0.671
582.32	0.668
582.52	0.666
582.71	0.665
582.91	0.661
583.10	0.661
583.30	0.660
583.49	0.659
583.69	0.664
583.88	0.664
584.08	0.663
584.27	0.666
584.47	0.669
584.66	0.670
584.86	0.670
585.05	0.672
585.25	0.674
585.44	0.674
585.64	0.672
585.83	0.669
586.03	0.669
586.22	0.668
586.42	0.664
586.61	0.665
586.81	0.667
587.00	0.666
587.20	0.664
587.39	0.664
587.59	0.666
587.78	0.667
587.98	0.668
588.17	0.669
588.37	0.671
588.56	0.673
588.76	0.669
588.95	0.669
589.15	0.673
589.34	0.676
589.54	0.674
589.73	0.675
589.92	0.679
590.12	0.679
590.31	0.677
590.51	0.682
590.70	0.684
590.90	0.685
591.09	0.683
591.29	0.682
591.48	0.681
591.68	0.682
591.87	0.680
592.06	0.680
592.26	0.682
592.45	0.681
592.65	0.674
592.84	0.673
593.04	0.676
593.23	0.677
593.43	0.675
593.62	0.674
593.81	0.675
594.01	0.674
594.20	0.671
594.40	0.671
594.59	0.672
594.79	0.673
594.98	0.672
595.17	0.671
595.37	0.672
595.56	0.674
595.76	0.674
595.95	0.675
596.14	0.678
596.34	0.680
596.53	0.679
596.73	0.681
596.92	0.682
597.12	0.685
597.31	0.685
597.50	0.684
597.70	0.686
597.89	0.685
598.09	0.682
598.28	0.684
598.47	0.685
598.67	0.684
598.86	0.680
599.06	0.682
599.25	0.682
599.44	0.680
599.64	0.677
599.83	0.675
600.03	0.678
600.22	0.678
600.41	0.678
600.61	0.676
600.80	0.678
601.00	0.678
601.19	0.673
601.38	0.671
601.58	0.674
601.77	0.675
601.96	0.677
602.16	0.677
602.35	0.686
602.55	0.683
602.74	0.684
602.93	0.686
603.13	0.691
603.32	0.693
603.51	0.693
603.71	0.697
603.90	0.698
604.09	0.699
604.29	0.697
604.48	0.691
604.68	0.693
604.87	0.691
605.06	0.687
605.26	0.684
605.45	0.685
605.64	0.683
605.84	0.679
606.03	0.678
606.22	0.676
606.42	0.675
606.61	0.672
606.80	0.672
607.00	0.674
607.19	0.674
607.38	0.672
607.58	0.673
607.77	0.675
607.96	0.675
608.16	0.674
608.35	0.679
608.54	0.681
608.74	0.685
608.93	0.690
609.12	0.693
609.32	0.695
609.51	0.699
609.70	0.698
609.90	0.701
610.09	0.706
610.28	0.711
610.48	0.704
610.67	0.706
610.86	0.706
611.06	0.700
611.25	0.697
611.44	0.698
611.64	0.698
611.83	0.701
612.02	0.698
612.21	0.697
612.41	0.696
612.60	0.694
612.79	0.690
612.99	0.691
613.18	0.693
613.37	0.691
613.57	0.688
613.76	0.690
613.95	0.687
614.14	0.686
614.34	0.683
614.53	0.684
614.72	0.687
614.92	0.686
615.11	0.684
615.30	0.681
615.49	0.682
615.69	0.685
615.88	0.680
616.07	0.681
616.26	0.683
616.46	0.684
616.65	0.681
616.84	0.680
617.04	0.681
617.23	0.684
617.42	0.684
617.61	0.688
617.81	0.689
618.00	0.691
618.19	0.690
618.38	0.694
618.58	0.697
618.77	0.698
618.96	0.698
619.15	0.701
619.35	0.702
619.54	0.703
619.73	0.699
619.92	0.702
620.12	0.706
620.31	0.706
620.50	0.701
620.69	0.701
620.89	0.703
621.08	0.704
621.27	0.703
621.46	0.702
621.66	0.705
621.85	0.705
622.04	0.701
622.23	0.702
622.43	0.703
622.62	0.702
622.81	0.702
623.00	0.702
623.19	0.705
623.39	0.703
623.58	0.701
623.77	0.700
623.96	0.703
624.16	0.702
624.35	0.698
624.54	0.701
624.73	0.705
624.92	0.702
625.12	0.699
625.31	0.700
625.50	0.703
625.69	0.703
625.88	0.698
626.08	0.697
626.27	0.699
626.46	0.699
626.65	0.696
626.84	0.696
627.04	0.701
627.23	0.702
627.42	0.699
627.61	0.701
627.80	0.704
628.00	0.705
628.19	0.703
628.38	0.706
628.57	0.709
628.76	0.709
628.96	0.706
629.15	0.707
629.34	0.709
629.53	0.708
629.72	0.703
629.91	0.704
630.11	0.708
630.30	0.708
630.49	0.711
630.68	0.710
630.87	0.714
631.06	0.716
631.26	0.710
631.45	0.712
631.64	0.719
631.83	0.722
632.02	0.719
632.21	0.718
632.41	0.725
632.60	0.719
632.79	0.718
632.98	0.718
633.17	0.719
633.36	0.721
633.55	0.718
633.75	0.714
633.94	0.716
634.13	0.716
634.32	0.713
634.51	0.707
634.70	0.709
634.89	0.708
635.09	0.705
635.28	0.706
635.47	0.706
635.66	0.709
635.85	0.705
636.04	0.706
636.23	0.710
636.43	0.713
636.62	0.712
636.81	0.711
637.00	0.714
637.19	0.717
637.38	0.715
637.57	0.715
637.76	0.717
637.95	0.718
638.15	0.715
638.34	0.712
638.53	0.715
638.72	0.716
638.91	0.714
639.10	0.712
639.29	0.711
639.48	0.711
639.67	0.711
639.87	0.710
640.06	0.716
640.25	0.715
640.44	0.716
640.63	0.716
640.82	0.719
641.01	0.719
641.20	0.718
641.39	0.720
641.58	0.721
641.78	0.720
641.97	0.716
642.16	0.730
642.35	0.731
642.54	0.729
642.73	0.724
642.92	0.722
643.11	0.726
643.30	0.727
643.49	0.722
643.68	0.725
643.87	0.725
644.06	0.725
644.25	0.705
644.45	0.707
644.64	0.709
644.83	0.710
645.02	0.706
645.21	0.705
645.40	0.705
645.59	0.705
645.78	0.700
645.97	0.702
646.16	0.703
646.35	0.702
646.54	0.700
646.73	0.702
646.92	0.704
647.11	0.704
647.30	0.700
647.49	0.703
647.68	0.702
647.88	0.700
648.07	0.694
648.26	0.697
648.45	0.699
648.64	0.696
648.83	0.694
649.02	0.695
649.21	0.705
649.40	0.704
649.59	0.700
649.78	0.701
649.97	0.717
650.16	0.716
650.35	0.710
650.54	0.713
650.73	0.721
650.92	0.718
651.11	0.712
651.30	0.710
651.49	0.714
651.68	0.714
651.87	0.710
652.06	0.700
652.25	0.702
652.44	0.706
652.63	0.704
652.82	0.705
653.01	0.705
653.20	0.703
653.39	0.691
653.58	0.689
653.77	0.689
653.96	0.685
654.15	0.676
654.34	0.674
654.53	0.669
654.72	0.663
654.91	0.653
655.10	0.649
655.29	0.647
655.48	0.645
655.67	0.639
655.86	0.636
656.05	0.634
656.24	0.634
656.43	0.629
656.62	0.628
656.81	0.627
657.00	0.624
657.19	0.621
657.38	0.620
657.57	0.619
657.76	0.621
657.95	0.619
658.14	0.622
658.33	0.624
658.51	0.629
658.70	0.629
658.89	0.631
659.08	0.641
659.27	0.649
659.46	0.650
659.65	0.656
659.84	0.660
660.03	0.663
660.22	0.664
660.41	0.668
660.60	0.668
660.79	0.669
660.98	0.674
661.17	0.674
661.36	0.673
661.55	0.674
661.74	0.671
661.92	0.674
662.11	0.677
662.30	0.675
662.49	0.668
662.68	0.668
662.87	0.671
663.06	0.666
663.25	0.667
663.44	0.667
663.63	0.668
663.82	0.667
664.01	0.662
664.20	0.660
664.38	0.662
664.57	0.663
664.76	0.663
664.95	0.664
665.14	0.669
665.33	0.663
665.52	0.670
665.71	0.674
665.90	0.674
666.09	0.675
666.28	0.673
666.46	0.671
666.65	0.671
666.84	0.669
667.03	0.663
667.22	0.660
667.41	0.664
667.60	0.654
667.79	0.648
667.98	0.649
668.16	0.650
668.35	0.649
668.54	0.646
668.73	0.647
668.92	0.647
669.11	0.647
669.30	0.642
669.49	0.638
669.67	0.639
669.86	0.642
670.05	0.638
670.24	0.636
670.43	0.634
670.62	0.634
670.81	0.629
671.00	0.630
671.18	0.630
671.37	0.628
671.56	0.627
671.75	0.626
671.94	0.623
672.13	0.621
672.32	0.616
672.50	0.616
672.69	0.616
672.88	0.616
673.07	0.612
673.26	0.614
673.45	0.615
673.63	0.615
673.82	0.612
674.01	0.613
674.20	0.613
674.39	0.613
674.58	0.612
674.76	0.613
674.95	0.612
675.14	0.612
675.33	0.607
675.52	0.606
675.71	0.605
675.89	0.604
676.08	0.601
676.27	0.600
676.46	0.601
676.65	0.600
676.84	0.599
677.02	0.600
677.21	0.601
677.40	0.601
677.59	0.598
677.78	0.600
677.96	0.603
678.15	0.602
678.34	0.600
678.53	0.600
678.72	0.600
678.90	0.597
679.09	0.593
679.28	0.590
679.47	0.590
679.66	0.589
679.84	0.585
680.03	0.581
680.22	0.580
680.41	0.582
680.60	0.578
680.78	0.577
680.97	0.579
681.16	0.580
681.35	0.579
681.53	0.578
681.72	0.580
681.91	0.581
682.10	0.581
682.29	0.583
682.47	0.581
682.66	0.581
682.85	0.580
683.04	0.578
683.22	0.578
683.41	0.579
683.60	0.578
683.79	0.579
683.97	0.578
684.16	0.576
684.35	0.573
684.54	0.575
684.72	0.575
684.91	0.576
685.10	0.574
685.29	0.575
685.47	0.572
685.66	0.571
685.85	0.567
686.04	0.567
686.22	0.569
686.41	0.572
686.60	0.569
686.79	0.571
686.97	0.572
687.16	0.573
687.35	0.571
687.54	0.575
687.72	0.579
687.91	0.579
688.10	0.581
688.29	0.581
688.47	0.579
688.66	0.578
688.85	0.574
689.03	0.571
689.22	0.576
689.41	0.576
689.60	0.572
689.78	0.569
689.97	0.569
690.16	0.566
690.34	0.562
690.53	0.562
690.72	0.562
690.91	0.561
691.09	0.558
691.28	0.552
691.47	0.551
691.65	0.549
691.84	0.547
692.03	0.546
692.21	0.544
692.40	0.543
692.59	0.541
692.77	0.540
692.96	0.541
693.15	0.542
693.34	0.540
693.52	0.540
693.71	0.540
693.90	0.541
694.08	0.543
694.27	0.544
694.46	0.552
694.64	0.553
694.83	0.553
695.02	0.552
695.20	0.552
695.39	0.552
695.58	0.552
695.76	0.552
695.95	0.550
696.14	0.550
696.32	0.547
696.51	0.539
696.70	0.538
696.88	0.539
697.07	0.537
697.26	0.538
697.44	0.540
697.63	0.539
697.81	0.537
698.00	0.538
698.19	0.536
698.37	0.536
698.56	0.535
698.75	0.535
698.93	0.535
699.12	0.535
699.31	0.534
699.49	0.533
699.68	0.535
699.87	0.537
700.05	0.537
700.24	0.537
700.42	0.539
700.61	0.538
700.80	0.537
700.98	0.537
701.17	0.538
701.36	0.537
701.54	0.536
701.73	0.537
701.91	0.534
702.10	0.533
702.29	0.532
702.47	0.531
702.66	0.532
702.84	0.533
703.03	0.531
703.22	0.533
703.40	0.531
703.59	0.532
703.77	0.532
703.96	0.531
704.15	0.531
704.33	0.531
704.52	0.531
704.70	0.530
704.89	0.530
705.08	0.528
705.26	0.525
705.45	0.525
705.63	0.525
705.82	0.523
706.00	0.523
706.19	0.522
706.38	0.522
706.56	0.522
706.75	0.520
706.93	0.518
707.12	0.520
707.30	0.521
707.49	0.519
707.68	0.516
707.86	0.515
708.05	0.515
708.23	0.512
708.42	0.512
708.60	0.515
708.79	0.514
708.98	0.513
709.16	0.512
709.35	0.514
709.53	0.518
709.72	0.517
709.90	0.519
710.09	0.521
710.27	0.524
710.46	0.527
710.64	0.525
710.83	0.527
711.02	0.528
711.20	0.527
711.39	0.525
711.57	0.523
711.76	0.523
711.94	0.521
712.13	0.522
712.31	0.521
712.50	0.517
712.68	0.514
712.87	0.515
713.05	0.515
713.24	0.516
713.42	0.516
713.61	0.516
713.79	0.517
713.98	0.518
714.16	0.519
714.35	0.518
714.54	0.520
714.72	0.520
714.91	0.517
715.09	0.524
715.28	0.527
715.46	0.527
715.65	0.525
715.83	0.524
716.02	0.526
716.20	0.522
716.39	0.522
716.57	0.523
716.76	0.525
716.94	0.526
717.12	0.518
717.31	0.519
717.49	0.522
717.68	0.524
717.86	0.523
718.05	0.525
718.23	0.527
718.42	0.529
718.60	0.530
718.79	0.538
718.97	0.540
719.16	0.540
719.34	0.538
719.53	0.537
719.71	0.537
719.90	0.538
720.08	0.536
720.27	0.537
720.45	0.537
720.63	0.535
720.82	0.529
721.00	0.532
721.19	0.534
721.37	0.534
721.56	0.534
721.74	0.536
721.93	0.545
722.11	0.552
722.30	0.552
722.48	0.555
722.66	0.557
722.85	0.557
723.03	0.557
723.22	0.557
723.40	0.560
723.59	0.560
723.77	0.565
723.95	0.558
724.14	0.559
724.32	0.560
724.51	0.560
724.69	0.561
724.88	0.561
725.06	0.560
725.24	0.560
725.43	0.562
725.61	0.564
725.80	0.557
725.98	0.555
726.16	0.552
726.35	0.558
726.53	0.558
726.72	0.557
726.90	0.567
727.09	0.567
727.27	0.572
727.45	0.569
727.64	0.579
727.82	0.587
728.01	0.591
728.19	0.589
728.37	0.594
728.56	0.596
728.74	0.603
728.92	0.592
729.11	0.593
729.29	0.592
729.48	0.594
729.66	0.583
729.84	0.582
730.03	0.586
730.21	0.587
730.40	0.578
730.58	0.580
730.76	0.579
730.95	0.582
731.13	0.582
731.31	0.595
731.50	0.604
731.68	0.607
731.86	0.604
732.05	0.618
732.23	0.622
732.42	0.626
732.60	0.630
732.78	0.635
732.97	0.651
733.15	0.658
733.33	0.647
733.52	0.655
733.70	0.665
733.88	0.674
734.07	0.660
734.25	0.685
734.43	0.690
734.62	0.693
734.80	0.687
734.98	0.678
735.17	0.684
735.35	0.689
735.53	0.678
735.72	0.682
735.90	0.702
736.08	0.718
736.27	0.696
736.45	0.706
736.63	0.719
736.82	0.730
737.00	0.728
737.18	0.738
737.37	0.769
737.55	0.790
737.73	0.785
737.92	0.788
738.10	0.785
738.28	0.805
738.46	0.792
738.65	0.802
738.83	0.822
739.01	0.877
739.20	0.869
739.38	0.853
739.56	0.845
739.75	0.848
739.93	0.819
740.11	0.840
740.29	0.834
740.48	0.841
740.66	0.822
740.84	0.817
741.03	0.781
741.21	0.789
741.39	0.773
741.57	0.787
741.76	0.801
741.94	0.804
742.12	0.772
742.31	0.781
742.49	0.797
742.67	0.823
742.85	0.834
743.04	0.839
743.22	0.849
743.40	0.894
743.58	0.877
743.77	0.896
743.95	0.926
744.13	0.977
744.31	0.961
744.50	0.956
744.68	0.951
744.86	0.929
745.04	0.938
745.23	0.997
745.41	0.978
745.59	0.980
745.77	0.945
745.96	0.937
746.14	0.942
746.32	0.937
746.50	0.930
746.69	0.916
746.87	0.919
747.05	0.910
747.23	0.843
747.42	0.831
747.60	0.859
747.78	0.861
747.96	0.887
748.14	0.848
748.33	0.874
748.51	0.872
748.69	0.861
748.87	0.889
749.06	0.882
749.24	0.880
749.42	0.866
749.60	0.842
749.78	0.853
749.97	0.811
750.15	0.807
750.33	0.809
750.51	0.829
750.69	0.836
750.88	0.837
751.06	0.844
751.24	0.870
751.42	0.866
751.60	0.865
751.79	0.929
751.97	0.971
752.15	0.968
752.33	0.936
752.51	0.991
752.69	1.002
752.88	0.978
753.06	1.021
753.24	0.997
753.42	1.021
753.60	1.163
753.78	1.039
753.97	1.056
754.15	1.070
754.33	1.103
754.51	0.994
754.69	0.979
754.87	1.009
755.06	0.948
755.24	0.950
755.42	0.961
755.60	0.867
755.78	0.876
755.96	0.828
756.15	0.827
756.33	0.831
756.51	0.852
756.69	0.842
756.87	0.812
757.05	0.828
757.23	0.808
757.42	0.778
757.60	0.777
757.78	0.767
757.96	0.765
758.14	0.750
758.32	0.735
758.50	0.747
758.69	0.744
758.87	0.735
759.05	0.739
759.23	0.751
759.41	0.752
759.59	0.746
759.77	0.764
759.95	0.786
760.13	0.830
760.32	0.829
760.50	0.821
760.68	0.840
760.86	0.840
761.04	0.819
761.22	0.823
761.40	0.864
761.58	0.863
761.76	0.841
761.95	0.824
762.13	0.782
762.31	0.783
762.49	0.755
762.67	0.772
762.85	0.784
763.03	0.778
763.21	0.760
763.39	0.743
763.57	0.747
763.75	0.745
763.94	0.732
764.12	0.735
764.30	0.757
764.48	0.762
764.66	0.728
764.84	0.727
765.02	0.762
765.20	0.770
765.38	0.752
765.56	0.757
765.74	0.792
765.92	0.794
766.10	0.802
766.28	0.797
766.46	0.819
766.65	0.821
766.83	0.810
767.01	0.793
767.19	0.797
767.37	0.798
767.55	0.785
767.73	0.763
767.91	0.765
768.09	0.754
768.27	0.739
768.45	0.729
768.63	0.734
768.81	0.736
768.99	0.715
769.17	0.736
769.35	0.748
769.53	0.747
769.71	0.732
769.89	0.741
770.07	0.747
770.25	0.734
770.43	0.717
770.61	0.738
770.79	0.743
770.97	0.750
771.15	0.724
771.33	0.725
771.51	0.727
771.69	0.738
771.87	0.748
772.05	0.749
772.24	0.757
772.42	0.767
772.60	0.746
772.78	0.800
772.96	0.827
773.14	0.825
773.32	0.807
773.49	0.814
773.67	0.810
773.85	0.789
774.03	0.781
774.21	0.811
774.39	0.821
774.57	0.844
774.75	0.776
774.93	0.771
775.11	0.789
775.29	0.795
775.47	0.798
775.65	0.807
775.83	0.821
776.01	0.842
776.19	0.800
776.37	0.800
776.55	0.802
776.73	0.798
776.91	0.792
777.09	0.774
777.27	0.772
777.45	0.759
777.63	0.741
777.81	0.738
777.99	0.724
778.17	0.724
778.35	0.704
778.53	0.690
778.71	0.696
778.89	0.685
779.07	0.679
779.24	0.683
779.42	0.687
779.60	0.705
779.78	0.700
779.96	0.704
780.14	0.708
780.32	0.727
780.50	0.714
780.68	0.713
780.86	0.703
781.04	0.718
781.22	0.725
781.40	0.731
781.58	0.722
781.75	0.715
781.93	0.701
782.11	0.701
782.29	0.689
782.47	0.685
782.65	0.673
782.83	0.702
783.01	0.697
783.19	0.691
783.37	0.678
783.55	0.679
783.72	0.696
783.90	0.706
784.08	0.699
784.26	0.710
784.44	0.730
784.62	0.735
784.80	0.703
784.98	0.708
785.16	0.711
785.33	0.725
785.51	0.713
785.69	0.700
785.87	0.699
786.05	0.711
786.23	0.708
786.41	0.707
786.59	0.711
786.77	0.710
786.94	0.697
787.12	0.699
787.30	0.699
787.48	0.699
787.66	0.689
787.84	0.690
788.02	0.680
788.19	0.678
788.37	0.663
788.55	0.665
788.73	0.664
788.91	0.661
789.09	0.647
789.27	0.639
789.44	0.647
789.62	0.652
789.80	0.660
789.98	0.681
790.16	0.667
790.34	0.665
790.51	0.655
790.69	0.675
790.87	0.679
791.05	0.677
791.23	0.670
791.41	0.671
791.58	0.677
791.76	0.655
791.94	0.630
792.12	0.640
792.30	0.642
792.48	0.639
792.65	0.633
792.83	0.641
793.01	0.645
793.19	0.644
793.37	0.630
793.54	0.626
793.72	0.637
793.90	0.636
794.08	0.627
794.26	0.628
794.43	0.636
794.61	0.620
794.79	0.607
794.97	0.607
795.15	0.612
795.32	0.617
795.50	0.610
795.68	0.604
795.86	0.606
796.04	0.606
796.21	0.600
796.39	0.597
796.57	0.610
796.75	0.617
796.92	0.619
797.10	0.622
797.28	0.623
797.46	0.624
797.64	0.627
797.81	0.635
797.99	0.638
798.17	0.642
798.35	0.638
798.52	0.643
798.70	0.639
798.88	0.645
799.06	0.646
799.23	0.648
799.41	0.656
799.59	0.650
799.77	0.640
799.94	0.649
800.12	0.658
800.30	0.675
800.48	0.674
800.65	0.673
800.83	0.663
801.01	0.655
801.19	0.655
801.36	0.651
801.54	0.653
801.72	0.661
801.90	0.650
802.07	0.643
802.25	0.630
802.43	0.615
802.60	0.613
802.78	0.620
802.96	0.623
803.14	0.617
803.31	0.616
803.49	0.615
803.67	0.610
803.84	0.613
804.02	0.606
804.20	0.608
804.38	0.611
804.55	0.611
804.73	0.599
804.91	0.601
805.08	0.613
805.26	0.609
805.44	0.671
805.61	0.676
805.79	0.675
805.97	0.676
806.15	0.669
806.32	0.663
806.50	0.667
806.68	0.666
806.85	0.660
807.03	0.651
807.21	0.668
807.38	0.604
807.56	0.595
807.74	0.604
807.91	0.610
808.09	0.612
808.27	0.632
808.44	0.658
808.62	0.667
808.80	0.666
808.97	0.659
809.15	0.654
809.33	0.671
809.50	0.678
809.68	0.665
809.86	0.671
810.03	0.701
810.21	0.682
810.39	0.663
810.56	0.670
810.74	0.691
810.91	0.760
811.09	0.750
811.27	0.769
811.44	0.773
811.62	0.776
811.80	0.762
811.97	0.733
812.15	0.733
812.33	0.729
812.50	0.717
812.68	0.706
812.85	0.653
813.03	0.654
813.21	0.624
813.38	0.617
813.56	0.619
813.74	0.628
813.91	0.636
814.09	0.663
814.26	0.656
814.44	0.658
814.62	0.651
814.79	0.655
814.97	0.659
815.14	0.663
815.32	0.666
815.50	0.680
815.67	0.681
815.85	0.672
816.02	0.662
816.20	0.670
816.38	0.679
816.55	0.685
816.73	0.683
816.90	0.691
817.08	0.719
817.26	0.726
817.43	0.708
817.61	0.730
817.78	0.748
817.96	0.729
818.13	0.720
818.31	0.721
818.49	0.728
818.66	0.719
818.84	0.707
819.01	0.687
819.19	0.691
819.36	0.693
819.54	0.670
819.71	0.709
819.89	0.720
820.07	0.731
820.24	0.729
820.42	0.730
820.59	0.750
820.77	0.774
820.94	0.767
821.12	0.786
821.29	0.797
821.47	0.797
821.64	0.739
821.82	0.749
822.00	0.748
822.17	0.745
822.35	0.742
822.52	0.744
822.70	0.729
822.87	0.739
823.05	0.718
823.22	0.729
823.40	0.752
823.57	0.771
823.75	0.759
823.92	0.779
824.10	0.795
824.27	0.830
824.45	0.823
824.62	0.878
824.80	0.892
824.97	0.907
825.15	0.901
825.32	0.915
825.50	0.916
825.67	0.922
825.85	0.906
826.02	0.922
826.20	0.940
826.37	1.051
826.55	0.981
826.72	1.149
826.90	1.212
827.07	1.253
827.25	1.200
827.42	1.341
827.60	1.450
827.77	1.587
827.95	1.552
828.12	1.622
828.30	1.324
828.47	1.406
828.65	1.130
828.82	1.166
829.00	1.194
829.17	1.251
829.34	1.250
829.52	1.279
829.69	-0.000
829.87	-0.000
830.04	-0.000
830.22	-0.000
830.39	-0.000
830.57	-0.000
830.74	-0.000
830.92	-0.000
831.09	-0.000
831.26	-0.000
831.44	-0.000
831.61	-0.000
831.79	-0.000
831.96	-0.000
832.14	-0.000
832.31	-0.000
832.49	-0.000
832.66	-0.000
832.83	-0.000
833.01	-0.000
833.18	-0.000
833.36	-0.000
833.53	-0.000
833.70	-0.000
833.88	-0.000
834.05	-0.000
834.23	-0.000
834.40	-0.000
834.58	-0.000
834.75	-0.000
834.92	-0.000
835.10	-0.000
835.27	-0.000
835.45	-0.000
835.62	-0.000
835.79	-0.000
835.97	-0.000
836.14	-0.000
836.32	-0.000
836.49	-0.000
836.66	-0.000
836.84	-0.000
837.01	-0.000
837.18	-0.000
837.36	-0.000
837.53	-0.000
837.71	-0.000
837.88	-0.000
838.05	-0.000
838.23	-0.000
838.40	-0.000
838.58	-0.000
838.75	-0.000
838.92	-0.000
839.10	-0.000
839.27	-0.000
839.44	-0.000
839.62	-0.000
839.79	-0.000
839.96	-0.000
840.14	-0.000
840.31	-0.000
840.48	-0.000
840.66	-0.000
840.83	-0.000
841.01	-0.000
841.18	-0.000
841.35	-0.000
841.53	-0.000
841.70	-0.000
841.87	-0.000
842.05	-0.000
842.22	-0.000
842.39	-0.000
842.57	-0.000
842.74	-0.000
842.91	-0.000
843.09	-0.000
843.26	-0.000
843.43	-0.000
843.60	-0.000
843.78	-0.000
843.95	-0.000
844.12	-0.000
844.30	-0.000
844.47	-0.000
844.64	-0.000
844.82	-0.000
844.99	-0.000
845.16	-0.000
845.34	-0.000
845.51	-0.000
845.68	-0.000
845.85	-0.000
846.03	-0.000
846.20	-0.000
846.37	-0.000
846.55	-0.000
846.72	-0.000
846.89	-0.000
847.06	-0.000
847.24	-0.000
847.41	-0.000
847.58	-0.000
847.76	-0.000
847.93	-0.000
848.10	-0.000
848.27	-0.000
848.45	-0.000
848.62	-0.000
848.79	-0.000
848.97	-0.000
849.14	-0.000
849.31	-0.000
849.48	-0.000
849.66	-0.000
849.83	-0.000
850.00	-0.000
850.17	-0.000
850.35	-0.000
850.52	-0.000
850.69	-0.000
850.86	-0.000
851.04	-0.000
851.21	-0.000
851.38	-0.000
851.55	-0.000
851.72	-0.000
851.90	-0.000
852.07	-0.000
852.24	-0.000
852.41	-0.000
852.59	-0.000
852.76	-0.000
852.93	-0.000
853.10	-0.000
853.28	-0.000
853.45	-0.000
853.62	-0.000
853.79	-0.000
853.96	-0.000
854.14	-0.000
854.31	-0.000
854.48	-0.000
854.65	-0.000
854.82	-0.000
855.00	-0.000
855.17	-0.000
855.34	-0.000
855.51	-0.000
855.68	-0.000
855.86	-0.000
856.03	-0.000
856.20	-0.000
856.37	-0.000
856.54	-0.000
856.72	-0.000
856.89	-0.000
857.06	-0.000
857.23	-0.000
857.40	-0.000
857.57	-0.000
857.75	-0.000
857.92	-0.000
858.09	-0.000
858.26	-0.000
858.43	-0.000
858.60	-0.000
858.78	-0.000
858.95	-0.000
859.12	-0.000
859.29	-0.000
859.46	-0.000
859.63	-0.000
859.81	-0.000
859.98	-0.000
860.15	-0.000
860.32	-0.000
860.49	-0.000
860.66	-0.000
860.83	-0.000
861.01	-0.000
861.18	-0.000
861.35	-0.000
861.52	-0.000
861.69	-0.000
861.86	-0.000
862.03	-0.000
862.21	-0.000
862.38	-0.000
862.55	-0.000
862.72	-0.000
862.89	-0.000
863.06	-0.000
863.23	-0.000
863.40	-0.000
863.58	-0.000
863.75	-0.000
863.92	-0.000
864.09	-0.000
864.26	-0.000
864.43	-0.000
864.60	-0.000
864.77	-0.000
864.94	-0.000
865.11	-0.000
865.29	-0.000
865.46	-0.000
865.63	-0.000
865.80	-0.000
865.97	-0.000
866.14	-0.000
866.31	-0.000
866.48	-0.000
866.65	-0.000
866.82	-0.000
866.99	-0.000
867.16	-0.000
867.34	-0.000
867.51	-0.000
867.68	-0.000
867.85	-0.000
868.02	-0.000
868.19	-0.000
868.36	-0.000
868.53	-0.000
868.70	-0.000
868.87	-0.000
869.04	-0.000
869.21	-0.000
869.38	-0.000
869.55	-0.000
869.72	-0.000
869.89	-0.000
870.06	-0.000
870.24	-0.000
870.41	-0.000
870.58	-0.000
870.75	-0.000
870.92	-0.000
871.09	-0.000
871.26	-0.000
871.43	-0.000
871.60	-0.000
871.77	-0.000
871.94	-0.000
872.11	-0.000
872.28	-0.000
872.45	-0.000
872.62	-0.000
872.79	-0.000
872.96	-0.000
873.13	-0.000
873.30	-0.000
873.47	-0.000
873.64	-0.000
873.81	-0.000
873.98	-0.000
874.15	-0.000
874.32	-0.000
874.49	-0.000
874.66	-0.000
874.83	-0.000
875.00	-0.000
875.17	-0.000
875.34	-0.000
875.51	-0.000
875.68	-0.000
875.85	-0.000
876.02	-0.000
876.19	-0.000
876.36	-0.000
876.53	-0.000
876.70	-0.000
876.87	-0.000
877.04	-0.000
877.21	-0.000
877.38	-0.000
877.55	-0.000
877.72	-0.000
877.89	-0.000
878.06	-0.000
878.23	-0.000
878.39	-0.000
878.56	-0.000
878.73	-0.000
878.90	-0.000
879.07	-0.000
879.24	-0.000
879.41	-0.000
879.58	-0.000
879.75	-0.000
879.92	-0.000
880.09	-0.000
880.26	-0.000
880.43	-0.000
880.60	-0.000
880.77	-0.000
880.94	-0.000
881.11	-0.000
881.27	-0.000
881.44	-0.000
881.61	-0.000
881.78	-0.000
881.95	-0.000
882.12	-0.000
882.29	-0.000
882.46	-0.000
882.63	-0.000
882.80	-0.000
882.97	-0.000
883.14	-0.000
883.30	-0.000
883.47	-0.000
883.64	-0.000
883.81	-0.000
883.98	-0.000
884.15	-0.000
884.32	-0.000
884.49	-0.000
884.66	-0.000
884.82	-0.000
884.99	-0.000
885.16	-0.000
885.33	-0.000
885.50	-0.000
885.67	-0.000
885.84	-0.000
886.01	-0.000
886.17	-0.000
886.34	-0.000
886.51	-0.000
886.68	-0.000
886.85	-0.000
887.02	-0.000
887.19	-0.000
887.36	-0.000
887.52	-0.000
887.69	-0.000
887.86	-0.000
888.03	-0.000
888.20	-0.000
888.37	-0.000
888.54	-0.000
888.70	-0.000
888.87	-0.000
889.04	-0.000
889.21	-0.000
889.38	-0.000
889.55	-0.000
889.71	-0.000
889.88	-0.000
890.05	-0.000
890.22	-0.000
890.39	-0.000
>>>>>End Processed Spectral Data<<<<<
