SpectraSuite Data File
++++++++++++++++++++++++++++++++++++
Date: Fri Jun 19 12:25:54 CEST 2015
User: introlabs
Dark Spectrum Present: Yes
Reference Spectrum Present: Yes
Number of Sampled Component Spectra: 1
Spectrometers: USB4H08886
Integration Time (usec): 745692 (USB4H08886)
Spectra Averaged: 5 (USB4H08886)
Boxcar Smoothing: 5 (USB4H08886)
Correct for Electrical Dark: Yes (USB4H08886)
Strobe/Lamp Enabled: No (USB4H08886)
Correct for Detector Non-linearity: Yes (USB4H08886)
Correct for Stray Light: Yes (USB4H08886)
Number of Pixels in Processed Spectrum: 3648
>>>>>Begin Processed Spectral Data<<<<<
178.14	-0.000
178.36	-0.000
178.57	-0.000
178.79	-0.000
179.01	-0.000
179.22	-0.000
179.44	-0.000
179.65	-0.000
179.87	-0.000
180.08	-0.000
180.30	-0.000
180.52	-0.000
180.73	-0.000
180.95	-0.000
181.16	-0.000
181.38	-0.000
181.59	-0.000
181.81	-0.000
182.03	-0.000
182.24	-0.000
182.46	-0.000
182.67	-0.000
182.89	-0.000
183.10	-0.000
183.32	-0.000
183.54	-0.000
183.75	-0.000
183.97	-0.000
184.18	-0.000
184.40	-0.000
184.61	-0.000
184.83	-0.000
185.04	-0.000
185.26	-0.000
185.48	-0.000
185.69	-0.000
185.91	-0.000
186.12	-0.000
186.34	-0.000
186.55	-0.000
186.77	-0.000
186.98	-0.000
187.20	-0.000
187.42	-0.000
187.63	-0.000
187.85	-0.000
188.06	-0.000
188.28	-0.000
188.49	-0.000
188.71	-0.000
188.92	-0.000
189.14	-0.000
189.36	-0.000
189.57	-0.000
189.79	-0.000
190.00	-0.000
190.22	-0.000
190.43	-0.000
190.65	-0.000
190.86	-0.000
191.08	-0.000
191.29	-0.000
191.51	-0.000
191.72	-0.000
191.94	-0.000
192.16	-0.000
192.37	-0.000
192.59	-0.000
192.80	-0.000
193.02	-0.000
193.23	-0.000
193.45	-0.000
193.66	-0.000
193.88	-0.000
194.09	-0.000
194.31	-0.000
194.52	-0.000
194.74	-0.000
194.95	-0.000
195.17	-0.000
195.38	-0.000
195.60	-0.000
195.81	-0.000
196.03	-0.000
196.25	-0.000
196.46	-0.000
196.68	-0.000
196.89	-0.000
197.11	-0.000
197.32	-0.000
197.54	-0.000
197.75	-0.000
197.97	-0.000
198.18	-0.000
198.40	-0.000
198.61	-0.000
198.83	-0.000
199.04	-0.000
199.26	-0.000
199.47	-0.000
199.69	-0.000
199.90	-0.000
200.12	-0.000
200.33	-0.000
200.55	-0.000
200.76	-0.000
200.98	-0.000
201.19	-0.000
201.41	-0.000
201.62	-0.000
201.84	-0.000
202.05	-0.000
202.27	-0.000
202.48	-0.000
202.70	-0.000
202.91	-0.000
203.13	-0.000
203.34	-0.000
203.56	-0.000
203.77	-0.000
203.99	-0.000
204.20	-0.000
204.42	-0.000
204.63	-0.000
204.85	-0.000
205.06	-0.000
205.28	-0.000
205.49	-0.000
205.71	-0.000
205.92	-0.000
206.14	-0.000
206.35	-0.000
206.56	-0.000
206.78	-0.000
206.99	-0.000
207.21	-0.000
207.42	-0.000
207.64	-0.000
207.85	-0.000
208.07	-0.000
208.28	-0.000
208.50	-0.000
208.71	-0.000
208.93	-0.000
209.14	-0.000
209.36	-0.000
209.57	-0.000
209.79	-0.000
210.00	-0.000
210.22	-0.000
210.43	-0.000
210.64	-0.000
210.86	-0.000
211.07	-0.000
211.29	-0.000
211.50	-0.000
211.72	-0.000
211.93	-0.000
212.15	-0.000
212.36	-0.000
212.58	-0.000
212.79	-0.000
213.01	-0.000
213.22	-0.000
213.43	-0.000
213.65	-0.000
213.86	-0.000
214.08	-0.000
214.29	-0.000
214.51	-0.000
214.72	-0.000
214.94	-0.000
215.15	-0.000
215.36	-0.000
215.58	-0.000
215.79	-0.000
216.01	-0.000
216.22	-0.000
216.44	-0.000
216.65	-0.000
216.87	-0.000
217.08	-0.000
217.29	-0.000
217.51	-0.000
217.72	-0.000
217.94	-0.000
218.15	-0.000
218.37	-0.000
218.58	-0.000
218.80	-0.000
219.01	-0.000
219.22	-0.000
219.44	-0.000
219.65	-0.000
219.87	-0.000
220.08	-0.000
220.30	-0.000
220.51	-0.000
220.72	-0.000
220.94	-0.000
221.15	-0.000
221.37	-0.000
221.58	-0.000
221.79	-0.000
222.01	-0.000
222.22	-0.000
222.44	-0.000
222.65	-0.000
222.87	-0.000
223.08	-0.000
223.29	-0.000
223.51	-0.000
223.72	-0.000
223.94	-0.000
224.15	-0.000
224.36	-0.000
224.58	-0.000
224.79	-0.000
225.01	-0.000
225.22	-0.000
225.44	-0.000
225.65	-0.000
225.86	-0.000
226.08	-0.000
226.29	-0.000
226.51	-0.000
226.72	-0.000
226.93	-0.000
227.15	-0.000
227.36	-0.000
227.58	-0.000
227.79	-0.000
228.00	-0.000
228.22	-0.000
228.43	-0.000
228.65	-0.000
228.86	-0.000
229.07	-0.000
229.29	-0.000
229.50	-0.000
229.72	-0.000
229.93	-0.000
230.14	-0.000
230.36	-0.000
230.57	-0.000
230.78	-0.000
231.00	-0.000
231.21	-0.000
231.43	-0.000
231.64	-0.000
231.85	-0.000
232.07	-0.000
232.28	-0.000
232.50	-0.000
232.71	-0.000
232.92	-0.000
233.14	-0.000
233.35	-0.000
233.56	-0.000
233.78	-0.000
233.99	-0.000
234.21	-0.000
234.42	-0.000
234.63	-0.000
234.85	-0.000
235.06	-0.000
235.27	-0.000
235.49	-0.000
235.70	-0.000
235.91	-0.000
236.13	-0.000
236.34	-0.000
236.56	-0.000
236.77	-0.000
236.98	-0.000
237.20	-0.000
237.41	-0.000
237.62	-0.000
237.84	-0.000
238.05	-0.000
238.26	-0.000
238.48	-0.000
238.69	-0.000
238.91	-0.000
239.12	-0.000
239.33	-0.000
239.55	-0.000
239.76	-0.000
239.97	-0.000
240.19	-0.000
240.40	-0.000
240.61	-0.000
240.83	-0.000
241.04	-0.000
241.25	-0.000
241.47	-0.000
241.68	-0.000
241.89	-0.000
242.11	-0.000
242.32	-0.000
242.53	-0.000
242.75	-0.000
242.96	-0.000
243.17	-0.000
243.39	-0.000
243.60	-0.000
243.81	-0.000
244.03	-0.000
244.24	-0.000
244.45	-0.000
244.67	-0.000
244.88	-0.000
245.09	-0.000
245.31	-0.000
245.52	-0.000
245.73	-0.000
245.95	-0.000
246.16	-0.000
246.37	-0.000
246.59	-0.000
246.80	-0.000
247.01	-0.000
247.23	-0.000
247.44	-0.000
247.65	-0.000
247.87	-0.000
248.08	-0.000
248.29	-0.000
248.51	-0.000
248.72	-0.000
248.93	-0.000
249.15	-0.000
249.36	-0.000
249.57	-0.000
249.78	-0.000
250.00	-0.000
250.21	-0.000
250.42	-0.000
250.64	-0.000
250.85	-0.000
251.06	-0.000
251.28	-0.000
251.49	-0.000
251.70	-0.000
251.92	-0.000
252.13	-0.000
252.34	-0.000
252.55	-0.000
252.77	-0.000
252.98	-0.000
253.19	-0.000
253.41	-0.000
253.62	-0.000
253.83	-0.000
254.05	-0.000
254.26	-0.000
254.47	-0.000
254.68	-0.000
254.90	-0.000
255.11	-0.000
255.32	-0.000
255.54	-0.000
255.75	-0.000
255.96	-0.000
256.17	-0.000
256.39	-0.000
256.60	-0.000
256.81	-0.000
257.03	-0.000
257.24	-0.000
257.45	-0.000
257.66	-0.000
257.88	-0.000
258.09	-0.000
258.30	-0.000
258.51	-0.000
258.73	-0.000
258.94	-0.000
259.15	-0.000
259.37	-0.000
259.58	-0.000
259.79	-0.000
260.00	-0.000
260.22	-0.000
260.43	-0.000
260.64	-0.000
260.85	-0.000
261.07	-0.000
261.28	-0.000
261.49	-0.000
261.71	-0.000
261.92	-0.000
262.13	-0.000
262.34	-0.000
262.56	-0.000
262.77	-0.000
262.98	-0.000
263.19	-0.000
263.41	-0.000
263.62	-0.000
263.83	-0.000
264.04	-0.000
264.26	-0.000
264.47	-0.000
264.68	-0.000
264.89	-0.000
265.11	-0.000
265.32	-0.000
265.53	-0.000
265.74	-0.000
265.96	-0.000
266.17	-0.000
266.38	-0.000
266.59	-0.000
266.81	-0.000
267.02	-0.000
267.23	-0.000
267.44	-0.000
267.65	-0.000
267.87	-0.000
268.08	-0.000
268.29	-0.000
268.50	-0.000
268.72	-0.000
268.93	-0.000
269.14	-0.000
269.35	-0.000
269.57	-0.000
269.78	-0.000
269.99	-0.000
270.20	-0.000
270.41	-0.000
270.63	-0.000
270.84	-0.000
271.05	-0.000
271.26	-0.000
271.48	-0.000
271.69	-0.000
271.90	-0.000
272.11	-0.000
272.32	-0.000
272.54	-0.000
272.75	-0.000
272.96	-0.000
273.17	-0.000
273.39	-0.000
273.60	-0.000
273.81	-0.000
274.02	-0.000
274.23	-0.000
274.45	-0.000
274.66	-0.000
274.87	-0.000
275.08	-0.000
275.29	-0.000
275.51	-0.000
275.72	-0.000
275.93	-0.000
276.14	-0.000
276.35	-0.000
276.57	-0.000
276.78	-0.000
276.99	-0.000
277.20	-0.000
277.41	-0.000
277.63	-0.000
277.84	-0.000
278.05	-0.000
278.26	-0.000
278.47	-0.000
278.69	-0.000
278.90	-0.000
279.11	-0.000
279.32	-0.000
279.53	-0.000
279.74	-0.000
279.96	-0.000
280.17	-0.000
280.38	-0.000
280.59	-0.000
280.80	-0.000
281.02	-0.000
281.23	-0.000
281.44	-0.000
281.65	-0.000
281.86	-0.000
282.07	-0.000
282.29	-0.000
282.50	-0.000
282.71	-0.000
282.92	-0.000
283.13	-0.000
283.35	-0.000
283.56	-0.000
283.77	-0.000
283.98	-0.000
284.19	-0.000
284.40	-0.000
284.62	-0.000
284.83	-0.000
285.04	-0.000
285.25	-0.000
285.46	-0.000
285.67	-0.000
285.88	-0.000
286.10	-0.000
286.31	-0.000
286.52	-0.000
286.73	-0.000
286.94	-0.000
287.15	-0.000
287.37	-0.000
287.58	-0.000
287.79	-0.000
288.00	-0.000
288.21	-0.000
288.42	-0.000
288.63	-0.000
288.85	-0.000
289.06	-0.000
289.27	-0.000
289.48	-0.000
289.69	-0.000
289.90	-0.000
290.11	-0.000
290.33	-0.000
290.54	-0.000
290.75	-0.000
290.96	-0.000
291.17	-0.000
291.38	-0.000
291.59	-0.000
291.81	-0.000
292.02	-0.000
292.23	3.031
292.44	1.991
292.65	1.793
292.86	2.018
293.07	1.934
293.28	1.666
293.50	1.744
293.71	1.886
293.92	1.782
294.13	1.843
294.34	1.846
294.55	1.962
294.76	1.920
294.97	1.717
295.19	1.811
295.40	2.132
295.61	2.030
295.82	1.670
296.03	1.586
296.24	1.652
296.45	1.477
296.66	1.356
296.87	1.364
297.09	1.403
297.30	1.467
297.51	1.326
297.72	1.303
297.93	1.355
298.14	1.343
298.35	1.316
298.56	1.297
298.77	1.364
298.99	1.351
299.20	1.324
299.41	1.313
299.62	1.303
299.83	1.300
300.04	1.263
300.25	1.257
300.46	1.284
300.67	1.266
300.88	1.234
301.10	1.231
301.31	1.276
301.52	1.243
301.73	1.208
301.94	1.206
302.15	1.219
302.36	1.196
302.57	1.154
302.78	1.158
302.99	1.186
303.20	1.194
303.41	1.138
303.63	1.123
303.84	1.131
304.05	1.129
304.26	1.089
304.47	1.093
304.68	1.099
304.89	1.094
305.10	1.063
305.31	1.055
305.52	1.083
305.73	1.078
305.94	1.051
306.15	1.048
306.37	1.064
306.58	1.069
306.79	1.045
307.00	1.056
307.21	1.081
307.42	1.076
307.63	1.051
307.84	1.029
308.05	1.056
308.26	1.058
308.47	1.039
308.68	1.036
308.89	1.040
309.10	1.037
309.31	1.008
309.52	1.006
309.73	1.020
309.95	1.015
310.16	0.997
310.37	0.988
310.58	1.003
310.79	1.001
311.00	0.997
311.21	0.998
311.42	1.002
311.63	0.997
311.84	0.981
312.05	0.980
312.26	0.999
312.47	1.006
312.68	0.988
312.89	0.975
313.10	0.983
313.31	0.963
313.52	0.962
313.73	0.963
313.94	0.968
314.15	0.955
314.36	0.938
314.57	0.932
314.78	0.924
314.99	0.920
315.21	0.911
315.42	0.913
315.63	0.925
315.84	0.907
316.05	0.895
316.26	0.901
316.47	0.918
316.68	0.913
316.89	0.897
317.10	0.913
317.31	0.919
317.52	0.919
317.73	0.902
317.94	0.901
318.15	0.936
318.36	0.935
318.57	0.921
318.78	0.914
318.99	0.943
319.20	0.941
319.41	0.913
319.62	0.912
319.83	0.922
320.04	0.919
320.25	0.906
320.46	0.881
320.67	0.887
320.88	0.884
321.09	0.872
321.30	0.859
321.51	0.872
321.72	0.872
321.93	0.859
322.14	0.856
322.35	0.880
322.56	0.882
322.77	0.871
322.98	0.877
323.19	0.885
323.40	0.889
323.61	0.871
323.82	0.867
324.03	0.872
324.24	0.869
324.45	0.857
324.66	0.841
324.87	0.839
325.08	0.840
325.29	0.824
325.50	0.819
325.71	0.824
325.92	0.831
326.13	0.820
326.34	0.822
326.55	0.831
326.76	0.829
326.97	0.819
327.18	0.815
327.39	0.836
327.60	0.837
327.80	0.835
328.01	0.834
328.22	0.835
328.43	0.838
328.64	0.827
328.85	0.831
329.06	0.835
329.27	0.834
329.48	0.829
329.69	0.815
329.90	0.823
330.11	0.818
330.32	0.811
330.53	0.806
330.74	0.807
330.95	0.805
331.16	0.791
331.37	0.797
331.58	0.799
331.79	0.798
332.00	0.790
332.21	0.785
332.42	0.790
332.63	0.782
332.83	0.777
333.04	0.779
333.25	0.789
333.46	0.787
333.67	0.775
333.88	0.778
334.09	0.788
334.30	0.785
334.51	0.777
334.72	0.772
334.93	0.777
335.14	0.776
335.35	0.769
335.56	0.765
335.77	0.774
335.98	0.772
336.18	0.765
336.39	0.760
336.60	0.764
336.81	0.764
337.02	0.762
337.23	0.766
337.44	0.769
337.65	0.771
337.86	0.761
338.07	0.757
338.28	0.763
338.49	0.761
338.70	0.754
338.91	0.759
339.11	0.765
339.32	0.763
339.53	0.752
339.74	0.751
339.95	0.750
340.16	0.749
340.37	0.742
340.58	0.741
340.79	0.746
341.00	0.746
341.21	0.737
341.41	0.739
341.62	0.741
341.83	0.742
342.04	0.737
342.25	0.745
342.46	0.751
342.67	0.749
342.88	0.741
343.09	0.741
343.30	0.749
343.50	0.752
343.71	0.742
343.92	0.741
344.13	0.745
344.34	0.745
344.55	0.731
344.76	0.729
344.97	0.736
345.18	0.734
345.38	0.730
345.59	0.726
345.80	0.727
346.01	0.725
346.22	0.720
346.43	0.716
346.64	0.724
346.85	0.724
347.06	0.718
347.26	0.719
347.47	0.724
347.68	0.720
347.89	0.716
348.10	0.711
348.31	0.719
348.52	0.718
348.73	0.716
348.93	0.712
349.14	0.716
349.35	0.716
349.56	0.709
349.77	0.704
349.98	0.710
350.19	0.708
350.39	0.703
350.60	0.699
350.81	0.714
351.02	0.713
351.23	0.709
351.44	0.711
351.65	0.714
351.86	0.711
352.06	0.711
352.27	0.711
352.48	0.714
352.69	0.713
352.90	0.709
353.11	0.697
353.31	0.703
353.52	0.700
353.73	0.691
353.94	0.693
354.15	0.700
354.36	0.699
354.57	0.692
354.77	0.694
354.98	0.694
355.19	0.692
355.40	0.692
355.61	0.697
355.82	0.702
356.02	0.702
356.23	0.696
356.44	0.699
356.65	0.702
356.86	0.704
357.07	0.697
357.27	0.701
357.48	0.705
357.69	0.701
357.90	0.688
358.11	0.685
358.32	0.689
358.52	0.692
358.73	0.682
358.94	0.684
359.15	0.688
359.36	0.688
359.56	0.683
359.77	0.680
359.98	0.687
360.19	0.687
360.40	0.684
360.61	0.686
360.81	0.686
361.02	0.686
361.23	0.678
361.44	0.678
361.65	0.679
361.85	0.679
362.06	0.678
362.27	0.678
362.48	0.679
362.69	0.681
362.89	0.675
363.10	0.676
363.31	0.681
363.52	0.684
363.73	0.680
363.93	0.680
364.14	0.682
364.35	0.684
364.56	0.674
364.77	0.676
364.97	0.679
365.18	0.679
365.39	0.675
365.60	0.672
365.81	0.673
366.01	0.673
366.22	0.670
366.43	0.670
366.64	0.673
366.84	0.679
367.05	0.675
367.26	0.674
367.47	0.677
367.68	0.677
367.88	0.674
368.09	0.673
368.30	0.676
368.51	0.675
368.71	0.674
368.92	0.677
369.13	0.676
369.34	0.676
369.55	0.674
369.75	0.673
369.96	0.680
370.17	0.679
370.38	0.675
370.58	0.674
370.79	0.680
371.00	0.679
371.21	0.671
371.41	0.676
371.62	0.681
371.83	0.676
372.04	0.674
372.24	0.668
372.45	0.671
372.66	0.671
372.87	0.668
373.07	0.665
373.28	0.667
373.49	0.670
373.70	0.660
373.90	0.660
374.11	0.670
374.32	0.669
374.53	0.667
374.73	0.667
374.94	0.670
375.15	0.670
375.36	0.668
375.56	0.676
375.77	0.677
375.98	0.677
376.19	0.673
376.39	0.667
376.60	0.672
376.81	0.672
377.02	0.670
377.22	0.669
377.43	0.669
377.64	0.669
377.84	0.659
378.05	0.663
378.26	0.669
378.47	0.669
378.67	0.666
378.88	0.663
379.09	0.663
379.30	0.663
379.50	0.661
379.71	0.663
379.92	0.666
380.12	0.665
380.33	0.657
380.54	0.653
380.75	0.660
380.95	0.661
381.16	0.659
381.37	0.659
381.57	0.661
381.78	0.662
381.99	0.661
382.20	0.660
382.40	0.664
382.61	0.664
382.82	0.660
383.02	0.654
383.23	0.657
383.44	0.657
383.64	0.654
383.85	0.657
384.06	0.659
384.27	0.657
384.47	0.654
384.68	0.654
384.89	0.660
385.09	0.660
385.30	0.658
385.51	0.657
385.71	0.661
385.92	0.661
386.13	0.659
386.33	0.661
386.54	0.663
386.75	0.662
386.95	0.658
387.16	0.653
387.37	0.655
387.58	0.655
387.78	0.654
387.99	0.652
388.20	0.654
388.40	0.651
388.61	0.647
388.82	0.650
389.02	0.652
389.23	0.652
389.44	0.650
389.64	0.650
389.85	0.661
390.06	0.660
390.26	0.659
390.47	0.658
390.68	0.660
390.88	0.659
391.09	0.654
391.30	0.654
391.50	0.654
391.71	0.654
391.92	0.651
392.12	0.645
392.33	0.646
392.53	0.646
392.74	0.645
392.95	0.645
393.15	0.648
393.36	0.650
393.57	0.647
393.77	0.650
393.98	0.652
394.19	0.651
394.39	0.650
394.60	0.651
394.81	0.652
395.01	0.650
395.22	0.647
395.43	0.648
395.63	0.652
395.84	0.653
396.04	0.649
396.25	0.651
396.46	0.653
396.66	0.652
396.87	0.648
397.08	0.645
397.28	0.648
397.49	0.649
397.69	0.645
397.90	0.640
398.11	0.642
398.31	0.642
398.52	0.638
398.73	0.638
398.93	0.638
399.14	0.637
399.34	0.636
399.55	0.637
399.76	0.637
399.96	0.639
400.17	0.637
400.37	0.635
400.58	0.641
400.79	0.643
400.99	0.640
401.20	0.644
401.41	0.647
401.61	0.647
401.82	0.651
402.02	0.650
402.23	0.651
402.44	0.650
402.64	0.650
402.85	0.644
403.05	0.644
403.26	0.643
403.47	0.637
403.67	0.637
403.88	0.638
404.08	0.633
404.29	0.631
404.50	0.630
404.70	0.631
404.91	0.630
405.11	0.627
405.32	0.627
405.52	0.627
405.73	0.627
405.94	0.624
406.14	0.627
406.35	0.629
406.55	0.630
406.76	0.627
406.97	0.628
407.17	0.631
407.38	0.631
407.58	0.629
407.79	0.631
407.99	0.634
408.20	0.635
408.41	0.630
408.61	0.628
408.82	0.630
409.02	0.630
409.23	0.627
409.43	0.626
409.64	0.628
409.84	0.628
410.05	0.624
410.26	0.623
410.46	0.622
410.67	0.621
410.87	0.622
411.08	0.623
411.28	0.625
411.49	0.626
411.69	0.624
411.90	0.625
412.11	0.627
412.31	0.628
412.52	0.626
412.72	0.628
412.93	0.629
413.13	0.628
413.34	0.624
413.54	0.626
413.75	0.627
413.95	0.627
414.16	0.623
414.37	0.625
414.57	0.626
414.78	0.627
414.98	0.625
415.19	0.626
415.39	0.625
415.60	0.627
415.80	0.625
416.01	0.624
416.21	0.626
416.42	0.627
416.62	0.622
416.83	0.623
417.03	0.623
417.24	0.623
417.44	0.621
417.65	0.620
417.86	0.620
418.06	0.618
418.27	0.616
418.47	0.617
418.68	0.618
418.88	0.619
419.09	0.617
419.29	0.617
419.50	0.618
419.70	0.618
419.91	0.617
420.11	0.616
420.32	0.619
420.52	0.619
420.73	0.618
420.93	0.619
421.14	0.620
421.34	0.620
421.55	0.616
421.75	0.616
421.96	0.618
422.16	0.618
422.37	0.617
422.57	0.614
422.78	0.616
422.98	0.613
423.19	0.611
423.39	0.610
423.60	0.613
423.80	0.615
424.01	0.614
424.21	0.616
424.42	0.618
424.62	0.617
424.83	0.617
425.03	0.617
425.23	0.619
425.44	0.619
425.64	0.619
425.85	0.618
426.05	0.619
426.26	0.620
426.46	0.616
426.67	0.615
426.87	0.620
427.08	0.620
427.28	0.618
427.49	0.618
427.69	0.620
427.90	0.619
428.10	0.616
428.31	0.616
428.51	0.617
428.71	0.616
428.92	0.617
429.12	0.615
429.33	0.617
429.53	0.620
429.74	0.624
429.94	0.624
430.15	0.624
430.35	0.625
430.56	0.622
430.76	0.622
430.96	0.623
431.17	0.621
431.37	0.618
431.58	0.617
431.78	0.614
431.99	0.608
432.19	0.610
432.40	0.611
432.60	0.612
432.80	0.614
433.01	0.612
433.21	0.612
433.42	0.614
433.62	0.615
433.83	0.614
434.03	0.616
434.23	0.620
434.44	0.618
434.64	0.616
434.85	0.621
435.05	0.622
435.26	0.622
435.46	0.620
435.66	0.620
435.87	0.620
436.07	0.620
436.28	0.616
436.48	0.614
436.69	0.614
436.89	0.614
437.09	0.608
437.30	0.608
437.50	0.609
437.71	0.620
437.91	0.619
438.11	0.620
438.32	0.625
438.52	0.626
438.73	0.624
438.93	0.623
439.13	0.624
439.34	0.627
439.54	0.624
439.75	0.625
439.95	0.616
440.15	0.620
440.36	0.618
440.56	0.616
440.77	0.617
440.97	0.617
441.17	0.616
441.38	0.617
441.58	0.615
441.79	0.615
441.99	0.613
442.19	0.612
442.40	0.611
442.60	0.611
442.81	0.609
443.01	0.609
443.21	0.610
443.42	0.610
443.62	0.608
443.82	0.608
444.03	0.610
444.23	0.610
444.44	0.610
444.64	0.609
444.84	0.611
445.05	0.611
445.25	0.608
445.45	0.609
445.66	0.612
445.86	0.612
446.06	0.613
446.27	0.612
446.47	0.616
446.68	0.615
446.88	0.613
447.08	0.613
447.29	0.616
447.49	0.616
447.69	0.615
447.90	0.614
448.10	0.618
448.30	0.616
448.51	0.617
448.71	0.614
448.91	0.617
449.12	0.616
449.32	0.616
449.52	0.615
449.73	0.620
449.93	0.619
450.14	0.619
450.34	0.618
450.54	0.620
450.75	0.618
450.95	0.617
451.15	0.616
451.36	0.619
451.56	0.616
451.76	0.615
451.97	0.612
452.17	0.613
452.37	0.611
452.58	0.608
452.78	0.608
452.98	0.611
453.19	0.611
453.39	0.611
453.59	0.610
453.79	0.612
454.00	0.612
454.20	0.611
454.40	0.611
454.61	0.614
454.81	0.615
455.01	0.612
455.22	0.613
455.42	0.616
455.62	0.613
455.83	0.613
456.03	0.616
456.23	0.618
456.44	0.619
456.64	0.617
456.84	0.617
457.04	0.618
457.25	0.618
457.45	0.615
457.65	0.614
457.86	0.616
458.06	0.614
458.26	0.609
458.47	0.608
458.67	0.610
458.87	0.610
459.07	0.607
459.28	0.609
459.48	0.612
459.68	0.612
459.89	0.611
460.09	0.611
460.29	0.612
460.49	0.614
460.70	0.612
460.90	0.612
461.10	0.613
461.31	0.613
461.51	0.610
461.71	0.611
461.91	0.613
462.12	0.612
462.32	0.611
462.52	0.612
462.72	0.616
462.93	0.617
463.13	0.615
463.33	0.615
463.53	0.617
463.74	0.617
463.94	0.612
464.14	0.612
464.35	0.614
464.55	0.614
464.75	0.612
464.95	0.609
465.16	0.612
465.36	0.611
465.56	0.609
465.76	0.609
465.97	0.610
466.17	0.610
466.37	0.608
466.57	0.610
466.78	0.611
466.98	0.611
467.18	0.608
467.38	0.607
467.59	0.609
467.79	0.610
467.99	0.609
468.19	0.610
468.39	0.613
468.60	0.614
468.80	0.612
469.00	0.613
469.20	0.614
469.41	0.614
469.61	0.613
469.81	0.614
470.01	0.614
470.22	0.615
470.42	0.613
470.62	0.611
470.82	0.613
471.02	0.611
471.23	0.609
471.43	0.610
471.63	0.612
471.83	0.611
472.04	0.609
472.24	0.608
472.44	0.613
472.64	0.613
472.84	0.611
473.05	0.611
473.25	0.614
473.45	0.614
473.65	0.612
473.85	0.613
474.06	0.614
474.26	0.614
474.46	0.615
474.66	0.612
474.86	0.614
475.07	0.614
475.27	0.611
475.47	0.609
475.67	0.610
475.87	0.612
476.08	0.608
476.28	0.609
476.48	0.611
476.68	0.610
476.88	0.607
477.09	0.608
477.29	0.610
477.49	0.611
477.69	0.609
477.89	0.609
478.09	0.608
478.30	0.611
478.50	0.607
478.70	0.607
478.90	0.607
479.10	0.610
479.31	0.611
479.51	0.609
479.71	0.610
479.91	0.611
480.11	0.609
480.31	0.609
480.52	0.609
480.72	0.609
480.92	0.608
481.12	0.608
481.32	0.606
481.52	0.604
481.72	0.604
481.93	0.607
482.13	0.607
482.33	0.607
482.53	0.605
482.73	0.605
482.93	0.606
483.14	0.606
483.34	0.605
483.54	0.605
483.74	0.605
483.94	0.604
484.14	0.600
484.34	0.600
484.55	0.601
484.75	0.601
484.95	0.600
485.15	0.600
485.35	0.600
485.55	0.600
485.75	0.598
485.96	0.599
486.16	0.601
486.36	0.600
486.56	0.599
486.76	0.599
486.96	0.600
487.16	0.600
487.36	0.598
487.57	0.598
487.77	0.599
487.97	0.599
488.17	0.597
488.37	0.596
488.57	0.597
488.77	0.597
488.97	0.595
489.18	0.594
489.38	0.597
489.58	0.598
489.78	0.597
489.98	0.597
490.18	0.597
490.38	0.598
490.58	0.596
490.78	0.597
490.98	0.599
491.19	0.599
491.39	0.598
491.59	0.597
491.79	0.600
491.99	0.601
492.19	0.600
492.39	0.603
492.59	0.603
492.79	0.606
492.99	0.605
493.20	0.605
493.40	0.606
493.60	0.607
493.80	0.605
494.00	0.603
494.20	0.604
494.40	0.604
494.60	0.601
494.80	0.605
495.00	0.604
495.20	0.603
495.40	0.601
495.61	0.603
495.81	0.603
496.01	0.607
496.21	0.608
496.41	0.607
496.61	0.608
496.81	0.607
497.01	0.602
497.21	0.601
497.41	0.602
497.61	0.602
497.81	0.599
498.01	0.599
498.21	0.597
498.41	0.595
498.61	0.595
498.82	0.597
499.02	0.599
499.22	0.600
499.42	0.599
499.62	0.600
499.82	0.601
500.02	0.602
500.22	0.600
500.42	0.602
500.62	0.604
500.82	0.604
501.02	0.601
501.22	0.601
501.42	0.602
501.62	0.604
501.82	0.603
502.02	0.604
502.22	0.605
502.42	0.607
502.62	0.604
502.82	0.605
503.02	0.606
503.22	0.605
503.42	0.603
503.63	0.603
503.83	0.601
504.03	0.600
504.23	0.598
504.43	0.599
504.63	0.600
504.83	0.599
505.03	0.598
505.23	0.599
505.43	0.601
505.63	0.602
505.83	0.601
506.03	0.603
506.23	0.606
506.43	0.606
506.63	0.604
506.83	0.604
507.03	0.606
507.23	0.606
507.43	0.604
507.63	0.605
507.83	0.605
508.03	0.605
508.23	0.604
508.43	0.602
508.63	0.605
508.83	0.605
509.03	0.605
509.23	0.604
509.43	0.606
509.63	0.606
509.83	0.605
510.03	0.607
510.23	0.609
510.43	0.610
510.63	0.610
510.83	0.610
511.03	0.612
511.23	0.610
511.43	0.609
511.63	0.611
511.83	0.614
512.03	0.614
512.22	0.610
512.42	0.609
512.62	0.611
512.82	0.610
513.02	0.609
513.22	0.608
513.42	0.610
513.62	0.613
513.82	0.610
514.02	0.609
514.22	0.611
514.42	0.611
514.62	0.611
514.82	0.611
515.02	0.614
515.22	0.617
515.42	0.615
515.62	0.618
515.82	0.617
516.02	0.619
516.22	0.619
516.42	0.620
516.62	0.622
516.82	0.623
517.01	0.621
517.21	0.621
517.41	0.625
517.61	0.625
517.81	0.620
518.01	0.620
518.21	0.620
518.41	0.618
518.61	0.617
518.81	0.618
519.01	0.619
519.21	0.619
519.41	0.617
519.61	0.612
519.81	0.615
520.00	0.616
520.20	0.616
520.40	0.619
520.60	0.620
520.80	0.618
521.00	0.618
521.20	0.620
521.40	0.625
521.60	0.626
521.80	0.624
522.00	0.624
522.20	0.628
522.39	0.627
522.59	0.624
522.79	0.625
522.99	0.628
523.19	0.626
523.39	0.623
523.59	0.621
523.79	0.624
523.99	0.627
524.19	0.626
524.38	0.624
524.58	0.626
524.78	0.627
524.98	0.624
525.18	0.626
525.38	0.628
525.58	0.629
525.78	0.626
525.98	0.625
526.18	0.626
526.37	0.625
526.57	0.627
526.77	0.627
526.97	0.627
527.17	0.628
527.37	0.624
527.57	0.626
527.77	0.628
527.96	0.628
528.16	0.626
528.36	0.627
528.56	0.629
528.76	0.627
528.96	0.626
529.16	0.627
529.36	0.631
529.55	0.631
529.75	0.628
529.95	0.629
530.15	0.632
530.35	0.634
530.55	0.631
530.75	0.631
530.94	0.633
531.14	0.633
531.34	0.631
531.54	0.629
531.74	0.633
531.94	0.635
532.13	0.632
532.33	0.633
532.53	0.633
532.73	0.632
532.93	0.630
533.13	0.631
533.33	0.632
533.52	0.633
533.72	0.635
533.92	0.633
534.12	0.632
534.32	0.633
534.52	0.632
534.71	0.633
534.91	0.636
535.11	0.637
535.31	0.635
535.51	0.637
535.71	0.640
535.90	0.637
536.10	0.638
536.30	0.640
536.50	0.641
536.70	0.640
536.89	0.638
537.09	0.637
537.29	0.639
537.49	0.640
537.69	0.637
537.89	0.638
538.08	0.638
538.28	0.636
538.48	0.636
538.68	0.638
538.88	0.640
539.07	0.640
539.27	0.638
539.47	0.637
539.67	0.637
539.87	0.639
540.06	0.636
540.26	0.637
540.46	0.639
540.66	0.636
540.86	0.634
541.05	0.634
541.25	0.636
541.45	0.637
541.65	0.635
541.84	0.637
542.04	0.638
542.24	0.638
542.44	0.637
542.64	0.637
542.83	0.640
543.03	0.641
543.23	0.638
543.43	0.638
543.62	0.639
543.82	0.640
544.02	0.639
544.22	0.639
544.42	0.642
544.61	0.642
544.81	0.640
545.01	0.639
545.21	0.641
545.40	0.642
545.60	0.640
545.80	0.643
546.00	0.644
546.19	0.643
546.39	0.642
546.59	0.639
546.79	0.642
546.98	0.642
547.18	0.641
547.38	0.643
547.58	0.646
547.77	0.647
547.97	0.643
548.17	0.644
548.37	0.645
548.56	0.646
548.76	0.644
548.96	0.646
549.16	0.650
549.35	0.650
549.55	0.646
549.75	0.647
549.95	0.651
550.14	0.652
550.34	0.649
550.54	0.654
550.73	0.658
550.93	0.659
551.13	0.655
551.33	0.653
551.52	0.654
551.72	0.655
551.92	0.652
552.12	0.651
552.31	0.653
552.51	0.653
552.71	0.647
552.90	0.647
553.10	0.649
553.30	0.649
553.50	0.648
553.69	0.649
553.89	0.650
554.09	0.651
554.28	0.648
554.48	0.649
554.68	0.651
554.87	0.652
555.07	0.648
555.27	0.648
555.47	0.649
555.66	0.650
555.86	0.648
556.06	0.650
556.25	0.652
556.45	0.659
556.65	0.657
556.84	0.660
557.04	0.664
557.24	0.666
557.43	0.665
557.63	0.668
557.83	0.670
558.02	0.671
558.22	0.674
558.42	0.674
558.61	0.667
558.81	0.667
559.01	0.663
559.21	0.663
559.40	0.664
559.60	0.664
559.80	0.660
559.99	0.662
560.19	0.665
560.39	0.659
560.58	0.656
560.78	0.657
560.97	0.661
561.17	0.660
561.37	0.656
561.56	0.657
561.76	0.659
561.96	0.659
562.15	0.656
562.35	0.658
562.55	0.659
562.74	0.659
562.94	0.657
563.14	0.656
563.33	0.657
563.53	0.657
563.73	0.655
563.92	0.656
564.12	0.659
564.31	0.662
564.51	0.660
564.71	0.662
564.90	0.666
565.10	0.668
565.30	0.670
565.49	0.671
565.69	0.674
565.89	0.674
566.08	0.671
566.28	0.672
566.47	0.674
566.67	0.671
566.87	0.667
567.06	0.668
567.26	0.675
567.46	0.670
567.65	0.668
567.85	0.670
568.04	0.673
568.24	0.672
568.44	0.668
568.63	0.666
568.83	0.668
569.02	0.666
569.22	0.661
569.42	0.657
569.61	0.661
569.81	0.659
570.00	0.657
570.20	0.658
570.40	0.660
570.59	0.660
570.79	0.658
570.98	0.656
571.18	0.658
571.38	0.657
571.57	0.654
571.77	0.652
571.96	0.655
572.16	0.653
572.35	0.647
572.55	0.648
572.75	0.647
572.94	0.647
573.14	0.645
573.33	0.646
573.53	0.647
573.73	0.647
573.92	0.644
574.12	0.643
574.31	0.646
574.51	0.647
574.70	0.643
574.90	0.645
575.09	0.647
575.29	0.647
575.49	0.644
575.68	0.645
575.88	0.647
576.07	0.648
576.27	0.646
576.46	0.645
576.66	0.644
576.86	0.644
577.05	0.641
577.25	0.639
577.44	0.641
577.64	0.641
577.83	0.638
578.03	0.639
578.22	0.639
578.42	0.638
578.61	0.636
578.81	0.637
579.00	0.638
579.20	0.639
579.40	0.637
579.59	0.636
579.79	0.637
579.98	0.637
580.18	0.636
580.37	0.637
580.57	0.640
580.76	0.644
580.96	0.642
581.15	0.642
581.35	0.644
581.54	0.644
581.74	0.643
581.93	0.644
582.13	0.646
582.32	0.644
582.52	0.642
582.71	0.642
582.91	0.639
583.10	0.639
583.30	0.638
583.49	0.637
583.69	0.641
583.88	0.642
584.08	0.642
584.27	0.643
584.47	0.647
584.66	0.647
584.86	0.645
585.05	0.647
585.25	0.649
585.44	0.649
585.64	0.647
585.83	0.645
586.03	0.646
586.22	0.645
586.42	0.641
586.61	0.643
586.81	0.646
587.00	0.646
587.20	0.643
587.39	0.644
587.59	0.646
587.78	0.648
587.98	0.647
588.17	0.648
588.37	0.650
588.56	0.652
588.76	0.648
588.95	0.648
589.15	0.652
589.34	0.655
589.54	0.652
589.73	0.652
589.92	0.655
590.12	0.655
590.31	0.652
590.51	0.657
590.70	0.658
590.90	0.658
591.09	0.655
591.29	0.654
591.48	0.655
591.68	0.656
591.87	0.654
592.06	0.654
592.26	0.657
592.45	0.656
592.65	0.650
592.84	0.650
593.04	0.653
593.23	0.656
593.43	0.653
593.62	0.653
593.81	0.654
594.01	0.654
594.20	0.651
594.40	0.651
594.59	0.653
594.79	0.655
594.98	0.653
595.17	0.651
595.37	0.651
595.56	0.653
595.76	0.651
595.95	0.653
596.14	0.656
596.34	0.657
596.53	0.654
596.73	0.655
596.92	0.656
597.12	0.659
597.31	0.658
597.50	0.657
597.70	0.659
597.89	0.659
598.09	0.655
598.28	0.656
598.47	0.659
598.67	0.657
598.86	0.654
599.06	0.655
599.25	0.656
599.44	0.655
599.64	0.652
599.83	0.650
600.03	0.654
600.22	0.655
600.41	0.655
600.61	0.653
600.80	0.656
601.00	0.658
601.19	0.654
601.38	0.652
601.58	0.655
601.77	0.656
601.96	0.658
602.16	0.658
602.35	0.667
602.55	0.664
602.74	0.663
602.93	0.664
603.13	0.669
603.32	0.670
603.51	0.669
603.71	0.671
603.90	0.673
604.09	0.673
604.29	0.670
604.48	0.664
604.68	0.666
604.87	0.665
605.06	0.661
605.26	0.657
605.45	0.659
605.64	0.658
605.84	0.653
606.03	0.653
606.22	0.653
606.42	0.652
606.61	0.648
606.80	0.648
607.00	0.651
607.19	0.651
607.38	0.650
607.58	0.652
607.77	0.655
607.96	0.655
608.16	0.654
608.35	0.658
608.54	0.662
608.74	0.666
608.93	0.670
609.12	0.673
609.32	0.676
609.51	0.679
609.70	0.677
609.90	0.679
610.09	0.685
610.28	0.689
610.48	0.682
610.67	0.683
610.86	0.684
611.06	0.679
611.25	0.676
611.44	0.676
611.64	0.676
611.83	0.678
612.02	0.673
612.21	0.672
612.41	0.672
612.60	0.671
612.79	0.667
612.99	0.667
613.18	0.670
613.37	0.668
613.57	0.665
613.76	0.668
613.95	0.666
614.14	0.666
614.34	0.663
614.53	0.663
614.72	0.667
614.92	0.667
615.11	0.664
615.30	0.662
615.49	0.665
615.69	0.667
615.88	0.663
616.07	0.665
616.26	0.668
616.46	0.670
616.65	0.666
616.84	0.665
617.04	0.668
617.23	0.671
617.42	0.671
617.61	0.675
617.81	0.676
618.00	0.677
618.19	0.675
618.38	0.678
618.58	0.682
618.77	0.683
618.96	0.681
619.15	0.682
619.35	0.684
619.54	0.685
619.73	0.680
619.92	0.681
620.12	0.687
620.31	0.687
620.50	0.681
620.69	0.681
620.89	0.686
621.08	0.686
621.27	0.686
621.46	0.685
621.66	0.689
621.85	0.689
622.04	0.685
622.23	0.685
622.43	0.686
622.62	0.686
622.81	0.685
623.00	0.684
623.19	0.689
623.39	0.688
623.58	0.685
623.77	0.684
623.96	0.688
624.16	0.688
624.35	0.683
624.54	0.686
624.73	0.691
624.92	0.688
625.12	0.685
625.31	0.686
625.50	0.689
625.69	0.691
625.88	0.686
626.08	0.686
626.27	0.688
626.46	0.688
626.65	0.685
626.84	0.684
627.04	0.691
627.23	0.690
627.42	0.685
627.61	0.686
627.80	0.690
628.00	0.691
628.19	0.689
628.38	0.692
628.57	0.695
628.76	0.694
628.96	0.690
629.15	0.692
629.34	0.695
629.53	0.696
629.72	0.690
629.91	0.690
630.11	0.697
630.30	0.697
630.49	0.698
630.68	0.699
630.87	0.704
631.06	0.707
631.26	0.700
631.45	0.703
631.64	0.712
631.83	0.714
632.02	0.711
632.21	0.709
632.41	0.718
632.60	0.712
632.79	0.709
632.98	0.710
633.17	0.712
633.36	0.714
633.55	0.709
633.75	0.705
633.94	0.709
634.13	0.709
634.32	0.705
634.51	0.699
634.70	0.702
634.89	0.702
635.09	0.697
635.28	0.699
635.47	0.702
635.66	0.705
635.85	0.700
636.04	0.702
636.23	0.707
636.43	0.709
636.62	0.707
636.81	0.706
637.00	0.710
637.19	0.713
637.38	0.708
637.57	0.707
637.76	0.709
637.95	0.711
638.15	0.705
638.34	0.702
638.53	0.708
638.72	0.710
638.91	0.706
639.10	0.703
639.29	0.705
639.48	0.706
639.67	0.705
639.87	0.704
640.06	0.711
640.25	0.710
640.44	0.710
640.63	0.709
640.82	0.712
641.01	0.712
641.20	0.710
641.39	0.712
641.58	0.715
641.78	0.714
641.97	0.708
642.16	0.722
642.35	0.725
642.54	0.723
642.73	0.717
642.92	0.716
643.11	0.720
643.30	0.720
643.49	0.715
643.68	0.718
643.87	0.720
644.06	0.721
644.25	0.699
644.45	0.701
644.64	0.705
644.83	0.705
645.02	0.701
645.21	0.700
645.40	0.702
645.59	0.701
645.78	0.693
645.97	0.696
646.16	0.697
646.35	0.697
646.54	0.694
646.73	0.695
646.92	0.697
647.11	0.696
647.30	0.691
647.49	0.693
647.68	0.694
647.88	0.692
648.07	0.683
648.26	0.686
648.45	0.689
648.64	0.686
648.83	0.681
649.02	0.684
649.21	0.697
649.40	0.696
649.59	0.690
649.78	0.691
649.97	0.707
650.16	0.707
650.35	0.701
650.54	0.703
650.73	0.713
650.92	0.709
651.11	0.701
651.30	0.697
651.49	0.702
651.68	0.704
651.87	0.700
652.06	0.689
652.25	0.692
652.44	0.692
652.63	0.685
652.82	0.682
653.01	0.682
653.20	0.679
653.39	0.666
653.58	0.662
653.77	0.662
653.96	0.657
654.15	0.649
654.34	0.648
654.53	0.645
654.72	0.642
654.91	0.633
655.10	0.630
655.29	0.629
655.48	0.627
655.67	0.623
655.86	0.620
656.05	0.620
656.24	0.620
656.43	0.614
656.62	0.614
656.81	0.616
657.00	0.616
657.19	0.614
657.38	0.616
657.57	0.617
657.76	0.620
657.95	0.619
658.14	0.623
658.33	0.627
658.51	0.632
658.70	0.633
658.89	0.633
659.08	0.641
659.27	0.647
659.46	0.646
659.65	0.651
659.84	0.655
660.03	0.658
660.22	0.658
660.41	0.662
660.60	0.663
660.79	0.664
660.98	0.669
661.17	0.669
661.36	0.668
661.55	0.668
661.74	0.665
661.92	0.668
662.11	0.671
662.30	0.669
662.49	0.661
662.68	0.660
662.87	0.665
663.06	0.659
663.25	0.660
663.44	0.660
663.63	0.662
663.82	0.661
664.01	0.655
664.20	0.653
664.38	0.656
664.57	0.657
664.76	0.656
664.95	0.655
665.14	0.661
665.33	0.656
665.52	0.662
665.71	0.665
665.90	0.666
666.09	0.667
666.28	0.663
666.46	0.662
666.65	0.664
666.84	0.662
667.03	0.656
667.22	0.654
667.41	0.657
667.60	0.647
667.79	0.639
667.98	0.641
668.16	0.643
668.35	0.642
668.54	0.637
668.73	0.638
668.92	0.638
669.11	0.637
669.30	0.630
669.49	0.626
669.67	0.628
669.86	0.630
670.05	0.626
670.24	0.624
670.43	0.622
670.62	0.622
670.81	0.616
671.00	0.618
671.18	0.619
671.37	0.619
671.56	0.617
671.75	0.616
671.94	0.614
672.13	0.611
672.32	0.606
672.50	0.607
672.69	0.607
672.88	0.607
673.07	0.602
673.26	0.604
673.45	0.605
673.63	0.605
673.82	0.601
674.01	0.602
674.20	0.602
674.39	0.601
674.58	0.599
674.76	0.599
674.95	0.599
675.14	0.599
675.33	0.594
675.52	0.592
675.71	0.593
675.89	0.592
676.08	0.588
676.27	0.588
676.46	0.589
676.65	0.589
676.84	0.588
677.02	0.590
677.21	0.593
677.40	0.592
677.59	0.589
677.78	0.590
677.96	0.594
678.15	0.594
678.34	0.591
678.53	0.592
678.72	0.593
678.90	0.589
679.09	0.585
679.28	0.581
679.47	0.583
679.66	0.582
679.84	0.578
680.03	0.575
680.22	0.575
680.41	0.577
680.60	0.572
680.78	0.573
680.97	0.576
681.16	0.576
681.35	0.574
681.53	0.572
681.72	0.574
681.91	0.577
682.10	0.574
682.29	0.576
682.47	0.574
682.66	0.573
682.85	0.571
683.04	0.568
683.22	0.568
683.41	0.570
683.60	0.568
683.79	0.569
683.97	0.568
684.16	0.567
684.35	0.562
684.54	0.563
684.72	0.564
684.91	0.566
685.10	0.564
685.29	0.566
685.47	0.563
685.66	0.563
685.85	0.559
686.04	0.558
686.22	0.562
686.41	0.564
686.60	0.561
686.79	0.563
686.97	0.565
687.16	0.567
687.35	0.563
687.54	0.567
687.72	0.571
687.91	0.570
688.10	0.571
688.29	0.570
688.47	0.569
688.66	0.568
688.85	0.564
689.03	0.561
689.22	0.566
689.41	0.567
689.60	0.561
689.78	0.558
689.97	0.560
690.16	0.557
690.34	0.553
690.53	0.553
690.72	0.554
690.91	0.552
691.09	0.549
691.28	0.543
691.47	0.542
691.65	0.541
691.84	0.538
692.03	0.537
692.21	0.536
692.40	0.536
692.59	0.533
692.77	0.533
692.96	0.535
693.15	0.536
693.34	0.533
693.52	0.534
693.71	0.536
693.90	0.537
694.08	0.537
694.27	0.538
694.46	0.549
694.64	0.550
694.83	0.548
695.02	0.547
695.20	0.546
695.39	0.546
695.58	0.545
695.76	0.545
695.95	0.546
696.14	0.545
696.32	0.542
696.51	0.532
696.70	0.532
696.88	0.534
697.07	0.532
697.26	0.534
697.44	0.536
697.63	0.534
697.81	0.532
698.00	0.531
698.19	0.531
698.37	0.532
698.56	0.531
698.75	0.531
698.93	0.531
699.12	0.531
699.31	0.529
699.49	0.528
699.68	0.530
699.87	0.533
700.05	0.532
700.24	0.531
700.42	0.533
700.61	0.532
700.80	0.529
700.98	0.529
701.17	0.530
701.36	0.530
701.54	0.529
701.73	0.529
701.91	0.527
702.10	0.527
702.29	0.525
702.47	0.524
702.66	0.526
702.84	0.528
703.03	0.526
703.22	0.527
703.40	0.527
703.59	0.529
703.77	0.528
703.96	0.528
704.15	0.529
704.33	0.529
704.52	0.528
704.70	0.527
704.89	0.527
705.08	0.526
705.26	0.521
705.45	0.521
705.63	0.521
705.82	0.517
706.00	0.515
706.19	0.515
706.38	0.515
706.56	0.515
706.75	0.512
706.93	0.511
707.12	0.513
707.30	0.513
707.49	0.510
707.68	0.508
707.86	0.508
708.05	0.508
708.23	0.504
708.42	0.505
708.60	0.509
708.79	0.509
708.98	0.508
709.16	0.508
709.35	0.511
709.53	0.514
709.72	0.513
709.90	0.516
710.09	0.518
710.27	0.521
710.46	0.523
710.64	0.521
710.83	0.524
711.02	0.525
711.20	0.522
711.39	0.520
711.57	0.518
711.76	0.519
711.94	0.516
712.13	0.516
712.31	0.516
712.50	0.511
712.68	0.507
712.87	0.508
713.05	0.509
713.24	0.510
713.42	0.508
713.61	0.509
713.79	0.510
713.98	0.511
714.16	0.511
714.35	0.511
714.54	0.512
714.72	0.512
714.91	0.510
715.09	0.516
715.28	0.519
715.46	0.519
715.65	0.516
715.83	0.515
716.02	0.519
716.20	0.515
716.39	0.514
716.57	0.516
716.76	0.519
716.94	0.519
717.12	0.511
717.31	0.512
717.49	0.516
717.68	0.518
717.86	0.517
718.05	0.518
718.23	0.521
718.42	0.523
718.60	0.524
718.79	0.532
718.97	0.535
719.16	0.536
719.34	0.534
719.53	0.534
719.71	0.534
719.90	0.536
720.08	0.533
720.27	0.533
720.45	0.534
720.63	0.533
720.82	0.526
721.00	0.529
721.19	0.533
721.37	0.532
721.56	0.532
721.74	0.535
721.93	0.543
722.11	0.549
722.30	0.547
722.48	0.551
722.66	0.553
722.85	0.552
723.03	0.552
723.22	0.550
723.40	0.554
723.59	0.554
723.77	0.557
723.95	0.550
724.14	0.554
724.32	0.556
724.51	0.554
724.69	0.555
724.88	0.557
725.06	0.555
725.24	0.556
725.43	0.556
725.61	0.560
725.80	0.554
725.98	0.551
726.16	0.547
726.35	0.553
726.53	0.552
726.72	0.550
726.90	0.561
727.09	0.562
727.27	0.568
727.45	0.564
727.64	0.572
727.82	0.582
728.01	0.586
728.19	0.583
728.37	0.588
728.56	0.592
728.74	0.599
728.92	0.585
729.11	0.588
729.29	0.587
729.48	0.589
729.66	0.577
729.84	0.576
730.03	0.580
730.21	0.581
730.40	0.570
730.58	0.573
730.76	0.574
730.95	0.575
731.13	0.573
731.31	0.587
731.50	0.597
731.68	0.601
731.86	0.596
732.05	0.613
732.23	0.619
732.42	0.622
732.60	0.624
732.78	0.630
732.97	0.653
733.15	0.660
733.33	0.645
733.52	0.653
733.70	0.666
733.88	0.676
734.07	0.657
734.25	0.684
734.43	0.695
734.62	0.697
734.80	0.688
734.98	0.677
735.17	0.688
735.35	0.694
735.53	0.678
735.72	0.683
735.90	0.708
736.08	0.728
736.27	0.700
736.45	0.709
736.63	0.725
736.82	0.733
737.00	0.732
737.18	0.742
737.37	0.778
737.55	0.802
737.73	0.793
737.92	0.798
738.10	0.799
738.28	0.823
738.46	0.809
738.65	0.822
738.83	0.854
739.01	0.912
739.20	0.895
739.38	0.878
739.56	0.875
739.75	0.877
739.93	0.833
740.11	0.861
740.29	0.863
740.48	0.864
740.66	0.841
740.84	0.835
741.03	0.804
741.21	0.815
741.39	0.788
741.57	0.800
741.76	0.825
741.94	0.830
742.12	0.788
742.31	0.798
742.49	0.827
742.67	0.851
742.85	0.860
743.04	0.862
743.22	0.876
743.40	0.934
743.58	0.911
743.77	0.930
743.95	0.980
744.13	1.041
744.31	1.005
744.50	1.001
744.68	1.012
744.86	0.985
745.04	0.998
745.23	1.077
745.41	1.069
745.59	1.079
745.77	1.031
745.96	1.013
746.14	1.029
746.32	1.031
746.50	1.013
746.69	0.988
746.87	1.008
747.05	0.988
747.23	0.901
747.42	0.889
747.60	0.929
747.78	0.933
747.96	0.963
748.14	0.912
748.33	0.948
748.51	0.940
748.69	0.925
748.87	0.962
749.06	0.967
749.24	0.963
749.42	0.935
749.60	0.908
749.78	0.921
749.97	0.871
750.15	0.857
750.33	0.859
750.51	0.892
750.69	0.903
750.88	0.896
751.06	0.907
751.24	0.944
751.42	0.933
751.60	0.920
751.79	1.002
751.97	1.065
752.15	1.068
752.33	1.021
752.51	1.090
752.69	1.112
752.88	1.073
753.06	1.114
753.24	1.082
753.42	1.137
753.60	1.352
753.78	1.158
753.97	1.174
754.15	1.209
754.33	1.247
754.51	1.086
754.69	1.066
754.87	1.108
755.06	1.025
755.24	1.022
755.42	1.027
755.60	0.923
755.78	0.930
755.96	0.869
756.15	0.870
756.33	0.882
756.51	0.902
756.69	0.879
756.87	0.843
757.05	0.869
757.23	0.852
757.42	0.812
757.60	0.809
757.78	0.800
757.96	0.796
758.14	0.774
758.32	0.755
758.50	0.774
758.69	0.778
758.87	0.767
759.05	0.771
759.23	0.785
759.41	0.787
759.59	0.778
759.77	0.805
759.95	0.841
760.13	0.892
760.32	0.888
760.50	0.885
760.68	0.915
760.86	0.916
761.04	0.880
761.22	0.881
761.40	0.937
761.58	0.934
761.76	0.893
761.95	0.873
762.13	0.833
762.31	0.836
762.49	0.797
762.67	0.814
762.85	0.834
763.03	0.829
763.21	0.806
763.39	0.790
763.57	0.798
763.75	0.792
763.94	0.771
764.12	0.769
764.30	0.798
764.48	0.804
764.66	0.762
764.84	0.757
765.02	0.802
765.20	0.810
765.38	0.785
765.56	0.794
765.74	0.843
765.92	0.845
766.10	0.852
766.28	0.843
766.46	0.882
766.65	0.884
766.83	0.868
767.01	0.848
767.19	0.862
767.37	0.859
767.55	0.837
767.73	0.814
767.91	0.824
768.09	0.811
768.27	0.793
768.45	0.779
768.63	0.784
768.81	0.785
768.99	0.754
769.17	0.779
769.35	0.801
769.53	0.799
769.71	0.778
769.89	0.789
770.07	0.800
770.25	0.783
770.43	0.757
770.61	0.787
770.79	0.798
770.97	0.808
771.15	0.770
771.33	0.772
771.51	0.780
771.69	0.788
771.87	0.788
772.05	0.791
772.24	0.805
772.42	0.813
772.60	0.783
772.78	0.847
772.96	0.883
773.14	0.880
773.32	0.851
773.49	0.854
773.67	0.858
773.85	0.838
774.03	0.825
774.21	0.862
774.39	0.880
774.57	0.910
774.75	0.826
774.93	0.822
775.11	0.854
775.29	0.860
775.47	0.860
775.65	0.871
775.83	0.897
776.01	0.920
776.19	0.858
776.37	0.860
776.55	0.857
776.73	0.854
776.91	0.842
777.09	0.822
777.27	0.825
777.45	0.813
777.63	0.785
777.81	0.781
777.99	0.770
778.17	0.772
778.35	0.748
778.53	0.740
778.71	0.751
778.89	0.738
779.07	0.722
779.24	0.730
779.42	0.735
779.60	0.758
779.78	0.753
779.96	0.761
780.14	0.773
780.32	0.793
780.50	0.771
780.68	0.770
780.86	0.765
781.04	0.783
781.22	0.784
781.40	0.796
781.58	0.785
781.75	0.775
781.93	0.753
782.11	0.752
782.29	0.741
782.47	0.739
782.65	0.721
782.83	0.750
783.01	0.748
783.19	0.737
783.37	0.718
783.55	0.724
783.72	0.748
783.90	0.758
784.08	0.746
784.26	0.758
784.44	0.782
784.62	0.784
784.80	0.747
784.98	0.754
785.16	0.764
785.33	0.780
785.51	0.758
785.69	0.742
785.87	0.744
786.05	0.755
786.23	0.746
786.41	0.746
786.59	0.754
786.77	0.751
786.94	0.733
787.12	0.736
787.30	0.741
787.48	0.738
787.66	0.723
787.84	0.722
788.02	0.715
788.19	0.712
788.37	0.692
788.55	0.694
788.73	0.698
788.91	0.691
789.09	0.671
789.27	0.660
789.44	0.674
789.62	0.681
789.80	0.689
789.98	0.717
790.16	0.707
790.34	0.705
790.51	0.691
790.69	0.711
790.87	0.721
791.05	0.718
791.23	0.708
791.41	0.710
791.58	0.722
791.76	0.698
791.94	0.662
792.12	0.672
792.30	0.677
792.48	0.675
792.65	0.667
792.83	0.674
793.01	0.685
793.19	0.681
793.37	0.662
793.54	0.659
793.72	0.674
793.90	0.674
794.08	0.660
794.26	0.661
794.43	0.673
794.61	0.656
794.79	0.643
794.97	0.642
795.15	0.653
795.32	0.658
795.50	0.643
795.68	0.638
795.86	0.643
796.04	0.644
796.21	0.636
796.39	0.634
796.57	0.652
796.75	0.661
796.92	0.660
797.10	0.663
797.28	0.671
797.46	0.675
797.64	0.673
797.81	0.683
797.99	0.690
798.17	0.695
798.35	0.685
798.52	0.687
798.70	0.684
798.88	0.692
799.06	0.688
799.23	0.689
799.41	0.700
799.59	0.693
799.77	0.679
799.94	0.691
800.12	0.703
800.30	0.722
800.48	0.717
800.65	0.718
800.83	0.710
801.01	0.702
801.19	0.700
801.36	0.696
801.54	0.702
801.72	0.711
801.90	0.692
802.07	0.688
802.25	0.675
802.43	0.658
802.60	0.651
802.78	0.659
802.96	0.667
803.14	0.659
803.31	0.654
803.49	0.654
803.67	0.651
803.84	0.656
804.02	0.645
804.20	0.647
804.38	0.655
804.55	0.654
804.73	0.635
804.91	0.636
805.08	0.648
805.26	0.643
805.44	0.702
805.61	0.707
805.79	0.709
805.97	0.710
806.15	0.699
806.32	0.693
806.50	0.702
806.68	0.703
806.85	0.693
807.03	0.687
807.21	0.712
807.38	0.647
807.56	0.634
807.74	0.644
807.91	0.653
808.09	0.656
808.27	0.672
808.44	0.702
808.62	0.714
808.80	0.714
808.97	0.703
809.15	0.694
809.33	0.713
809.50	0.721
809.68	0.700
809.86	0.708
810.03	0.745
810.21	0.724
810.39	0.701
810.56	0.709
810.74	0.737
810.91	0.815
811.09	0.800
811.27	0.824
811.44	0.834
811.62	0.839
811.80	0.818
811.97	0.783
812.15	0.786
812.33	0.783
812.50	0.761
812.68	0.750
812.85	0.695
813.03	0.698
813.21	0.661
813.38	0.655
813.56	0.661
813.74	0.670
813.91	0.677
814.09	0.710
814.26	0.706
814.44	0.710
814.62	0.696
814.79	0.700
814.97	0.706
815.14	0.713
815.32	0.715
815.50	0.733
815.67	0.739
815.85	0.728
816.02	0.713
816.20	0.721
816.38	0.745
816.55	0.751
816.73	0.745
816.90	0.757
817.08	0.791
817.26	0.800
817.43	0.771
817.61	0.801
817.78	0.829
817.96	0.805
818.13	0.789
818.31	0.785
818.49	0.804
818.66	0.795
818.84	0.775
819.01	0.753
819.19	0.762
819.36	0.766
819.54	0.728
819.71	0.771
819.89	0.790
820.07	0.806
820.24	0.798
820.42	0.798
820.59	0.821
820.77	0.848
820.94	0.829
821.12	0.849
821.29	0.870
821.47	0.874
821.64	0.802
821.82	0.818
822.00	0.816
822.17	0.810
822.35	0.798
822.52	0.805
822.70	0.797
822.87	0.809
823.05	0.780
823.22	0.795
823.40	0.827
823.57	0.854
823.75	0.827
823.92	0.860
824.10	0.890
824.27	0.943
824.45	0.921
824.62	1.000
824.80	1.034
824.97	1.053
825.15	1.030
825.32	1.049
825.50	1.061
825.67	1.078
825.85	1.040
826.02	1.070
826.20	1.117
826.37	1.318
826.55	1.173
826.72	1.519
826.90	1.794
827.07	2.046
827.25	1.768
827.42	-0.000
827.60	-0.000
827.77	-0.000
827.95	-0.000
828.12	-0.000
828.30	-0.000
828.47	-0.000
828.65	1.685
828.82	1.917
829.00	3.455
829.17	-0.000
829.34	-0.000
829.52	-0.000
829.69	-0.000
829.87	-0.000
830.04	-0.000
830.22	-0.000
830.39	-0.000
830.57	-0.000
830.74	-0.000
830.92	-0.000
831.09	-0.000
831.26	-0.000
831.44	-0.000
831.61	-0.000
831.79	-0.000
831.96	-0.000
832.14	-0.000
832.31	-0.000
832.49	-0.000
832.66	-0.000
832.83	-0.000
833.01	-0.000
833.18	-0.000
833.36	-0.000
833.53	-0.000
833.70	-0.000
833.88	-0.000
834.05	-0.000
834.23	-0.000
834.40	-0.000
834.58	-0.000
834.75	-0.000
834.92	-0.000
835.10	-0.000
835.27	-0.000
835.45	-0.000
835.62	-0.000
835.79	-0.000
835.97	-0.000
836.14	-0.000
836.32	-0.000
836.49	-0.000
836.66	-0.000
836.84	-0.000
837.01	-0.000
837.18	-0.000
837.36	-0.000
837.53	-0.000
837.71	-0.000
837.88	-0.000
838.05	-0.000
838.23	-0.000
838.40	-0.000
838.58	-0.000
838.75	-0.000
838.92	-0.000
839.10	-0.000
839.27	-0.000
839.44	-0.000
839.62	-0.000
839.79	-0.000
839.96	-0.000
840.14	-0.000
840.31	-0.000
840.48	-0.000
840.66	-0.000
840.83	-0.000
841.01	-0.000
841.18	-0.000
841.35	-0.000
841.53	-0.000
841.70	-0.000
841.87	-0.000
842.05	-0.000
842.22	-0.000
842.39	-0.000
842.57	-0.000
842.74	-0.000
842.91	-0.000
843.09	-0.000
843.26	-0.000
843.43	-0.000
843.60	-0.000
843.78	-0.000
843.95	-0.000
844.12	-0.000
844.30	-0.000
844.47	-0.000
844.64	-0.000
844.82	-0.000
844.99	-0.000
845.16	-0.000
845.34	-0.000
845.51	-0.000
845.68	-0.000
845.85	-0.000
846.03	-0.000
846.20	-0.000
846.37	-0.000
846.55	-0.000
846.72	-0.000
846.89	-0.000
847.06	-0.000
847.24	-0.000
847.41	-0.000
847.58	-0.000
847.76	-0.000
847.93	-0.000
848.10	-0.000
848.27	-0.000
848.45	-0.000
848.62	-0.000
848.79	-0.000
848.97	-0.000
849.14	-0.000
849.31	-0.000
849.48	-0.000
849.66	-0.000
849.83	-0.000
850.00	-0.000
850.17	-0.000
850.35	-0.000
850.52	-0.000
850.69	-0.000
850.86	-0.000
851.04	-0.000
851.21	-0.000
851.38	-0.000
851.55	-0.000
851.72	-0.000
851.90	-0.000
852.07	-0.000
852.24	-0.000
852.41	-0.000
852.59	-0.000
852.76	-0.000
852.93	-0.000
853.10	-0.000
853.28	-0.000
853.45	-0.000
853.62	-0.000
853.79	-0.000
853.96	-0.000
854.14	-0.000
854.31	-0.000
854.48	-0.000
854.65	-0.000
854.82	-0.000
855.00	-0.000
855.17	-0.000
855.34	-0.000
855.51	-0.000
855.68	-0.000
855.86	-0.000
856.03	-0.000
856.20	-0.000
856.37	-0.000
856.54	-0.000
856.72	-0.000
856.89	-0.000
857.06	-0.000
857.23	-0.000
857.40	-0.000
857.57	-0.000
857.75	-0.000
857.92	-0.000
858.09	-0.000
858.26	-0.000
858.43	-0.000
858.60	-0.000
858.78	-0.000
858.95	-0.000
859.12	-0.000
859.29	-0.000
859.46	-0.000
859.63	-0.000
859.81	-0.000
859.98	-0.000
860.15	-0.000
860.32	-0.000
860.49	-0.000
860.66	-0.000
860.83	-0.000
861.01	-0.000
861.18	-0.000
861.35	-0.000
861.52	-0.000
861.69	-0.000
861.86	-0.000
862.03	-0.000
862.21	-0.000
862.38	-0.000
862.55	-0.000
862.72	-0.000
862.89	-0.000
863.06	-0.000
863.23	-0.000
863.40	-0.000
863.58	-0.000
863.75	-0.000
863.92	-0.000
864.09	-0.000
864.26	-0.000
864.43	-0.000
864.60	-0.000
864.77	-0.000
864.94	-0.000
865.11	-0.000
865.29	-0.000
865.46	-0.000
865.63	-0.000
865.80	-0.000
865.97	-0.000
866.14	-0.000
866.31	-0.000
866.48	-0.000
866.65	-0.000
866.82	-0.000
866.99	-0.000
867.16	-0.000
867.34	-0.000
867.51	-0.000
867.68	-0.000
867.85	-0.000
868.02	-0.000
868.19	-0.000
868.36	-0.000
868.53	-0.000
868.70	-0.000
868.87	-0.000
869.04	-0.000
869.21	-0.000
869.38	-0.000
869.55	-0.000
869.72	-0.000
869.89	-0.000
870.06	-0.000
870.24	-0.000
870.41	-0.000
870.58	-0.000
870.75	-0.000
870.92	-0.000
871.09	-0.000
871.26	-0.000
871.43	-0.000
871.60	-0.000
871.77	-0.000
871.94	-0.000
872.11	-0.000
872.28	-0.000
872.45	-0.000
872.62	-0.000
872.79	-0.000
872.96	-0.000
873.13	-0.000
873.30	-0.000
873.47	-0.000
873.64	-0.000
873.81	-0.000
873.98	-0.000
874.15	-0.000
874.32	-0.000
874.49	-0.000
874.66	-0.000
874.83	-0.000
875.00	-0.000
875.17	-0.000
875.34	-0.000
875.51	-0.000
875.68	-0.000
875.85	-0.000
876.02	-0.000
876.19	-0.000
876.36	-0.000
876.53	-0.000
876.70	-0.000
876.87	-0.000
877.04	-0.000
877.21	-0.000
877.38	-0.000
877.55	-0.000
877.72	-0.000
877.89	-0.000
878.06	-0.000
878.23	-0.000
878.39	-0.000
878.56	-0.000
878.73	-0.000
878.90	-0.000
879.07	-0.000
879.24	-0.000
879.41	-0.000
879.58	-0.000
879.75	-0.000
879.92	-0.000
880.09	-0.000
880.26	-0.000
880.43	-0.000
880.60	-0.000
880.77	-0.000
880.94	-0.000
881.11	-0.000
881.27	-0.000
881.44	-0.000
881.61	-0.000
881.78	-0.000
881.95	-0.000
882.12	-0.000
882.29	-0.000
882.46	-0.000
882.63	-0.000
882.80	-0.000
882.97	-0.000
883.14	-0.000
883.30	-0.000
883.47	-0.000
883.64	-0.000
883.81	-0.000
883.98	-0.000
884.15	-0.000
884.32	-0.000
884.49	-0.000
884.66	-0.000
884.82	-0.000
884.99	-0.000
885.16	-0.000
885.33	-0.000
885.50	-0.000
885.67	-0.000
885.84	-0.000
886.01	-0.000
886.17	-0.000
886.34	-0.000
886.51	-0.000
886.68	-0.000
886.85	-0.000
887.02	-0.000
887.19	-0.000
887.36	-0.000
887.52	-0.000
887.69	-0.000
887.86	-0.000
888.03	-0.000
888.20	-0.000
888.37	-0.000
888.54	-0.000
888.70	-0.000
888.87	-0.000
889.04	-0.000
889.21	-0.000
889.38	-0.000
889.55	-0.000
889.71	-0.000
889.88	-0.000
890.05	-0.000
890.22	-0.000
890.39	-0.000
>>>>>End Processed Spectral Data<<<<<
