SpectraSuite Data File
++++++++++++++++++++++++++++++++++++
Date: Fri Jun 19 14:01:16 CEST 2015
User: introlabs
Dark Spectrum Present: Yes
Reference Spectrum Present: Yes
Number of Sampled Component Spectra: 1
Spectrometers: USB4H08886
Integration Time (usec): 745692 (USB4H08886)
Spectra Averaged: 5 (USB4H08886)
Boxcar Smoothing: 5 (USB4H08886)
Correct for Electrical Dark: Yes (USB4H08886)
Strobe/Lamp Enabled: No (USB4H08886)
Correct for Detector Non-linearity: Yes (USB4H08886)
Correct for Stray Light: Yes (USB4H08886)
Number of Pixels in Processed Spectrum: 3648
>>>>>Begin Processed Spectral Data<<<<<
178.14	-0.000
178.36	-0.000
178.57	-0.000
178.79	-0.000
179.01	-0.000
179.22	-0.000
179.44	-0.000
179.65	-0.000
179.87	-0.000
180.08	-0.000
180.30	-0.000
180.52	-0.000
180.73	-0.000
180.95	-0.000
181.16	-0.000
181.38	-0.000
181.59	-0.000
181.81	-0.000
182.03	-0.000
182.24	-0.000
182.46	-0.000
182.67	-0.000
182.89	-0.000
183.10	-0.000
183.32	-0.000
183.54	-0.000
183.75	-0.000
183.97	-0.000
184.18	-0.000
184.40	-0.000
184.61	-0.000
184.83	-0.000
185.04	-0.000
185.26	-0.000
185.48	-0.000
185.69	-0.000
185.91	-0.000
186.12	-0.000
186.34	-0.000
186.55	-0.000
186.77	-0.000
186.98	-0.000
187.20	-0.000
187.42	-0.000
187.63	-0.000
187.85	-0.000
188.06	-0.000
188.28	-0.000
188.49	-0.000
188.71	-0.000
188.92	-0.000
189.14	-0.000
189.36	-0.000
189.57	-0.000
189.79	-0.000
190.00	-0.000
190.22	-0.000
190.43	-0.000
190.65	-0.000
190.86	-0.000
191.08	-0.000
191.29	-0.000
191.51	-0.000
191.72	-0.000
191.94	-0.000
192.16	-0.000
192.37	-0.000
192.59	-0.000
192.80	-0.000
193.02	-0.000
193.23	-0.000
193.45	-0.000
193.66	-0.000
193.88	-0.000
194.09	-0.000
194.31	-0.000
194.52	-0.000
194.74	-0.000
194.95	-0.000
195.17	-0.000
195.38	-0.000
195.60	-0.000
195.81	-0.000
196.03	-0.000
196.25	-0.000
196.46	-0.000
196.68	-0.000
196.89	-0.000
197.11	-0.000
197.32	-0.000
197.54	-0.000
197.75	-0.000
197.97	-0.000
198.18	-0.000
198.40	-0.000
198.61	-0.000
198.83	-0.000
199.04	-0.000
199.26	-0.000
199.47	-0.000
199.69	-0.000
199.90	-0.000
200.12	-0.000
200.33	-0.000
200.55	-0.000
200.76	-0.000
200.98	-0.000
201.19	-0.000
201.41	-0.000
201.62	-0.000
201.84	-0.000
202.05	-0.000
202.27	-0.000
202.48	-0.000
202.70	-0.000
202.91	-0.000
203.13	-0.000
203.34	-0.000
203.56	-0.000
203.77	-0.000
203.99	-0.000
204.20	-0.000
204.42	-0.000
204.63	-0.000
204.85	-0.000
205.06	-0.000
205.28	-0.000
205.49	-0.000
205.71	-0.000
205.92	-0.000
206.14	-0.000
206.35	-0.000
206.56	-0.000
206.78	-0.000
206.99	-0.000
207.21	-0.000
207.42	-0.000
207.64	-0.000
207.85	-0.000
208.07	-0.000
208.28	-0.000
208.50	-0.000
208.71	-0.000
208.93	-0.000
209.14	-0.000
209.36	-0.000
209.57	-0.000
209.79	-0.000
210.00	-0.000
210.22	-0.000
210.43	-0.000
210.64	-0.000
210.86	-0.000
211.07	-0.000
211.29	-0.000
211.50	-0.000
211.72	-0.000
211.93	-0.000
212.15	-0.000
212.36	-0.000
212.58	-0.000
212.79	-0.000
213.01	-0.000
213.22	-0.000
213.43	-0.000
213.65	-0.000
213.86	-0.000
214.08	-0.000
214.29	-0.000
214.51	-0.000
214.72	-0.000
214.94	-0.000
215.15	-0.000
215.36	-0.000
215.58	-0.000
215.79	-0.000
216.01	-0.000
216.22	-0.000
216.44	-0.000
216.65	-0.000
216.87	-0.000
217.08	-0.000
217.29	-0.000
217.51	-0.000
217.72	-0.000
217.94	-0.000
218.15	-0.000
218.37	-0.000
218.58	-0.000
218.80	-0.000
219.01	-0.000
219.22	-0.000
219.44	-0.000
219.65	-0.000
219.87	-0.000
220.08	-0.000
220.30	-0.000
220.51	-0.000
220.72	-0.000
220.94	-0.000
221.15	-0.000
221.37	-0.000
221.58	-0.000
221.79	-0.000
222.01	-0.000
222.22	-0.000
222.44	-0.000
222.65	-0.000
222.87	-0.000
223.08	-0.000
223.29	-0.000
223.51	-0.000
223.72	-0.000
223.94	-0.000
224.15	-0.000
224.36	-0.000
224.58	-0.000
224.79	-0.000
225.01	-0.000
225.22	-0.000
225.44	-0.000
225.65	-0.000
225.86	-0.000
226.08	-0.000
226.29	-0.000
226.51	-0.000
226.72	-0.000
226.93	-0.000
227.15	-0.000
227.36	-0.000
227.58	-0.000
227.79	-0.000
228.00	-0.000
228.22	-0.000
228.43	-0.000
228.65	-0.000
228.86	-0.000
229.07	-0.000
229.29	-0.000
229.50	-0.000
229.72	-0.000
229.93	-0.000
230.14	-0.000
230.36	-0.000
230.57	-0.000
230.78	-0.000
231.00	-0.000
231.21	-0.000
231.43	-0.000
231.64	-0.000
231.85	-0.000
232.07	-0.000
232.28	-0.000
232.50	-0.000
232.71	-0.000
232.92	-0.000
233.14	-0.000
233.35	-0.000
233.56	-0.000
233.78	-0.000
233.99	-0.000
234.21	-0.000
234.42	-0.000
234.63	-0.000
234.85	-0.000
235.06	-0.000
235.27	-0.000
235.49	-0.000
235.70	-0.000
235.91	-0.000
236.13	-0.000
236.34	-0.000
236.56	-0.000
236.77	-0.000
236.98	-0.000
237.20	-0.000
237.41	-0.000
237.62	-0.000
237.84	-0.000
238.05	-0.000
238.26	-0.000
238.48	-0.000
238.69	-0.000
238.91	-0.000
239.12	-0.000
239.33	-0.000
239.55	-0.000
239.76	-0.000
239.97	-0.000
240.19	-0.000
240.40	-0.000
240.61	-0.000
240.83	-0.000
241.04	-0.000
241.25	-0.000
241.47	-0.000
241.68	-0.000
241.89	-0.000
242.11	-0.000
242.32	-0.000
242.53	-0.000
242.75	-0.000
242.96	-0.000
243.17	-0.000
243.39	-0.000
243.60	-0.000
243.81	-0.000
244.03	-0.000
244.24	-0.000
244.45	-0.000
244.67	-0.000
244.88	-0.000
245.09	-0.000
245.31	-0.000
245.52	-0.000
245.73	-0.000
245.95	-0.000
246.16	-0.000
246.37	-0.000
246.59	-0.000
246.80	-0.000
247.01	-0.000
247.23	-0.000
247.44	-0.000
247.65	-0.000
247.87	-0.000
248.08	-0.000
248.29	-0.000
248.51	-0.000
248.72	-0.000
248.93	-0.000
249.15	-0.000
249.36	-0.000
249.57	-0.000
249.78	-0.000
250.00	-0.000
250.21	-0.000
250.42	-0.000
250.64	-0.000
250.85	-0.000
251.06	-0.000
251.28	-0.000
251.49	-0.000
251.70	-0.000
251.92	-0.000
252.13	-0.000
252.34	-0.000
252.55	-0.000
252.77	-0.000
252.98	-0.000
253.19	-0.000
253.41	-0.000
253.62	-0.000
253.83	-0.000
254.05	-0.000
254.26	-0.000
254.47	-0.000
254.68	-0.000
254.90	-0.000
255.11	-0.000
255.32	-0.000
255.54	-0.000
255.75	-0.000
255.96	-0.000
256.17	-0.000
256.39	-0.000
256.60	-0.000
256.81	-0.000
257.03	-0.000
257.24	-0.000
257.45	-0.000
257.66	-0.000
257.88	-0.000
258.09	-0.000
258.30	-0.000
258.51	-0.000
258.73	-0.000
258.94	-0.000
259.15	-0.000
259.37	-0.000
259.58	-0.000
259.79	-0.000
260.00	-0.000
260.22	-0.000
260.43	-0.000
260.64	-0.000
260.85	-0.000
261.07	-0.000
261.28	-0.000
261.49	-0.000
261.71	-0.000
261.92	-0.000
262.13	-0.000
262.34	-0.000
262.56	-0.000
262.77	-0.000
262.98	-0.000
263.19	-0.000
263.41	-0.000
263.62	-0.000
263.83	-0.000
264.04	-0.000
264.26	-0.000
264.47	-0.000
264.68	-0.000
264.89	-0.000
265.11	-0.000
265.32	-0.000
265.53	-0.000
265.74	-0.000
265.96	-0.000
266.17	-0.000
266.38	-0.000
266.59	-0.000
266.81	-0.000
267.02	-0.000
267.23	-0.000
267.44	-0.000
267.65	-0.000
267.87	-0.000
268.08	-0.000
268.29	-0.000
268.50	-0.000
268.72	-0.000
268.93	-0.000
269.14	-0.000
269.35	-0.000
269.57	-0.000
269.78	-0.000
269.99	-0.000
270.20	-0.000
270.41	-0.000
270.63	-0.000
270.84	-0.000
271.05	-0.000
271.26	-0.000
271.48	-0.000
271.69	-0.000
271.90	-0.000
272.11	-0.000
272.32	-0.000
272.54	-0.000
272.75	-0.000
272.96	-0.000
273.17	-0.000
273.39	-0.000
273.60	-0.000
273.81	-0.000
274.02	-0.000
274.23	-0.000
274.45	-0.000
274.66	-0.000
274.87	-0.000
275.08	-0.000
275.29	-0.000
275.51	-0.000
275.72	-0.000
275.93	-0.000
276.14	-0.000
276.35	-0.000
276.57	-0.000
276.78	-0.000
276.99	-0.000
277.20	-0.000
277.41	-0.000
277.63	-0.000
277.84	-0.000
278.05	-0.000
278.26	-0.000
278.47	-0.000
278.69	-0.000
278.90	-0.000
279.11	-0.000
279.32	-0.000
279.53	-0.000
279.74	-0.000
279.96	-0.000
280.17	-0.000
280.38	-0.000
280.59	-0.000
280.80	-0.000
281.02	-0.000
281.23	-0.000
281.44	-0.000
281.65	-0.000
281.86	-0.000
282.07	-0.000
282.29	-0.000
282.50	-0.000
282.71	-0.000
282.92	-0.000
283.13	-0.000
283.35	-0.000
283.56	-0.000
283.77	-0.000
283.98	-0.000
284.19	-0.000
284.40	-0.000
284.62	-0.000
284.83	-0.000
285.04	-0.000
285.25	-0.000
285.46	-0.000
285.67	-0.000
285.88	-0.000
286.10	-0.000
286.31	-0.000
286.52	-0.000
286.73	-0.000
286.94	-0.000
287.15	-0.000
287.37	-0.000
287.58	-0.000
287.79	-0.000
288.00	-0.000
288.21	-0.000
288.42	-0.000
288.63	-0.000
288.85	-0.000
289.06	-0.000
289.27	-0.000
289.48	-0.000
289.69	-0.000
289.90	-0.000
290.11	-0.000
290.33	-0.000
290.54	-0.000
290.75	-0.000
290.96	-0.000
291.17	-0.000
291.38	-0.000
291.59	-0.000
291.81	-0.000
292.02	-0.000
292.23	-0.000
292.44	-0.000
292.65	-0.000
292.86	-0.000
293.07	-0.000
293.28	-0.000
293.50	-0.000
293.71	-0.000
293.92	-0.000
294.13	-0.000
294.34	-0.000
294.55	-0.000
294.76	-0.000
294.97	-0.000
295.19	-0.000
295.40	-0.000
295.61	-0.000
295.82	-0.000
296.03	-0.000
296.24	-0.000
296.45	-0.000
296.66	2.177
296.87	2.203
297.09	2.437
297.30	-0.000
297.51	2.042
297.72	1.995
297.93	2.205
298.14	2.116
298.35	2.040
298.56	1.955
298.77	2.260
298.99	2.154
299.20	2.093
299.41	2.033
299.62	1.954
299.83	1.908
300.04	1.791
300.25	1.771
300.46	1.830
300.67	1.780
300.88	1.700
301.10	1.702
301.31	1.811
301.52	1.707
301.73	1.626
301.94	1.622
302.15	1.651
302.36	1.589
302.57	1.510
302.78	1.518
302.99	1.569
303.20	1.593
303.41	1.477
303.63	1.455
303.84	1.468
304.05	1.459
304.26	1.389
304.47	1.395
304.68	1.402
304.89	1.390
305.10	1.342
305.31	1.326
305.52	1.376
305.73	1.365
305.94	1.320
306.15	1.308
306.37	1.332
306.58	1.339
306.79	1.302
307.00	1.320
307.21	1.363
307.42	1.353
307.63	1.311
307.84	1.272
308.05	1.318
308.26	1.315
308.47	1.288
308.68	1.283
308.89	1.285
309.10	1.282
309.31	1.239
309.52	1.230
309.73	1.249
309.95	1.244
310.16	1.214
310.37	1.199
310.58	1.221
310.79	1.219
311.00	1.214
311.21	1.215
311.42	1.220
311.63	1.214
311.84	1.195
312.05	1.192
312.26	1.215
312.47	1.229
312.68	1.201
312.89	1.182
313.10	1.191
313.31	1.163
313.52	1.161
313.73	1.159
313.94	1.162
314.15	1.143
314.36	1.121
314.57	1.113
314.78	1.099
314.99	1.094
315.21	1.081
315.42	1.085
315.63	1.099
315.84	1.078
316.05	1.065
316.26	1.072
316.47	1.092
316.68	1.087
316.89	1.067
317.10	1.090
317.31	1.097
317.52	1.099
317.73	1.077
317.94	1.077
318.15	1.121
318.36	1.120
318.57	1.101
318.78	1.090
318.99	1.127
319.20	1.124
319.41	1.087
319.62	1.088
319.83	1.102
320.04	1.095
320.25	1.080
320.46	1.043
320.67	1.047
320.88	1.042
321.09	1.028
321.30	1.013
321.51	1.027
321.72	1.025
321.93	1.008
322.14	1.000
322.35	1.029
322.56	1.032
322.77	1.018
322.98	1.029
323.19	1.038
323.40	1.044
323.61	1.021
323.82	1.016
324.03	1.021
324.24	1.019
324.45	1.006
324.66	0.986
324.87	0.983
325.08	0.984
325.29	0.963
325.50	0.955
325.71	0.960
325.92	0.968
326.13	0.955
326.34	0.955
326.55	0.964
326.76	0.963
326.97	0.952
327.18	0.945
327.39	0.973
327.60	0.974
327.80	0.974
328.01	0.973
328.22	0.971
328.43	0.974
328.64	0.963
328.85	0.967
329.06	0.968
329.27	0.967
329.48	0.964
329.69	0.943
329.90	0.953
330.11	0.946
330.32	0.939
330.53	0.932
330.74	0.931
330.95	0.929
331.16	0.914
331.37	0.922
331.58	0.922
331.79	0.921
332.00	0.912
332.21	0.907
332.42	0.910
332.63	0.901
332.83	0.897
333.04	0.901
333.25	0.913
333.46	0.911
333.67	0.898
333.88	0.900
334.09	0.910
334.30	0.907
334.51	0.898
334.72	0.894
334.93	0.897
335.14	0.896
335.35	0.889
335.56	0.883
335.77	0.893
335.98	0.890
336.18	0.884
336.39	0.877
336.60	0.882
336.81	0.881
337.02	0.880
337.23	0.885
337.44	0.889
337.65	0.890
337.86	0.880
338.07	0.874
338.28	0.880
338.49	0.878
338.70	0.869
338.91	0.875
339.11	0.882
339.32	0.877
339.53	0.866
339.74	0.862
339.95	0.857
340.16	0.856
340.37	0.847
340.58	0.845
340.79	0.848
341.00	0.849
341.21	0.839
341.41	0.839
341.62	0.841
341.83	0.842
342.04	0.837
342.25	0.850
342.46	0.856
342.67	0.855
342.88	0.848
343.09	0.848
343.30	0.855
343.50	0.858
343.71	0.848
343.92	0.845
344.13	0.850
344.34	0.849
344.55	0.832
344.76	0.831
344.97	0.836
345.18	0.835
345.38	0.831
345.59	0.826
345.80	0.824
346.01	0.824
346.22	0.819
346.43	0.814
346.64	0.822
346.85	0.820
347.06	0.813
347.26	0.812
347.47	0.816
347.68	0.811
347.89	0.807
348.10	0.803
348.31	0.809
348.52	0.808
348.73	0.805
348.93	0.801
349.14	0.804
349.35	0.804
349.56	0.798
349.77	0.794
349.98	0.800
350.19	0.798
350.39	0.793
350.60	0.789
350.81	0.806
351.02	0.804
351.23	0.801
351.44	0.803
351.65	0.806
351.86	0.804
352.06	0.802
352.27	0.802
352.48	0.803
352.69	0.802
352.90	0.797
353.11	0.783
353.31	0.791
353.52	0.786
353.73	0.778
353.94	0.780
354.15	0.786
354.36	0.786
354.57	0.778
354.77	0.781
354.98	0.781
355.19	0.780
355.40	0.780
355.61	0.785
355.82	0.789
356.02	0.788
356.23	0.781
356.44	0.782
356.65	0.786
356.86	0.785
357.07	0.778
357.27	0.781
357.48	0.784
357.69	0.779
357.90	0.764
358.11	0.761
358.32	0.765
358.52	0.768
358.73	0.758
358.94	0.760
359.15	0.765
359.36	0.766
359.56	0.761
359.77	0.758
359.98	0.765
360.19	0.764
360.40	0.761
360.61	0.761
360.81	0.760
361.02	0.761
361.23	0.753
361.44	0.751
361.65	0.751
361.85	0.751
362.06	0.749
362.27	0.751
362.48	0.751
362.69	0.753
362.89	0.748
363.10	0.750
363.31	0.754
363.52	0.757
363.73	0.752
363.93	0.753
364.14	0.755
364.35	0.757
364.56	0.747
364.77	0.749
364.97	0.751
365.18	0.752
365.39	0.746
365.60	0.743
365.81	0.744
366.01	0.743
366.22	0.739
366.43	0.738
366.64	0.741
366.84	0.746
367.05	0.743
367.26	0.743
367.47	0.744
367.68	0.744
367.88	0.742
368.09	0.740
368.30	0.743
368.51	0.742
368.71	0.742
368.92	0.745
369.13	0.744
369.34	0.742
369.55	0.741
369.75	0.741
369.96	0.747
370.17	0.746
370.38	0.742
370.58	0.743
370.79	0.749
371.00	0.747
371.21	0.738
371.41	0.743
371.62	0.748
371.83	0.743
372.04	0.742
372.24	0.736
372.45	0.737
372.66	0.738
372.87	0.734
373.07	0.730
373.28	0.731
373.49	0.734
373.70	0.725
373.90	0.723
374.11	0.733
374.32	0.732
374.53	0.731
374.73	0.731
374.94	0.734
375.15	0.734
375.36	0.732
375.56	0.741
375.77	0.741
375.98	0.741
376.19	0.738
376.39	0.731
376.60	0.735
376.81	0.736
377.02	0.732
377.22	0.732
377.43	0.732
377.64	0.732
377.84	0.722
378.05	0.727
378.26	0.734
378.47	0.733
378.67	0.729
378.88	0.726
379.09	0.728
379.30	0.728
379.50	0.726
379.71	0.727
379.92	0.730
380.12	0.729
380.33	0.721
380.54	0.717
380.75	0.724
380.95	0.724
381.16	0.722
381.37	0.722
381.57	0.723
381.78	0.723
381.99	0.723
382.20	0.722
382.40	0.726
382.61	0.726
382.82	0.723
383.02	0.716
383.23	0.720
383.44	0.720
383.64	0.718
383.85	0.720
384.06	0.723
384.27	0.722
384.47	0.720
384.68	0.720
384.89	0.726
385.09	0.725
385.30	0.725
385.51	0.723
385.71	0.726
385.92	0.727
386.13	0.726
386.33	0.728
386.54	0.730
386.75	0.728
386.95	0.723
387.16	0.719
387.37	0.721
387.58	0.721
387.78	0.718
387.99	0.716
388.20	0.718
388.40	0.714
388.61	0.709
388.82	0.713
389.02	0.715
389.23	0.716
389.44	0.714
389.64	0.714
389.85	0.726
390.06	0.726
390.26	0.726
390.47	0.725
390.68	0.727
390.88	0.726
391.09	0.722
391.30	0.721
391.50	0.721
391.71	0.721
391.92	0.719
392.12	0.710
392.33	0.711
392.53	0.711
392.74	0.711
392.95	0.711
393.15	0.713
393.36	0.714
393.57	0.712
393.77	0.715
393.98	0.717
394.19	0.716
394.39	0.717
394.60	0.718
394.81	0.720
395.01	0.718
395.22	0.715
395.43	0.717
395.63	0.721
395.84	0.723
396.04	0.719
396.25	0.721
396.46	0.723
396.66	0.720
396.87	0.717
397.08	0.715
397.28	0.717
397.49	0.718
397.69	0.714
397.90	0.709
398.11	0.710
398.31	0.711
398.52	0.706
398.73	0.707
398.93	0.707
399.14	0.706
399.34	0.705
399.55	0.706
399.76	0.706
399.96	0.707
400.17	0.706
400.37	0.704
400.58	0.711
400.79	0.712
400.99	0.710
401.20	0.716
401.41	0.718
401.61	0.719
401.82	0.725
402.02	0.724
402.23	0.726
402.44	0.726
402.64	0.726
402.85	0.720
403.05	0.719
403.26	0.718
403.47	0.711
403.67	0.710
403.88	0.710
404.08	0.703
404.29	0.702
404.50	0.701
404.70	0.701
404.91	0.701
405.11	0.697
405.32	0.698
405.52	0.698
405.73	0.698
405.94	0.696
406.14	0.699
406.35	0.702
406.55	0.701
406.76	0.699
406.97	0.699
407.17	0.701
407.38	0.702
407.58	0.700
407.79	0.703
407.99	0.705
408.20	0.706
408.41	0.701
408.61	0.699
408.82	0.701
409.02	0.700
409.23	0.698
409.43	0.697
409.64	0.697
409.84	0.697
410.05	0.694
410.26	0.692
410.46	0.692
410.67	0.692
410.87	0.693
411.08	0.694
411.28	0.696
411.49	0.697
411.69	0.695
411.90	0.697
412.11	0.698
412.31	0.699
412.52	0.698
412.72	0.699
412.93	0.700
413.13	0.699
413.34	0.696
413.54	0.697
413.75	0.698
413.95	0.698
414.16	0.694
414.37	0.697
414.57	0.697
414.78	0.699
414.98	0.697
415.19	0.698
415.39	0.695
415.60	0.697
415.80	0.697
416.01	0.695
416.21	0.698
416.42	0.698
416.62	0.693
416.83	0.693
417.03	0.693
417.24	0.694
417.44	0.691
417.65	0.690
417.86	0.691
418.06	0.688
418.27	0.687
418.47	0.688
418.68	0.689
418.88	0.690
419.09	0.689
419.29	0.690
419.50	0.690
419.70	0.690
419.91	0.688
420.11	0.686
420.32	0.688
420.52	0.688
420.73	0.687
420.93	0.687
421.14	0.689
421.34	0.687
421.55	0.684
421.75	0.683
421.96	0.685
422.16	0.685
422.37	0.684
422.57	0.681
422.78	0.682
422.98	0.679
423.19	0.677
423.39	0.675
423.60	0.680
423.80	0.681
424.01	0.680
424.21	0.682
424.42	0.683
424.62	0.683
424.83	0.683
425.03	0.684
425.23	0.685
425.44	0.685
425.64	0.685
425.85	0.684
426.05	0.684
426.26	0.685
426.46	0.681
426.67	0.681
426.87	0.686
427.08	0.686
427.28	0.683
427.49	0.684
427.69	0.685
427.90	0.684
428.10	0.682
428.31	0.681
428.51	0.683
428.71	0.682
428.92	0.683
429.12	0.681
429.33	0.681
429.53	0.685
429.74	0.689
429.94	0.690
430.15	0.690
430.35	0.690
430.56	0.686
430.76	0.685
430.96	0.686
431.17	0.684
431.37	0.680
431.58	0.679
431.78	0.675
431.99	0.668
432.19	0.670
432.40	0.671
432.60	0.672
432.80	0.675
433.01	0.673
433.21	0.673
433.42	0.676
433.62	0.677
433.83	0.676
434.03	0.679
434.23	0.682
434.44	0.681
434.64	0.679
434.85	0.684
435.05	0.685
435.26	0.686
435.46	0.684
435.66	0.683
435.87	0.683
436.07	0.683
436.28	0.679
436.48	0.676
436.69	0.676
436.89	0.676
437.09	0.669
437.30	0.668
437.50	0.668
437.71	0.680
437.91	0.679
438.11	0.679
438.32	0.684
438.52	0.685
438.73	0.684
438.93	0.683
439.13	0.683
439.34	0.686
439.54	0.684
439.75	0.684
439.95	0.674
440.15	0.678
440.36	0.677
440.56	0.674
440.77	0.675
440.97	0.675
441.17	0.674
441.38	0.674
441.58	0.671
441.79	0.671
441.99	0.669
442.19	0.668
442.40	0.666
442.60	0.666
442.81	0.663
443.01	0.664
443.21	0.665
443.42	0.664
443.62	0.663
443.82	0.663
444.03	0.664
444.23	0.664
444.44	0.664
444.64	0.663
444.84	0.664
445.05	0.664
445.25	0.662
445.45	0.662
445.66	0.665
445.86	0.664
446.06	0.665
446.27	0.665
446.47	0.669
446.68	0.667
446.88	0.666
447.08	0.665
447.29	0.667
447.49	0.666
447.69	0.666
447.90	0.664
448.10	0.667
448.30	0.665
448.51	0.666
448.71	0.664
448.91	0.667
449.12	0.666
449.32	0.668
449.52	0.667
449.73	0.672
449.93	0.670
450.14	0.671
450.34	0.670
450.54	0.673
450.75	0.670
450.95	0.669
451.15	0.669
451.36	0.671
451.56	0.667
451.76	0.666
451.97	0.663
452.17	0.664
452.37	0.662
452.58	0.659
452.78	0.658
452.98	0.661
453.19	0.660
453.39	0.661
453.59	0.660
453.79	0.662
454.00	0.662
454.20	0.660
454.40	0.661
454.61	0.664
454.81	0.664
455.01	0.663
455.22	0.664
455.42	0.666
455.62	0.664
455.83	0.663
456.03	0.665
456.23	0.666
456.44	0.667
456.64	0.665
456.84	0.665
457.04	0.666
457.25	0.665
457.45	0.662
457.65	0.660
457.86	0.661
458.06	0.660
458.26	0.656
458.47	0.655
458.67	0.656
458.87	0.657
459.07	0.655
459.28	0.657
459.48	0.659
459.68	0.659
459.89	0.658
460.09	0.657
460.29	0.658
460.49	0.659
460.70	0.658
460.90	0.658
461.10	0.658
461.31	0.658
461.51	0.655
461.71	0.657
461.91	0.659
462.12	0.659
462.32	0.658
462.52	0.658
462.72	0.661
462.93	0.662
463.13	0.660
463.33	0.661
463.53	0.662
463.74	0.661
463.94	0.657
464.14	0.657
464.35	0.659
464.55	0.659
464.75	0.658
464.95	0.655
465.16	0.657
465.36	0.656
465.56	0.655
465.76	0.655
465.97	0.655
466.17	0.656
466.37	0.654
466.57	0.655
466.78	0.656
466.98	0.656
467.18	0.654
467.38	0.652
467.59	0.653
467.79	0.655
467.99	0.653
468.19	0.654
468.39	0.657
468.60	0.658
468.80	0.655
469.00	0.657
469.20	0.658
469.41	0.658
469.61	0.657
469.81	0.658
470.01	0.657
470.22	0.658
470.42	0.656
470.62	0.654
470.82	0.655
471.02	0.655
471.23	0.652
471.43	0.652
471.63	0.655
471.83	0.654
472.04	0.652
472.24	0.651
472.44	0.657
472.64	0.657
472.84	0.656
473.05	0.655
473.25	0.658
473.45	0.658
473.65	0.656
473.85	0.656
474.06	0.658
474.26	0.658
474.46	0.659
474.66	0.654
474.86	0.655
475.07	0.655
475.27	0.653
475.47	0.650
475.67	0.651
475.87	0.653
476.08	0.650
476.28	0.651
476.48	0.653
476.68	0.651
476.88	0.649
477.09	0.650
477.29	0.652
477.49	0.652
477.69	0.652
477.89	0.652
478.09	0.651
478.30	0.653
478.50	0.651
478.70	0.650
478.90	0.650
479.10	0.653
479.31	0.654
479.51	0.651
479.71	0.652
479.91	0.652
480.11	0.650
480.31	0.651
480.52	0.650
480.72	0.649
480.92	0.648
481.12	0.647
481.32	0.645
481.52	0.643
481.72	0.643
481.93	0.647
482.13	0.648
482.33	0.648
482.53	0.645
482.73	0.646
482.93	0.647
483.14	0.647
483.34	0.646
483.54	0.647
483.74	0.646
483.94	0.645
484.14	0.641
484.34	0.641
484.55	0.641
484.75	0.641
484.95	0.639
485.15	0.639
485.35	0.639
485.55	0.638
485.75	0.637
485.96	0.637
486.16	0.638
486.36	0.638
486.56	0.636
486.76	0.636
486.96	0.637
487.16	0.636
487.36	0.635
487.57	0.634
487.77	0.635
487.97	0.636
488.17	0.634
488.37	0.633
488.57	0.634
488.77	0.634
488.97	0.632
489.18	0.631
489.38	0.634
489.58	0.634
489.78	0.633
489.98	0.632
490.18	0.633
490.38	0.633
490.58	0.632
490.78	0.633
490.98	0.635
491.19	0.636
491.39	0.635
491.59	0.634
491.79	0.637
491.99	0.638
492.19	0.637
492.39	0.640
492.59	0.640
492.79	0.642
492.99	0.642
493.20	0.642
493.40	0.642
493.60	0.643
493.80	0.641
494.00	0.639
494.20	0.640
494.40	0.640
494.60	0.637
494.80	0.642
495.00	0.641
495.20	0.640
495.40	0.639
495.61	0.640
495.81	0.640
496.01	0.643
496.21	0.644
496.41	0.644
496.61	0.645
496.81	0.643
497.01	0.638
497.21	0.638
497.41	0.638
497.61	0.638
497.81	0.635
498.01	0.636
498.21	0.634
498.41	0.632
498.61	0.631
498.82	0.632
499.02	0.634
499.22	0.635
499.42	0.634
499.62	0.635
499.82	0.636
500.02	0.637
500.22	0.636
500.42	0.638
500.62	0.639
500.82	0.640
501.02	0.638
501.22	0.638
501.42	0.638
501.62	0.640
501.82	0.639
502.02	0.639
502.22	0.639
502.42	0.641
502.62	0.639
502.82	0.639
503.02	0.640
503.22	0.640
503.42	0.638
503.63	0.638
503.83	0.636
504.03	0.635
504.23	0.633
504.43	0.634
504.63	0.634
504.83	0.634
505.03	0.633
505.23	0.634
505.43	0.636
505.63	0.637
505.83	0.637
506.03	0.638
506.23	0.640
506.43	0.641
506.63	0.640
506.83	0.639
507.03	0.641
507.23	0.640
507.43	0.638
507.63	0.638
507.83	0.638
508.03	0.639
508.23	0.638
508.43	0.637
508.63	0.638
508.83	0.638
509.03	0.639
509.23	0.638
509.43	0.640
509.63	0.640
509.83	0.639
510.03	0.641
510.23	0.643
510.43	0.643
510.63	0.644
510.83	0.644
511.03	0.645
511.23	0.643
511.43	0.642
511.63	0.644
511.83	0.646
512.03	0.645
512.22	0.642
512.42	0.641
512.62	0.642
512.82	0.642
513.02	0.641
513.22	0.641
513.42	0.643
513.62	0.646
513.82	0.643
514.02	0.643
514.22	0.644
514.42	0.644
514.62	0.644
514.82	0.644
515.02	0.647
515.22	0.650
515.42	0.649
515.62	0.652
515.82	0.650
516.02	0.652
516.22	0.652
516.42	0.654
516.62	0.656
516.82	0.657
517.01	0.655
517.21	0.654
517.41	0.657
517.61	0.657
517.81	0.653
518.01	0.652
518.21	0.652
518.41	0.651
518.61	0.649
518.81	0.650
519.01	0.651
519.21	0.651
519.41	0.650
519.61	0.645
519.81	0.648
520.00	0.649
520.20	0.650
520.40	0.652
520.60	0.653
520.80	0.652
521.00	0.652
521.20	0.653
521.40	0.658
521.60	0.658
521.80	0.657
522.00	0.657
522.20	0.660
522.39	0.659
522.59	0.656
522.79	0.658
522.99	0.661
523.19	0.659
523.39	0.657
523.59	0.655
523.79	0.658
523.99	0.660
524.19	0.659
524.38	0.657
524.58	0.659
524.78	0.659
524.98	0.657
525.18	0.660
525.38	0.661
525.58	0.662
525.78	0.659
525.98	0.657
526.18	0.657
526.37	0.656
526.57	0.658
526.77	0.658
526.97	0.659
527.17	0.658
527.37	0.654
527.57	0.656
527.77	0.657
527.96	0.658
528.16	0.657
528.36	0.658
528.56	0.660
528.76	0.658
528.96	0.657
529.16	0.658
529.36	0.662
529.55	0.662
529.75	0.659
529.95	0.659
530.15	0.660
530.35	0.663
530.55	0.660
530.75	0.661
530.94	0.662
531.14	0.662
531.34	0.661
531.54	0.659
531.74	0.661
531.94	0.664
532.13	0.662
532.33	0.664
532.53	0.663
532.73	0.663
532.93	0.661
533.13	0.662
533.33	0.662
533.52	0.662
533.72	0.665
533.92	0.664
534.12	0.662
534.32	0.663
534.52	0.661
534.71	0.662
534.91	0.665
535.11	0.666
535.31	0.665
535.51	0.667
535.71	0.669
535.90	0.666
536.10	0.667
536.30	0.669
536.50	0.670
536.70	0.670
536.89	0.668
537.09	0.668
537.29	0.669
537.49	0.669
537.69	0.667
537.89	0.668
538.08	0.667
538.28	0.665
538.48	0.665
538.68	0.667
538.88	0.668
539.07	0.668
539.27	0.666
539.47	0.666
539.67	0.667
539.87	0.669
540.06	0.666
540.26	0.668
540.46	0.670
540.66	0.668
540.86	0.665
541.05	0.665
541.25	0.667
541.45	0.668
541.65	0.666
541.84	0.667
542.04	0.667
542.24	0.669
542.44	0.667
542.64	0.669
542.83	0.672
543.03	0.673
543.23	0.670
543.43	0.670
543.62	0.671
543.82	0.671
544.02	0.670
544.22	0.670
544.42	0.673
544.61	0.674
544.81	0.670
545.01	0.668
545.21	0.670
545.40	0.671
545.60	0.669
545.80	0.673
546.00	0.674
546.19	0.673
546.39	0.672
546.59	0.669
546.79	0.671
546.98	0.672
547.18	0.671
547.38	0.672
547.58	0.675
547.77	0.674
547.97	0.670
548.17	0.672
548.37	0.672
548.56	0.673
548.76	0.672
548.96	0.673
549.16	0.676
549.35	0.676
549.55	0.674
549.75	0.674
549.95	0.678
550.14	0.678
550.34	0.677
550.54	0.682
550.73	0.685
550.93	0.686
551.13	0.683
551.33	0.682
551.52	0.682
551.72	0.682
551.92	0.680
552.12	0.681
552.31	0.681
552.51	0.681
552.71	0.676
552.90	0.676
553.10	0.677
553.30	0.677
553.50	0.676
553.69	0.678
553.89	0.679
554.09	0.678
554.28	0.675
554.48	0.677
554.68	0.679
554.87	0.679
555.07	0.676
555.27	0.675
555.47	0.677
555.66	0.679
555.86	0.677
556.06	0.679
556.25	0.681
556.45	0.689
556.65	0.687
556.84	0.690
557.04	0.694
557.24	0.696
557.43	0.695
557.63	0.698
557.83	0.699
558.02	0.700
558.22	0.703
558.42	0.704
558.61	0.696
558.81	0.696
559.01	0.692
559.21	0.692
559.40	0.693
559.60	0.693
559.80	0.689
559.99	0.691
560.19	0.693
560.39	0.688
560.58	0.685
560.78	0.686
560.97	0.690
561.17	0.688
561.37	0.685
561.56	0.686
561.76	0.688
561.96	0.687
562.15	0.684
562.35	0.686
562.55	0.688
562.74	0.688
562.94	0.687
563.14	0.685
563.33	0.686
563.53	0.686
563.73	0.683
563.92	0.685
564.12	0.687
564.31	0.689
564.51	0.687
564.71	0.689
564.90	0.692
565.10	0.693
565.30	0.695
565.49	0.696
565.69	0.699
565.89	0.699
566.08	0.696
566.28	0.698
566.47	0.700
566.67	0.698
566.87	0.695
567.06	0.696
567.26	0.702
567.46	0.697
567.65	0.696
567.85	0.698
568.04	0.701
568.24	0.700
568.44	0.697
568.63	0.695
568.83	0.697
569.02	0.696
569.22	0.691
569.42	0.687
569.61	0.689
569.81	0.688
570.00	0.685
570.20	0.687
570.40	0.688
570.59	0.688
570.79	0.685
570.98	0.683
571.18	0.685
571.38	0.684
571.57	0.681
571.77	0.680
571.96	0.683
572.16	0.680
572.35	0.675
572.55	0.676
572.75	0.674
572.94	0.674
573.14	0.673
573.33	0.673
573.53	0.674
573.73	0.673
573.92	0.671
574.12	0.669
574.31	0.672
574.51	0.673
574.70	0.670
574.90	0.672
575.09	0.674
575.29	0.674
575.49	0.671
575.68	0.671
575.88	0.673
576.07	0.674
576.27	0.672
576.46	0.671
576.66	0.670
576.86	0.669
577.05	0.667
577.25	0.665
577.44	0.667
577.64	0.667
577.83	0.665
578.03	0.666
578.22	0.666
578.42	0.665
578.61	0.663
578.81	0.665
579.00	0.665
579.20	0.665
579.40	0.663
579.59	0.662
579.79	0.663
579.98	0.662
580.18	0.661
580.37	0.661
580.57	0.663
580.76	0.668
580.96	0.666
581.15	0.667
581.35	0.668
581.54	0.668
581.74	0.667
581.93	0.669
582.13	0.670
582.32	0.667
582.52	0.665
582.71	0.665
582.91	0.661
583.10	0.661
583.30	0.659
583.49	0.659
583.69	0.663
583.88	0.664
584.08	0.662
584.27	0.664
584.47	0.668
584.66	0.669
584.86	0.668
585.05	0.670
585.25	0.672
585.44	0.672
585.64	0.670
585.83	0.667
586.03	0.668
586.22	0.666
586.42	0.663
586.61	0.664
586.81	0.667
587.00	0.666
587.20	0.664
587.39	0.664
587.59	0.667
587.78	0.668
587.98	0.669
588.17	0.670
588.37	0.672
588.56	0.674
588.76	0.670
588.95	0.670
589.15	0.675
589.34	0.677
589.54	0.676
589.73	0.677
589.92	0.680
590.12	0.679
590.31	0.677
590.51	0.682
590.70	0.684
590.90	0.685
591.09	0.683
591.29	0.681
591.48	0.681
591.68	0.681
591.87	0.680
592.06	0.679
592.26	0.682
592.45	0.681
592.65	0.675
592.84	0.674
593.04	0.677
593.23	0.679
593.43	0.677
593.62	0.676
593.81	0.677
594.01	0.676
594.20	0.674
594.40	0.673
594.59	0.675
594.79	0.677
594.98	0.675
595.17	0.674
595.37	0.675
595.56	0.677
595.76	0.677
595.95	0.678
596.14	0.681
596.34	0.683
596.53	0.680
596.73	0.682
596.92	0.683
597.12	0.686
597.31	0.686
597.50	0.685
597.70	0.687
597.89	0.686
598.09	0.682
598.28	0.684
598.47	0.686
598.67	0.684
598.86	0.680
599.06	0.682
599.25	0.682
599.44	0.679
599.64	0.676
599.83	0.674
600.03	0.677
600.22	0.678
600.41	0.678
600.61	0.675
600.80	0.678
601.00	0.679
601.19	0.675
601.38	0.673
601.58	0.676
601.77	0.678
601.96	0.680
602.16	0.680
602.35	0.689
602.55	0.686
602.74	0.686
602.93	0.687
603.13	0.692
603.32	0.694
603.51	0.693
603.71	0.697
603.90	0.699
604.09	0.699
604.29	0.697
604.48	0.691
604.68	0.693
604.87	0.692
605.06	0.689
605.26	0.685
605.45	0.686
605.64	0.685
605.84	0.679
606.03	0.678
606.22	0.677
606.42	0.676
606.61	0.673
606.80	0.673
607.00	0.675
607.19	0.675
607.38	0.674
607.58	0.675
607.77	0.679
607.96	0.679
608.16	0.677
608.35	0.682
608.54	0.685
608.74	0.688
608.93	0.692
609.12	0.695
609.32	0.698
609.51	0.701
609.70	0.700
609.90	0.702
610.09	0.706
610.28	0.712
610.48	0.705
610.67	0.706
610.86	0.708
611.06	0.702
611.25	0.699
611.44	0.700
611.64	0.700
611.83	0.702
612.02	0.699
612.21	0.698
612.41	0.696
612.60	0.696
612.79	0.692
612.99	0.692
613.18	0.695
613.37	0.692
613.57	0.689
613.76	0.691
613.95	0.689
614.14	0.689
614.34	0.686
614.53	0.687
614.72	0.690
614.92	0.690
615.11	0.686
615.30	0.683
615.49	0.685
615.69	0.688
615.88	0.684
616.07	0.685
616.26	0.687
616.46	0.688
616.65	0.685
616.84	0.683
617.04	0.685
617.23	0.689
617.42	0.690
617.61	0.694
617.81	0.694
618.00	0.696
618.19	0.694
618.38	0.699
618.58	0.702
618.77	0.703
618.96	0.703
619.15	0.704
619.35	0.706
619.54	0.707
619.73	0.702
619.92	0.705
620.12	0.709
620.31	0.710
620.50	0.704
620.69	0.704
620.89	0.707
621.08	0.707
621.27	0.708
621.46	0.706
621.66	0.710
621.85	0.709
622.04	0.705
622.23	0.706
622.43	0.707
622.62	0.707
622.81	0.706
623.00	0.707
623.19	0.711
623.39	0.709
623.58	0.706
623.77	0.705
623.96	0.708
624.16	0.708
624.35	0.702
624.54	0.705
624.73	0.709
624.92	0.708
625.12	0.705
625.31	0.706
625.50	0.709
625.69	0.710
625.88	0.706
626.08	0.704
626.27	0.706
626.46	0.707
626.65	0.704
626.84	0.703
627.04	0.709
627.23	0.708
627.42	0.703
627.61	0.705
627.80	0.708
628.00	0.708
628.19	0.707
628.38	0.710
628.57	0.713
628.76	0.713
628.96	0.710
629.15	0.711
629.34	0.714
629.53	0.715
629.72	0.710
629.91	0.710
630.11	0.715
630.30	0.715
630.49	0.718
630.68	0.718
630.87	0.721
631.06	0.724
631.26	0.717
631.45	0.720
631.64	0.728
631.83	0.730
632.02	0.727
632.21	0.726
632.41	0.734
632.60	0.729
632.79	0.727
632.98	0.727
633.17	0.728
633.36	0.731
633.55	0.726
633.75	0.722
633.94	0.724
634.13	0.724
634.32	0.721
634.51	0.715
634.70	0.717
634.89	0.717
635.09	0.713
635.28	0.715
635.47	0.716
635.66	0.718
635.85	0.714
636.04	0.715
636.23	0.720
636.43	0.721
636.62	0.720
636.81	0.719
637.00	0.722
637.19	0.725
637.38	0.721
637.57	0.720
637.76	0.723
637.95	0.724
638.15	0.721
638.34	0.717
638.53	0.721
638.72	0.723
638.91	0.720
639.10	0.717
639.29	0.718
639.48	0.718
639.67	0.719
639.87	0.718
640.06	0.724
640.25	0.723
640.44	0.724
640.63	0.724
640.82	0.725
641.01	0.725
641.20	0.725
641.39	0.726
641.58	0.729
641.78	0.727
641.97	0.724
642.16	0.736
642.35	0.737
642.54	0.736
642.73	0.731
642.92	0.731
643.11	0.735
643.30	0.734
643.49	0.729
643.68	0.732
643.87	0.733
644.06	0.733
644.25	0.713
644.45	0.717
644.64	0.719
644.83	0.719
645.02	0.715
645.21	0.715
645.40	0.717
645.59	0.716
645.78	0.710
645.97	0.712
646.16	0.714
646.35	0.713
646.54	0.711
646.73	0.712
646.92	0.714
647.11	0.713
647.30	0.708
647.49	0.709
647.68	0.709
647.88	0.708
648.07	0.701
648.26	0.705
648.45	0.707
648.64	0.702
648.83	0.699
649.02	0.701
649.21	0.712
649.40	0.711
649.59	0.707
649.78	0.708
649.97	0.723
650.16	0.723
650.35	0.717
650.54	0.719
650.73	0.729
650.92	0.726
651.11	0.719
651.30	0.716
651.49	0.720
651.68	0.721
651.87	0.717
652.06	0.707
652.25	0.710
652.44	0.713
652.63	0.711
652.82	0.710
653.01	0.709
653.20	0.707
653.39	0.694
653.58	0.691
653.77	0.690
653.96	0.685
654.15	0.677
654.34	0.675
654.53	0.670
654.72	0.663
654.91	0.654
655.10	0.650
655.29	0.649
655.48	0.647
655.67	0.642
655.86	0.639
656.05	0.637
656.24	0.637
656.43	0.632
656.62	0.631
656.81	0.631
657.00	0.629
657.19	0.626
657.38	0.626
657.57	0.625
657.76	0.628
657.95	0.625
658.14	0.629
658.33	0.632
658.51	0.637
658.70	0.638
658.89	0.639
659.08	0.648
659.27	0.656
659.46	0.656
659.65	0.663
659.84	0.667
660.03	0.670
660.22	0.671
660.41	0.675
660.60	0.675
660.79	0.676
660.98	0.683
661.17	0.683
661.36	0.683
661.55	0.683
661.74	0.680
661.92	0.683
662.11	0.686
662.30	0.684
662.49	0.677
662.68	0.676
662.87	0.679
663.06	0.673
663.25	0.673
663.44	0.673
663.63	0.674
663.82	0.674
664.01	0.668
664.20	0.666
664.38	0.668
664.57	0.669
664.76	0.668
664.95	0.668
665.14	0.673
665.33	0.667
665.52	0.675
665.71	0.679
665.90	0.678
666.09	0.679
666.28	0.677
666.46	0.676
666.65	0.677
666.84	0.675
667.03	0.671
667.22	0.669
667.41	0.672
667.60	0.662
667.79	0.655
667.98	0.657
668.16	0.659
668.35	0.658
668.54	0.654
668.73	0.654
668.92	0.655
669.11	0.653
669.30	0.648
669.49	0.644
669.67	0.646
669.86	0.647
670.05	0.645
670.24	0.642
670.43	0.640
670.62	0.639
670.81	0.634
671.00	0.636
671.18	0.636
671.37	0.635
671.56	0.633
671.75	0.631
671.94	0.628
672.13	0.626
672.32	0.621
672.50	0.621
672.69	0.621
672.88	0.622
673.07	0.617
673.26	0.619
673.45	0.619
673.63	0.619
673.82	0.616
674.01	0.618
674.20	0.617
674.39	0.617
674.58	0.616
674.76	0.616
674.95	0.615
675.14	0.615
675.33	0.610
675.52	0.609
675.71	0.610
675.89	0.609
676.08	0.605
676.27	0.605
676.46	0.605
676.65	0.605
676.84	0.605
677.02	0.606
677.21	0.608
677.40	0.607
677.59	0.604
677.78	0.604
677.96	0.607
678.15	0.606
678.34	0.604
678.53	0.606
678.72	0.606
678.90	0.602
679.09	0.597
679.28	0.594
679.47	0.594
679.66	0.594
679.84	0.590
680.03	0.587
680.22	0.586
680.41	0.588
680.60	0.583
680.78	0.582
680.97	0.585
681.16	0.585
681.35	0.584
681.53	0.583
681.72	0.585
681.91	0.587
682.10	0.586
682.29	0.589
682.47	0.586
682.66	0.587
682.85	0.585
683.04	0.583
683.22	0.583
683.41	0.584
683.60	0.583
683.79	0.584
683.97	0.583
684.16	0.581
684.35	0.577
684.54	0.579
684.72	0.579
684.91	0.580
685.10	0.578
685.29	0.580
685.47	0.577
685.66	0.576
685.85	0.572
686.04	0.572
686.22	0.575
686.41	0.577
686.60	0.574
686.79	0.577
686.97	0.578
687.16	0.579
687.35	0.577
687.54	0.580
687.72	0.585
687.91	0.585
688.10	0.586
688.29	0.585
688.47	0.583
688.66	0.583
688.85	0.578
689.03	0.576
689.22	0.581
689.41	0.581
689.60	0.576
689.78	0.573
689.97	0.574
690.16	0.571
690.34	0.568
690.53	0.568
690.72	0.568
690.91	0.566
691.09	0.564
691.28	0.558
691.47	0.557
691.65	0.556
691.84	0.553
692.03	0.552
692.21	0.550
692.40	0.550
692.59	0.547
692.77	0.547
692.96	0.548
693.15	0.549
693.34	0.546
693.52	0.545
693.71	0.546
693.90	0.547
694.08	0.548
694.27	0.549
694.46	0.558
694.64	0.559
694.83	0.558
695.02	0.557
695.20	0.556
695.39	0.556
695.58	0.556
695.76	0.557
695.95	0.556
696.14	0.555
696.32	0.553
696.51	0.543
696.70	0.543
696.88	0.545
697.07	0.543
697.26	0.545
697.44	0.546
697.63	0.546
697.81	0.543
698.00	0.543
698.19	0.542
698.37	0.542
698.56	0.542
698.75	0.541
698.93	0.541
699.12	0.541
699.31	0.540
699.49	0.539
699.68	0.540
699.87	0.543
700.05	0.543
700.24	0.542
700.42	0.544
700.61	0.543
700.80	0.541
700.98	0.541
701.17	0.543
701.36	0.542
701.54	0.541
701.73	0.543
701.91	0.540
702.10	0.539
702.29	0.537
702.47	0.536
702.66	0.537
702.84	0.539
703.03	0.537
703.22	0.539
703.40	0.538
703.59	0.540
703.77	0.539
703.96	0.539
704.15	0.540
704.33	0.540
704.52	0.539
704.70	0.538
704.89	0.538
705.08	0.537
705.26	0.533
705.45	0.533
705.63	0.533
705.82	0.529
706.00	0.528
706.19	0.528
706.38	0.528
706.56	0.528
706.75	0.525
706.93	0.524
707.12	0.525
707.30	0.526
707.49	0.523
707.68	0.521
707.86	0.521
708.05	0.521
708.23	0.518
708.42	0.519
708.60	0.521
708.79	0.522
708.98	0.520
709.16	0.520
709.35	0.522
709.53	0.526
709.72	0.525
709.90	0.527
710.09	0.529
710.27	0.531
710.46	0.534
710.64	0.532
710.83	0.534
711.02	0.536
711.20	0.534
711.39	0.532
711.57	0.529
711.76	0.530
711.94	0.527
712.13	0.528
712.31	0.528
712.50	0.524
712.68	0.521
712.87	0.522
713.05	0.523
713.24	0.524
713.42	0.523
713.61	0.524
713.79	0.525
713.98	0.526
714.16	0.526
714.35	0.526
714.54	0.527
714.72	0.527
714.91	0.524
715.09	0.530
715.28	0.533
715.46	0.533
715.65	0.531
715.83	0.531
716.02	0.534
716.20	0.531
716.39	0.530
716.57	0.531
716.76	0.533
716.94	0.534
717.12	0.526
717.31	0.527
717.49	0.530
717.68	0.531
717.86	0.531
718.05	0.532
718.23	0.535
718.42	0.537
718.60	0.538
718.79	0.546
718.97	0.548
719.16	0.549
719.34	0.546
719.53	0.546
719.71	0.546
719.90	0.547
720.08	0.544
720.27	0.544
720.45	0.544
720.63	0.543
720.82	0.537
721.00	0.540
721.19	0.544
721.37	0.543
721.56	0.543
721.74	0.546
721.93	0.554
722.11	0.561
722.30	0.560
722.48	0.564
722.66	0.566
722.85	0.566
723.03	0.565
723.22	0.564
723.40	0.568
723.59	0.569
723.77	0.573
723.95	0.568
724.14	0.570
724.32	0.572
724.51	0.572
724.69	0.574
724.88	0.574
725.06	0.573
725.24	0.574
725.43	0.575
725.61	0.576
725.80	0.570
725.98	0.567
726.16	0.564
726.35	0.570
726.53	0.568
726.72	0.566
726.90	0.577
727.09	0.577
727.27	0.582
727.45	0.579
727.64	0.590
727.82	0.598
728.01	0.603
728.19	0.599
728.37	0.603
728.56	0.609
728.74	0.616
728.92	0.603
729.11	0.606
729.29	0.604
729.48	0.607
729.66	0.596
729.84	0.596
730.03	0.599
730.21	0.602
730.40	0.593
730.58	0.593
730.76	0.594
730.95	0.596
731.13	0.596
731.31	0.611
731.50	0.620
731.68	0.625
731.86	0.621
732.05	0.638
732.23	0.641
732.42	0.646
732.60	0.649
732.78	0.655
732.97	0.674
733.15	0.681
733.33	0.668
733.52	0.675
733.70	0.686
733.88	0.695
734.07	0.679
734.25	0.706
734.43	0.713
734.62	0.717
734.80	0.710
734.98	0.702
735.17	0.710
735.35	0.717
735.53	0.705
735.72	0.707
735.90	0.733
736.08	0.755
736.27	0.730
736.45	0.742
736.63	0.757
736.82	0.767
737.00	0.766
737.18	0.777
737.37	0.811
737.55	0.838
737.73	0.835
737.92	0.836
738.10	0.834
738.28	0.860
738.46	0.846
738.65	0.859
738.83	0.885
739.01	0.951
739.20	0.940
739.38	0.922
739.56	0.912
739.75	0.911
739.93	0.879
740.11	0.903
740.29	0.896
740.48	0.903
740.66	0.879
740.84	0.876
741.03	0.837
741.21	0.846
741.39	0.826
741.57	0.840
741.76	0.861
741.94	0.864
742.12	0.825
742.31	0.835
742.49	0.859
742.67	0.884
742.85	0.896
743.04	0.901
743.22	0.914
743.40	0.971
743.58	0.951
743.77	0.972
743.95	1.013
744.13	1.075
744.31	1.053
744.50	1.045
744.68	1.044
744.86	1.016
745.04	1.028
745.23	1.107
745.41	1.090
745.59	1.095
745.77	1.053
745.96	1.036
746.14	1.049
746.32	1.050
746.50	1.038
746.69	1.019
746.87	1.029
747.05	1.008
747.23	0.924
747.42	0.911
747.60	0.941
747.78	0.940
747.96	0.980
748.14	0.933
748.33	0.961
748.51	0.955
748.69	0.949
748.87	0.984
749.06	0.987
749.24	0.989
749.42	0.966
749.60	0.948
749.78	0.964
749.97	0.907
750.15	0.897
750.33	0.898
750.51	0.934
750.69	0.939
750.88	0.936
751.06	0.948
751.24	0.974
751.42	0.966
751.60	0.954
751.79	1.041
751.97	1.099
752.15	1.095
752.33	1.056
752.51	1.124
752.69	1.147
752.88	1.108
753.06	1.157
753.24	1.129
753.42	1.176
753.60	1.405
753.78	1.193
753.97	1.212
754.15	1.246
754.33	1.287
754.51	1.128
754.69	1.106
754.87	1.141
755.06	1.057
755.24	1.057
755.42	1.062
755.60	0.949
755.78	0.957
755.96	0.893
756.15	0.892
756.33	0.896
756.51	0.914
756.69	0.900
756.87	0.863
757.05	0.886
757.23	0.867
757.42	0.829
757.60	0.828
757.78	0.816
757.96	0.817
758.14	0.798
758.32	0.788
758.50	0.799
758.69	0.798
758.87	0.790
759.05	0.794
759.23	0.805
759.41	0.809
759.59	0.802
759.77	0.830
759.95	0.862
760.13	0.917
760.32	0.908
760.50	0.904
760.68	0.927
760.86	0.928
761.04	0.895
761.22	0.899
761.40	0.954
761.58	0.953
761.76	0.919
761.95	0.895
762.13	0.849
762.31	0.848
762.49	0.813
762.67	0.833
762.85	0.850
763.03	0.844
763.21	0.824
763.39	0.804
763.57	0.807
763.75	0.803
763.94	0.785
764.12	0.785
764.30	0.815
764.48	0.820
764.66	0.782
764.84	0.779
765.02	0.820
765.20	0.830
765.38	0.806
765.56	0.813
765.74	0.858
765.92	0.861
766.10	0.867
766.28	0.857
766.46	0.889
766.65	0.886
766.83	0.870
767.01	0.852
767.19	0.855
767.37	0.856
767.55	0.840
767.73	0.818
767.91	0.823
768.09	0.811
768.27	0.802
768.45	0.791
768.63	0.801
768.81	0.807
768.99	0.779
769.17	0.811
769.35	0.825
769.53	0.821
769.71	0.798
769.89	0.809
770.07	0.818
770.25	0.798
770.43	0.778
770.61	0.800
770.79	0.803
770.97	0.815
771.15	0.776
771.33	0.779
771.51	0.783
771.69	0.793
771.87	0.798
772.05	0.803
772.24	0.810
772.42	0.818
772.60	0.797
772.78	0.860
772.96	0.890
773.14	0.886
773.32	0.865
773.49	0.876
773.67	0.874
773.85	0.852
774.03	0.837
774.21	0.873
774.39	0.883
774.57	0.908
774.75	0.830
774.93	0.824
775.11	0.853
775.29	0.858
775.47	0.854
775.65	0.868
775.83	0.888
776.01	0.913
776.19	0.860
776.37	0.864
776.55	0.862
776.73	0.857
776.91	0.852
777.09	0.829
777.27	0.828
777.45	0.816
777.63	0.794
777.81	0.790
777.99	0.776
778.17	0.778
778.35	0.752
778.53	0.742
778.71	0.747
778.89	0.735
779.07	0.724
779.24	0.729
779.42	0.733
779.60	0.748
779.78	0.744
779.96	0.750
780.14	0.757
780.32	0.781
780.50	0.762
780.68	0.760
780.86	0.753
781.04	0.773
781.22	0.780
781.40	0.790
781.58	0.781
781.75	0.773
781.93	0.752
782.11	0.753
782.29	0.738
782.47	0.738
782.65	0.728
782.83	0.757
783.01	0.748
783.19	0.738
783.37	0.722
783.55	0.727
783.72	0.747
783.90	0.762
784.08	0.752
784.26	0.764
784.44	0.785
784.62	0.787
784.80	0.753
784.98	0.760
785.16	0.766
785.33	0.782
785.51	0.766
785.69	0.752
785.87	0.749
786.05	0.761
786.23	0.756
786.41	0.751
786.59	0.757
786.77	0.755
786.94	0.740
787.12	0.744
787.30	0.746
787.48	0.743
787.66	0.727
787.84	0.730
788.02	0.720
788.19	0.719
788.37	0.704
788.55	0.707
788.73	0.708
788.91	0.702
789.09	0.683
789.27	0.672
789.44	0.683
789.62	0.690
789.80	0.698
789.98	0.724
790.16	0.709
790.34	0.707
790.51	0.693
790.69	0.714
790.87	0.721
791.05	0.722
791.23	0.715
791.41	0.718
791.58	0.727
791.76	0.704
791.94	0.671
792.12	0.682
792.30	0.682
792.48	0.681
792.65	0.671
792.83	0.678
793.01	0.686
793.19	0.682
793.37	0.665
793.54	0.661
793.72	0.673
793.90	0.671
794.08	0.657
794.26	0.659
794.43	0.669
794.61	0.654
794.79	0.643
794.97	0.641
795.15	0.646
795.32	0.649
795.50	0.640
795.68	0.634
795.86	0.639
796.04	0.642
796.21	0.636
796.39	0.634
796.57	0.647
796.75	0.657
796.92	0.658
797.10	0.664
797.28	0.669
797.46	0.672
797.64	0.674
797.81	0.683
797.99	0.688
798.17	0.692
798.35	0.688
798.52	0.691
798.70	0.685
798.88	0.693
799.06	0.691
799.23	0.693
799.41	0.703
799.59	0.696
799.77	0.684
799.94	0.692
800.12	0.702
800.30	0.717
800.48	0.717
800.65	0.715
800.83	0.706
801.01	0.697
801.19	0.697
801.36	0.691
801.54	0.693
801.72	0.702
801.90	0.689
802.07	0.684
802.25	0.670
802.43	0.653
802.60	0.650
802.78	0.657
802.96	0.664
803.14	0.658
803.31	0.656
803.49	0.657
803.67	0.654
803.84	0.657
804.02	0.648
804.20	0.652
804.38	0.657
804.55	0.656
804.73	0.642
804.91	0.642
805.08	0.654
805.26	0.650
805.44	0.718
805.61	0.721
805.79	0.723
805.97	0.720
806.15	0.712
806.32	0.707
806.50	0.714
806.68	0.714
806.85	0.706
807.03	0.696
807.21	0.713
807.38	0.642
807.56	0.630
807.74	0.640
807.91	0.651
808.09	0.654
808.27	0.672
808.44	0.700
808.62	0.710
808.80	0.710
808.97	0.703
809.15	0.699
809.33	0.719
809.50	0.726
809.68	0.710
809.86	0.718
810.03	0.751
810.21	0.731
810.39	0.711
810.56	0.717
810.74	0.744
810.91	0.824
811.09	0.811
811.27	0.831
811.44	0.842
811.62	0.845
811.80	0.825
811.97	0.793
812.15	0.792
812.33	0.785
812.50	0.768
812.68	0.754
812.85	0.694
813.03	0.694
813.21	0.662
813.38	0.654
813.56	0.656
813.74	0.666
813.91	0.672
814.09	0.703
814.26	0.698
814.44	0.703
814.62	0.692
814.79	0.697
814.97	0.705
815.14	0.709
815.32	0.713
815.50	0.731
815.67	0.734
815.85	0.724
816.02	0.711
816.20	0.720
816.38	0.740
816.55	0.744
816.73	0.745
816.90	0.755
817.08	0.788
817.26	0.794
817.43	0.775
817.61	0.801
817.78	0.827
817.96	0.806
818.13	0.794
818.31	0.789
818.49	0.806
818.66	0.795
818.84	0.781
819.01	0.756
819.19	0.762
819.36	0.765
819.54	0.733
819.71	0.779
819.89	0.795
820.07	0.806
820.24	0.801
820.42	0.801
820.59	0.825
820.77	0.849
820.94	0.841
821.12	0.861
821.29	0.879
821.47	0.883
821.64	0.807
821.82	0.823
822.00	0.820
822.17	0.816
822.35	0.808
822.52	0.809
822.70	0.799
822.87	0.812
823.05	0.789
823.22	0.801
823.40	0.831
823.57	0.860
823.75	0.836
823.92	0.868
824.10	0.891
824.27	0.939
824.45	0.923
824.62	0.998
824.80	1.021
824.97	1.047
825.15	1.030
825.32	1.048
825.50	1.056
825.67	1.076
825.85	1.048
826.02	1.073
826.20	1.106
826.37	1.292
826.55	1.167
826.72	1.490
826.90	1.640
827.07	1.808
827.25	1.665
827.42	2.524
827.60	-0.000
827.77	-0.000
827.95	-0.000
828.12	-0.000
828.30	-0.000
828.47	-0.000
828.65	1.741
828.82	1.975
829.00	2.647
829.17	-0.000
829.34	-0.000
829.52	-0.000
829.69	-0.000
829.87	-0.000
830.04	-0.000
830.22	-0.000
830.39	-0.000
830.57	-0.000
830.74	-0.000
830.92	-0.000
831.09	-0.000
831.26	-0.000
831.44	-0.000
831.61	-0.000
831.79	-0.000
831.96	-0.000
832.14	-0.000
832.31	-0.000
832.49	-0.000
832.66	-0.000
832.83	-0.000
833.01	-0.000
833.18	-0.000
833.36	-0.000
833.53	-0.000
833.70	-0.000
833.88	-0.000
834.05	-0.000
834.23	-0.000
834.40	-0.000
834.58	-0.000
834.75	-0.000
834.92	-0.000
835.10	-0.000
835.27	-0.000
835.45	-0.000
835.62	-0.000
835.79	-0.000
835.97	-0.000
836.14	-0.000
836.32	-0.000
836.49	-0.000
836.66	-0.000
836.84	-0.000
837.01	-0.000
837.18	-0.000
837.36	-0.000
837.53	-0.000
837.71	-0.000
837.88	-0.000
838.05	-0.000
838.23	-0.000
838.40	-0.000
838.58	-0.000
838.75	-0.000
838.92	-0.000
839.10	-0.000
839.27	-0.000
839.44	-0.000
839.62	-0.000
839.79	-0.000
839.96	-0.000
840.14	-0.000
840.31	-0.000
840.48	-0.000
840.66	-0.000
840.83	-0.000
841.01	-0.000
841.18	-0.000
841.35	-0.000
841.53	-0.000
841.70	-0.000
841.87	-0.000
842.05	-0.000
842.22	-0.000
842.39	-0.000
842.57	-0.000
842.74	-0.000
842.91	-0.000
843.09	-0.000
843.26	-0.000
843.43	-0.000
843.60	-0.000
843.78	-0.000
843.95	-0.000
844.12	-0.000
844.30	-0.000
844.47	-0.000
844.64	-0.000
844.82	-0.000
844.99	-0.000
845.16	-0.000
845.34	-0.000
845.51	-0.000
845.68	-0.000
845.85	-0.000
846.03	-0.000
846.20	-0.000
846.37	-0.000
846.55	-0.000
846.72	-0.000
846.89	-0.000
847.06	-0.000
847.24	-0.000
847.41	-0.000
847.58	-0.000
847.76	-0.000
847.93	-0.000
848.10	-0.000
848.27	-0.000
848.45	-0.000
848.62	-0.000
848.79	-0.000
848.97	-0.000
849.14	-0.000
849.31	-0.000
849.48	-0.000
849.66	-0.000
849.83	-0.000
850.00	-0.000
850.17	-0.000
850.35	-0.000
850.52	-0.000
850.69	-0.000
850.86	-0.000
851.04	-0.000
851.21	-0.000
851.38	-0.000
851.55	-0.000
851.72	-0.000
851.90	-0.000
852.07	-0.000
852.24	-0.000
852.41	-0.000
852.59	-0.000
852.76	-0.000
852.93	-0.000
853.10	-0.000
853.28	-0.000
853.45	-0.000
853.62	-0.000
853.79	-0.000
853.96	-0.000
854.14	-0.000
854.31	-0.000
854.48	-0.000
854.65	-0.000
854.82	-0.000
855.00	-0.000
855.17	-0.000
855.34	-0.000
855.51	-0.000
855.68	-0.000
855.86	-0.000
856.03	-0.000
856.20	-0.000
856.37	-0.000
856.54	-0.000
856.72	-0.000
856.89	-0.000
857.06	-0.000
857.23	-0.000
857.40	-0.000
857.57	-0.000
857.75	-0.000
857.92	-0.000
858.09	-0.000
858.26	-0.000
858.43	-0.000
858.60	-0.000
858.78	-0.000
858.95	-0.000
859.12	-0.000
859.29	-0.000
859.46	-0.000
859.63	-0.000
859.81	-0.000
859.98	-0.000
860.15	-0.000
860.32	-0.000
860.49	-0.000
860.66	-0.000
860.83	-0.000
861.01	-0.000
861.18	-0.000
861.35	-0.000
861.52	-0.000
861.69	-0.000
861.86	-0.000
862.03	-0.000
862.21	-0.000
862.38	-0.000
862.55	-0.000
862.72	-0.000
862.89	-0.000
863.06	-0.000
863.23	-0.000
863.40	-0.000
863.58	-0.000
863.75	-0.000
863.92	-0.000
864.09	-0.000
864.26	-0.000
864.43	-0.000
864.60	-0.000
864.77	-0.000
864.94	-0.000
865.11	-0.000
865.29	-0.000
865.46	-0.000
865.63	-0.000
865.80	-0.000
865.97	-0.000
866.14	-0.000
866.31	-0.000
866.48	-0.000
866.65	-0.000
866.82	-0.000
866.99	-0.000
867.16	-0.000
867.34	-0.000
867.51	-0.000
867.68	-0.000
867.85	-0.000
868.02	-0.000
868.19	-0.000
868.36	-0.000
868.53	-0.000
868.70	-0.000
868.87	-0.000
869.04	-0.000
869.21	-0.000
869.38	-0.000
869.55	-0.000
869.72	-0.000
869.89	-0.000
870.06	-0.000
870.24	-0.000
870.41	-0.000
870.58	-0.000
870.75	-0.000
870.92	-0.000
871.09	-0.000
871.26	-0.000
871.43	-0.000
871.60	-0.000
871.77	-0.000
871.94	-0.000
872.11	-0.000
872.28	-0.000
872.45	-0.000
872.62	-0.000
872.79	-0.000
872.96	-0.000
873.13	-0.000
873.30	-0.000
873.47	-0.000
873.64	-0.000
873.81	-0.000
873.98	-0.000
874.15	-0.000
874.32	-0.000
874.49	-0.000
874.66	-0.000
874.83	-0.000
875.00	-0.000
875.17	-0.000
875.34	-0.000
875.51	-0.000
875.68	-0.000
875.85	-0.000
876.02	-0.000
876.19	-0.000
876.36	-0.000
876.53	-0.000
876.70	-0.000
876.87	-0.000
877.04	-0.000
877.21	-0.000
877.38	-0.000
877.55	-0.000
877.72	-0.000
877.89	-0.000
878.06	-0.000
878.23	-0.000
878.39	-0.000
878.56	-0.000
878.73	-0.000
878.90	-0.000
879.07	-0.000
879.24	-0.000
879.41	-0.000
879.58	-0.000
879.75	-0.000
879.92	-0.000
880.09	-0.000
880.26	-0.000
880.43	-0.000
880.60	-0.000
880.77	-0.000
880.94	-0.000
881.11	-0.000
881.27	-0.000
881.44	-0.000
881.61	-0.000
881.78	-0.000
881.95	-0.000
882.12	-0.000
882.29	-0.000
882.46	-0.000
882.63	-0.000
882.80	-0.000
882.97	-0.000
883.14	-0.000
883.30	-0.000
883.47	-0.000
883.64	-0.000
883.81	-0.000
883.98	-0.000
884.15	-0.000
884.32	-0.000
884.49	-0.000
884.66	-0.000
884.82	-0.000
884.99	-0.000
885.16	-0.000
885.33	-0.000
885.50	-0.000
885.67	-0.000
885.84	-0.000
886.01	-0.000
886.17	-0.000
886.34	-0.000
886.51	-0.000
886.68	-0.000
886.85	-0.000
887.02	-0.000
887.19	-0.000
887.36	-0.000
887.52	-0.000
887.69	-0.000
887.86	-0.000
888.03	-0.000
888.20	-0.000
888.37	-0.000
888.54	-0.000
888.70	-0.000
888.87	-0.000
889.04	-0.000
889.21	-0.000
889.38	-0.000
889.55	-0.000
889.71	-0.000
889.88	-0.000
890.05	-0.000
890.22	-0.000
890.39	-0.000
>>>>>End Processed Spectral Data<<<<<
