SpectraSuite Data File
++++++++++++++++++++++++++++++++++++
Date: Fri Jun 19 12:46:46 CEST 2015
User: introlabs
Dark Spectrum Present: Yes
Reference Spectrum Present: Yes
Number of Sampled Component Spectra: 1
Spectrometers: USB4H08886
Integration Time (usec): 745692 (USB4H08886)
Spectra Averaged: 5 (USB4H08886)
Boxcar Smoothing: 5 (USB4H08886)
Correct for Electrical Dark: Yes (USB4H08886)
Strobe/Lamp Enabled: No (USB4H08886)
Correct for Detector Non-linearity: Yes (USB4H08886)
Correct for Stray Light: Yes (USB4H08886)
Number of Pixels in Processed Spectrum: 3648
>>>>>Begin Processed Spectral Data<<<<<
178.14	-0.000
178.36	-0.000
178.57	-0.000
178.79	-0.000
179.01	-0.000
179.22	-0.000
179.44	-0.000
179.65	-0.000
179.87	-0.000
180.08	-0.000
180.30	-0.000
180.52	-0.000
180.73	-0.000
180.95	-0.000
181.16	-0.000
181.38	-0.000
181.59	-0.000
181.81	-0.000
182.03	-0.000
182.24	-0.000
182.46	-0.000
182.67	-0.000
182.89	-0.000
183.10	-0.000
183.32	-0.000
183.54	-0.000
183.75	-0.000
183.97	-0.000
184.18	-0.000
184.40	-0.000
184.61	-0.000
184.83	-0.000
185.04	-0.000
185.26	-0.000
185.48	-0.000
185.69	-0.000
185.91	-0.000
186.12	-0.000
186.34	-0.000
186.55	-0.000
186.77	-0.000
186.98	-0.000
187.20	-0.000
187.42	-0.000
187.63	-0.000
187.85	-0.000
188.06	-0.000
188.28	-0.000
188.49	-0.000
188.71	-0.000
188.92	-0.000
189.14	-0.000
189.36	-0.000
189.57	-0.000
189.79	-0.000
190.00	-0.000
190.22	-0.000
190.43	-0.000
190.65	-0.000
190.86	-0.000
191.08	-0.000
191.29	-0.000
191.51	-0.000
191.72	-0.000
191.94	-0.000
192.16	-0.000
192.37	-0.000
192.59	-0.000
192.80	-0.000
193.02	-0.000
193.23	-0.000
193.45	-0.000
193.66	-0.000
193.88	-0.000
194.09	-0.000
194.31	-0.000
194.52	-0.000
194.74	-0.000
194.95	-0.000
195.17	-0.000
195.38	-0.000
195.60	-0.000
195.81	-0.000
196.03	-0.000
196.25	-0.000
196.46	-0.000
196.68	-0.000
196.89	-0.000
197.11	-0.000
197.32	-0.000
197.54	-0.000
197.75	-0.000
197.97	-0.000
198.18	-0.000
198.40	-0.000
198.61	-0.000
198.83	-0.000
199.04	-0.000
199.26	-0.000
199.47	-0.000
199.69	-0.000
199.90	-0.000
200.12	-0.000
200.33	-0.000
200.55	-0.000
200.76	-0.000
200.98	-0.000
201.19	-0.000
201.41	-0.000
201.62	-0.000
201.84	-0.000
202.05	-0.000
202.27	-0.000
202.48	-0.000
202.70	-0.000
202.91	-0.000
203.13	-0.000
203.34	-0.000
203.56	-0.000
203.77	-0.000
203.99	-0.000
204.20	-0.000
204.42	-0.000
204.63	-0.000
204.85	-0.000
205.06	-0.000
205.28	-0.000
205.49	-0.000
205.71	-0.000
205.92	-0.000
206.14	-0.000
206.35	-0.000
206.56	-0.000
206.78	-0.000
206.99	-0.000
207.21	-0.000
207.42	-0.000
207.64	-0.000
207.85	-0.000
208.07	-0.000
208.28	-0.000
208.50	-0.000
208.71	-0.000
208.93	-0.000
209.14	-0.000
209.36	-0.000
209.57	-0.000
209.79	-0.000
210.00	-0.000
210.22	-0.000
210.43	-0.000
210.64	-0.000
210.86	-0.000
211.07	-0.000
211.29	-0.000
211.50	-0.000
211.72	-0.000
211.93	-0.000
212.15	-0.000
212.36	-0.000
212.58	-0.000
212.79	-0.000
213.01	-0.000
213.22	-0.000
213.43	-0.000
213.65	-0.000
213.86	-0.000
214.08	-0.000
214.29	-0.000
214.51	-0.000
214.72	-0.000
214.94	-0.000
215.15	-0.000
215.36	-0.000
215.58	-0.000
215.79	-0.000
216.01	-0.000
216.22	-0.000
216.44	-0.000
216.65	-0.000
216.87	-0.000
217.08	-0.000
217.29	-0.000
217.51	-0.000
217.72	-0.000
217.94	-0.000
218.15	-0.000
218.37	-0.000
218.58	-0.000
218.80	-0.000
219.01	-0.000
219.22	-0.000
219.44	-0.000
219.65	-0.000
219.87	-0.000
220.08	-0.000
220.30	-0.000
220.51	-0.000
220.72	-0.000
220.94	-0.000
221.15	-0.000
221.37	-0.000
221.58	-0.000
221.79	-0.000
222.01	-0.000
222.22	-0.000
222.44	-0.000
222.65	-0.000
222.87	-0.000
223.08	-0.000
223.29	-0.000
223.51	-0.000
223.72	-0.000
223.94	-0.000
224.15	-0.000
224.36	-0.000
224.58	-0.000
224.79	-0.000
225.01	-0.000
225.22	-0.000
225.44	-0.000
225.65	-0.000
225.86	-0.000
226.08	-0.000
226.29	-0.000
226.51	-0.000
226.72	-0.000
226.93	-0.000
227.15	-0.000
227.36	-0.000
227.58	-0.000
227.79	-0.000
228.00	-0.000
228.22	-0.000
228.43	-0.000
228.65	-0.000
228.86	-0.000
229.07	-0.000
229.29	-0.000
229.50	-0.000
229.72	-0.000
229.93	-0.000
230.14	-0.000
230.36	-0.000
230.57	-0.000
230.78	-0.000
231.00	-0.000
231.21	-0.000
231.43	-0.000
231.64	-0.000
231.85	-0.000
232.07	-0.000
232.28	-0.000
232.50	-0.000
232.71	-0.000
232.92	-0.000
233.14	-0.000
233.35	-0.000
233.56	-0.000
233.78	-0.000
233.99	-0.000
234.21	-0.000
234.42	-0.000
234.63	-0.000
234.85	-0.000
235.06	-0.000
235.27	-0.000
235.49	-0.000
235.70	-0.000
235.91	-0.000
236.13	-0.000
236.34	-0.000
236.56	-0.000
236.77	-0.000
236.98	-0.000
237.20	-0.000
237.41	-0.000
237.62	-0.000
237.84	-0.000
238.05	-0.000
238.26	-0.000
238.48	-0.000
238.69	-0.000
238.91	-0.000
239.12	-0.000
239.33	-0.000
239.55	-0.000
239.76	-0.000
239.97	-0.000
240.19	-0.000
240.40	-0.000
240.61	-0.000
240.83	-0.000
241.04	-0.000
241.25	-0.000
241.47	-0.000
241.68	-0.000
241.89	-0.000
242.11	-0.000
242.32	-0.000
242.53	-0.000
242.75	-0.000
242.96	-0.000
243.17	-0.000
243.39	-0.000
243.60	-0.000
243.81	-0.000
244.03	-0.000
244.24	-0.000
244.45	-0.000
244.67	-0.000
244.88	-0.000
245.09	-0.000
245.31	-0.000
245.52	-0.000
245.73	-0.000
245.95	-0.000
246.16	-0.000
246.37	-0.000
246.59	-0.000
246.80	-0.000
247.01	-0.000
247.23	-0.000
247.44	-0.000
247.65	-0.000
247.87	-0.000
248.08	-0.000
248.29	-0.000
248.51	-0.000
248.72	-0.000
248.93	-0.000
249.15	-0.000
249.36	-0.000
249.57	-0.000
249.78	-0.000
250.00	-0.000
250.21	-0.000
250.42	-0.000
250.64	-0.000
250.85	-0.000
251.06	-0.000
251.28	-0.000
251.49	-0.000
251.70	-0.000
251.92	-0.000
252.13	-0.000
252.34	-0.000
252.55	-0.000
252.77	-0.000
252.98	-0.000
253.19	-0.000
253.41	-0.000
253.62	-0.000
253.83	-0.000
254.05	-0.000
254.26	-0.000
254.47	-0.000
254.68	-0.000
254.90	-0.000
255.11	-0.000
255.32	-0.000
255.54	-0.000
255.75	-0.000
255.96	-0.000
256.17	-0.000
256.39	-0.000
256.60	-0.000
256.81	-0.000
257.03	-0.000
257.24	-0.000
257.45	-0.000
257.66	-0.000
257.88	-0.000
258.09	-0.000
258.30	-0.000
258.51	-0.000
258.73	-0.000
258.94	-0.000
259.15	-0.000
259.37	-0.000
259.58	-0.000
259.79	-0.000
260.00	-0.000
260.22	-0.000
260.43	-0.000
260.64	-0.000
260.85	-0.000
261.07	-0.000
261.28	-0.000
261.49	-0.000
261.71	-0.000
261.92	-0.000
262.13	-0.000
262.34	-0.000
262.56	-0.000
262.77	-0.000
262.98	-0.000
263.19	-0.000
263.41	-0.000
263.62	-0.000
263.83	-0.000
264.04	-0.000
264.26	-0.000
264.47	-0.000
264.68	-0.000
264.89	-0.000
265.11	-0.000
265.32	-0.000
265.53	-0.000
265.74	-0.000
265.96	-0.000
266.17	-0.000
266.38	-0.000
266.59	-0.000
266.81	-0.000
267.02	-0.000
267.23	-0.000
267.44	-0.000
267.65	-0.000
267.87	-0.000
268.08	-0.000
268.29	-0.000
268.50	-0.000
268.72	-0.000
268.93	-0.000
269.14	-0.000
269.35	-0.000
269.57	-0.000
269.78	-0.000
269.99	-0.000
270.20	-0.000
270.41	-0.000
270.63	-0.000
270.84	-0.000
271.05	-0.000
271.26	-0.000
271.48	-0.000
271.69	-0.000
271.90	-0.000
272.11	-0.000
272.32	-0.000
272.54	-0.000
272.75	-0.000
272.96	-0.000
273.17	-0.000
273.39	-0.000
273.60	-0.000
273.81	-0.000
274.02	-0.000
274.23	-0.000
274.45	-0.000
274.66	-0.000
274.87	-0.000
275.08	-0.000
275.29	-0.000
275.51	-0.000
275.72	-0.000
275.93	-0.000
276.14	-0.000
276.35	-0.000
276.57	-0.000
276.78	-0.000
276.99	-0.000
277.20	-0.000
277.41	-0.000
277.63	-0.000
277.84	-0.000
278.05	-0.000
278.26	-0.000
278.47	-0.000
278.69	-0.000
278.90	-0.000
279.11	-0.000
279.32	-0.000
279.53	-0.000
279.74	-0.000
279.96	-0.000
280.17	-0.000
280.38	-0.000
280.59	-0.000
280.80	-0.000
281.02	-0.000
281.23	-0.000
281.44	-0.000
281.65	-0.000
281.86	-0.000
282.07	-0.000
282.29	-0.000
282.50	-0.000
282.71	-0.000
282.92	-0.000
283.13	-0.000
283.35	-0.000
283.56	-0.000
283.77	-0.000
283.98	-0.000
284.19	-0.000
284.40	-0.000
284.62	-0.000
284.83	-0.000
285.04	-0.000
285.25	-0.000
285.46	-0.000
285.67	-0.000
285.88	-0.000
286.10	-0.000
286.31	-0.000
286.52	-0.000
286.73	-0.000
286.94	-0.000
287.15	-0.000
287.37	-0.000
287.58	-0.000
287.79	-0.000
288.00	-0.000
288.21	-0.000
288.42	-0.000
288.63	-0.000
288.85	-0.000
289.06	-0.000
289.27	-0.000
289.48	-0.000
289.69	-0.000
289.90	-0.000
290.11	-0.000
290.33	-0.000
290.54	-0.000
290.75	-0.000
290.96	-0.000
291.17	-0.000
291.38	-0.000
291.59	-0.000
291.81	-0.000
292.02	-0.000
292.23	-0.000
292.44	-0.000
292.65	-0.000
292.86	-0.000
293.07	-0.000
293.28	-0.000
293.50	-0.000
293.71	-0.000
293.92	-0.000
294.13	-0.000
294.34	-0.000
294.55	-0.000
294.76	-0.000
294.97	-0.000
295.19	-0.000
295.40	-0.000
295.61	-0.000
295.82	-0.000
296.03	-0.000
296.24	-0.000
296.45	-0.000
296.66	2.123
296.87	2.155
297.09	2.500
297.30	-0.000
297.51	1.991
297.72	1.909
297.93	2.148
298.14	2.062
298.35	1.947
298.56	1.879
298.77	2.139
298.99	2.064
299.20	1.976
299.41	1.914
299.62	1.869
299.83	1.842
300.04	1.728
300.25	1.697
300.46	1.762
300.67	1.726
300.88	1.645
301.10	1.645
301.31	1.760
301.52	1.672
301.73	1.583
301.94	1.579
302.15	1.612
302.36	1.552
302.57	1.472
302.78	1.482
302.99	1.532
303.20	1.554
303.41	1.444
303.63	1.417
303.84	1.426
304.05	1.424
304.26	1.352
304.47	1.356
304.68	1.363
304.89	1.351
305.10	1.299
305.31	1.289
305.52	1.332
305.73	1.323
305.94	1.276
306.15	1.268
306.37	1.293
306.58	1.302
306.79	1.265
307.00	1.285
307.21	1.333
307.42	1.327
307.63	1.281
307.84	1.250
308.05	1.289
308.26	1.289
308.47	1.261
308.68	1.259
308.89	1.261
309.10	1.259
309.31	1.217
309.52	1.206
309.73	1.223
309.95	1.216
310.16	1.183
310.37	1.173
310.58	1.192
310.79	1.189
311.00	1.183
311.21	1.186
311.42	1.189
311.63	1.183
311.84	1.158
312.05	1.155
312.26	1.183
312.47	1.194
312.68	1.166
312.89	1.150
313.10	1.162
313.31	1.133
313.52	1.130
313.73	1.132
313.94	1.135
314.15	1.121
314.36	1.097
314.57	1.088
314.78	1.076
314.99	1.072
315.21	1.058
315.42	1.060
315.63	1.075
315.84	1.052
316.05	1.036
316.26	1.046
316.47	1.063
316.68	1.059
316.89	1.039
317.10	1.062
317.31	1.070
317.52	1.069
317.73	1.046
317.94	1.046
318.15	1.091
318.36	1.090
318.57	1.069
318.78	1.058
318.99	1.096
319.20	1.092
319.41	1.053
319.62	1.055
319.83	1.069
320.04	1.065
320.25	1.048
320.46	1.016
320.67	1.019
320.88	1.015
321.09	0.999
321.30	0.983
321.51	1.000
321.72	0.998
321.93	0.979
322.14	0.973
322.35	1.001
322.56	1.002
322.77	0.986
322.98	0.997
323.19	1.007
323.40	1.013
323.61	0.991
323.82	0.984
324.03	0.991
324.24	0.990
324.45	0.976
324.66	0.957
324.87	0.957
325.08	0.957
325.29	0.937
325.50	0.930
325.71	0.938
325.92	0.945
326.13	0.932
326.34	0.932
326.55	0.940
326.76	0.937
326.97	0.926
327.18	0.919
327.39	0.946
327.60	0.948
327.80	0.946
328.01	0.943
328.22	0.944
328.43	0.948
328.64	0.936
328.85	0.942
329.06	0.945
329.27	0.944
329.48	0.939
329.69	0.919
329.90	0.929
330.11	0.921
330.32	0.915
330.53	0.908
330.74	0.908
330.95	0.906
331.16	0.891
331.37	0.898
331.58	0.899
331.79	0.898
332.00	0.890
332.21	0.884
332.42	0.888
332.63	0.878
332.83	0.874
333.04	0.877
333.25	0.889
333.46	0.886
333.67	0.872
333.88	0.875
334.09	0.885
334.30	0.881
334.51	0.870
334.72	0.867
334.93	0.871
335.14	0.870
335.35	0.862
335.56	0.857
335.77	0.868
335.98	0.867
336.18	0.859
336.39	0.851
336.60	0.857
336.81	0.855
337.02	0.853
337.23	0.857
337.44	0.859
337.65	0.861
337.86	0.851
338.07	0.846
338.28	0.851
338.49	0.849
338.70	0.841
338.91	0.847
339.11	0.855
339.32	0.851
339.53	0.839
339.74	0.837
339.95	0.834
340.16	0.832
340.37	0.824
340.58	0.822
340.79	0.827
341.00	0.825
341.21	0.814
341.41	0.816
341.62	0.818
341.83	0.820
342.04	0.815
342.25	0.825
342.46	0.831
342.67	0.829
342.88	0.822
343.09	0.822
343.30	0.831
343.50	0.834
343.71	0.824
343.92	0.824
344.13	0.829
344.34	0.828
344.55	0.812
344.76	0.810
344.97	0.815
345.18	0.815
345.38	0.811
345.59	0.805
345.80	0.804
346.01	0.801
346.22	0.795
346.43	0.789
346.64	0.798
346.85	0.797
347.06	0.790
347.26	0.790
347.47	0.793
347.68	0.789
347.89	0.785
348.10	0.780
348.31	0.789
348.52	0.788
348.73	0.784
348.93	0.781
349.14	0.784
349.35	0.785
349.56	0.778
349.77	0.775
349.98	0.782
350.19	0.780
350.39	0.775
350.60	0.770
350.81	0.787
351.02	0.786
351.23	0.781
351.44	0.783
351.65	0.787
351.86	0.784
352.06	0.782
352.27	0.781
352.48	0.783
352.69	0.782
352.90	0.776
353.11	0.764
353.31	0.771
353.52	0.767
353.73	0.759
353.94	0.760
354.15	0.766
354.36	0.766
354.57	0.758
354.77	0.760
354.98	0.760
355.19	0.760
355.40	0.758
355.61	0.764
355.82	0.769
356.02	0.769
356.23	0.761
356.44	0.763
356.65	0.767
356.86	0.767
357.07	0.760
357.27	0.764
357.48	0.768
357.69	0.763
357.90	0.748
358.11	0.745
358.32	0.750
358.52	0.753
358.73	0.743
358.94	0.746
359.15	0.752
359.36	0.753
359.56	0.747
359.77	0.744
359.98	0.752
360.19	0.752
360.40	0.748
360.61	0.748
360.81	0.747
361.02	0.748
361.23	0.739
361.44	0.737
361.65	0.738
361.85	0.738
362.06	0.735
362.27	0.736
362.48	0.737
362.69	0.740
362.89	0.734
363.10	0.735
363.31	0.740
363.52	0.743
363.73	0.738
363.93	0.738
364.14	0.741
364.35	0.743
364.56	0.733
364.77	0.735
364.97	0.738
365.18	0.738
365.39	0.732
365.60	0.728
365.81	0.730
366.01	0.730
366.22	0.726
366.43	0.725
366.64	0.727
366.84	0.733
367.05	0.729
367.26	0.729
367.47	0.731
367.68	0.732
367.88	0.729
368.09	0.727
368.30	0.730
368.51	0.730
368.71	0.729
368.92	0.733
369.13	0.732
369.34	0.732
369.55	0.730
369.75	0.730
369.96	0.738
370.17	0.737
370.38	0.733
370.58	0.731
370.79	0.738
371.00	0.736
371.21	0.726
371.41	0.731
371.62	0.736
371.83	0.731
372.04	0.728
372.24	0.720
372.45	0.723
372.66	0.723
372.87	0.720
373.07	0.716
373.28	0.717
373.49	0.721
373.70	0.711
373.90	0.710
374.11	0.720
374.32	0.721
374.53	0.719
374.73	0.720
374.94	0.723
375.15	0.723
375.36	0.720
375.56	0.729
375.77	0.730
375.98	0.731
376.19	0.727
376.39	0.720
376.60	0.724
376.81	0.724
377.02	0.720
377.22	0.719
377.43	0.719
377.64	0.718
377.84	0.709
378.05	0.713
378.26	0.719
378.47	0.719
378.67	0.714
378.88	0.711
379.09	0.713
379.30	0.714
379.50	0.712
379.71	0.714
379.92	0.718
380.12	0.717
380.33	0.708
380.54	0.704
380.75	0.711
380.95	0.712
381.16	0.709
381.37	0.709
381.57	0.711
381.78	0.711
381.99	0.710
382.20	0.710
382.40	0.713
382.61	0.714
382.82	0.710
383.02	0.703
383.23	0.706
383.44	0.707
383.64	0.704
383.85	0.706
384.06	0.710
384.27	0.707
384.47	0.704
384.68	0.705
384.89	0.711
385.09	0.710
385.30	0.709
385.51	0.709
385.71	0.712
385.92	0.712
386.13	0.710
386.33	0.711
386.54	0.712
386.75	0.711
386.95	0.706
387.16	0.701
387.37	0.705
387.58	0.705
387.78	0.702
387.99	0.700
388.20	0.702
388.40	0.699
388.61	0.694
388.82	0.697
389.02	0.700
389.23	0.700
389.44	0.698
389.64	0.698
389.85	0.709
390.06	0.709
390.26	0.708
390.47	0.707
390.68	0.711
390.88	0.709
391.09	0.705
391.30	0.704
391.50	0.704
391.71	0.703
391.92	0.700
392.12	0.692
392.33	0.693
392.53	0.693
392.74	0.692
392.95	0.691
393.15	0.694
393.36	0.696
393.57	0.693
393.77	0.696
393.98	0.698
394.19	0.697
394.39	0.696
394.60	0.697
394.81	0.699
395.01	0.698
395.22	0.695
395.43	0.696
395.63	0.701
395.84	0.702
396.04	0.697
396.25	0.700
396.46	0.702
396.66	0.700
396.87	0.697
397.08	0.694
397.28	0.696
397.49	0.697
397.69	0.692
397.90	0.688
398.11	0.690
398.31	0.690
398.52	0.685
398.73	0.686
398.93	0.685
399.14	0.684
399.34	0.683
399.55	0.684
399.76	0.684
399.96	0.685
400.17	0.683
400.37	0.680
400.58	0.687
400.79	0.689
400.99	0.687
401.20	0.692
401.41	0.695
401.61	0.695
401.82	0.700
402.02	0.700
402.23	0.701
402.44	0.700
402.64	0.700
402.85	0.694
403.05	0.693
403.26	0.692
403.47	0.685
403.67	0.685
403.88	0.685
404.08	0.680
404.29	0.678
404.50	0.678
404.70	0.679
404.91	0.678
405.11	0.675
405.32	0.675
405.52	0.675
405.73	0.675
405.94	0.673
406.14	0.675
406.35	0.677
406.55	0.675
406.76	0.672
406.97	0.673
407.17	0.676
407.38	0.674
407.58	0.673
407.79	0.675
407.99	0.678
408.20	0.678
408.41	0.674
408.61	0.673
408.82	0.675
409.02	0.675
409.23	0.673
409.43	0.671
409.64	0.674
409.84	0.673
410.05	0.669
410.26	0.668
410.46	0.668
410.67	0.667
410.87	0.668
411.08	0.669
411.28	0.671
411.49	0.672
411.69	0.669
411.90	0.670
412.11	0.672
412.31	0.673
412.52	0.671
412.72	0.673
412.93	0.674
413.13	0.673
413.34	0.669
413.54	0.670
413.75	0.672
413.95	0.672
414.16	0.668
414.37	0.671
414.57	0.671
414.78	0.674
414.98	0.671
415.19	0.672
415.39	0.670
415.60	0.672
415.80	0.671
416.01	0.670
416.21	0.672
416.42	0.672
416.62	0.667
416.83	0.667
417.03	0.667
417.24	0.668
417.44	0.665
417.65	0.665
417.86	0.665
418.06	0.663
418.27	0.661
418.47	0.662
418.68	0.664
418.88	0.665
419.09	0.663
419.29	0.664
419.50	0.665
419.70	0.664
419.91	0.662
420.11	0.660
420.32	0.663
420.52	0.663
420.73	0.662
420.93	0.663
421.14	0.664
421.34	0.663
421.55	0.660
421.75	0.659
421.96	0.661
422.16	0.662
422.37	0.660
422.57	0.657
422.78	0.659
422.98	0.655
423.19	0.653
423.39	0.652
423.60	0.656
423.80	0.658
424.01	0.656
424.21	0.658
424.42	0.660
424.62	0.660
424.83	0.659
425.03	0.660
425.23	0.663
425.44	0.663
425.64	0.662
425.85	0.661
426.05	0.662
426.26	0.663
426.46	0.659
426.67	0.659
426.87	0.664
427.08	0.664
427.28	0.662
427.49	0.663
427.69	0.665
427.90	0.664
428.10	0.661
428.31	0.660
428.51	0.662
428.71	0.661
428.92	0.662
429.12	0.659
429.33	0.660
429.53	0.664
429.74	0.669
429.94	0.668
430.15	0.668
430.35	0.668
430.56	0.665
430.76	0.664
430.96	0.666
431.17	0.664
431.37	0.661
431.58	0.659
431.78	0.656
431.99	0.649
432.19	0.651
432.40	0.653
432.60	0.654
432.80	0.657
433.01	0.655
433.21	0.655
433.42	0.658
433.62	0.658
433.83	0.657
434.03	0.660
434.23	0.663
434.44	0.662
434.64	0.659
434.85	0.664
435.05	0.665
435.26	0.665
435.46	0.663
435.66	0.663
435.87	0.663
436.07	0.663
436.28	0.659
436.48	0.657
436.69	0.657
436.89	0.658
437.09	0.652
437.30	0.651
437.50	0.652
437.71	0.663
437.91	0.662
438.11	0.663
438.32	0.667
438.52	0.667
438.73	0.666
438.93	0.664
439.13	0.665
439.34	0.669
439.54	0.667
439.75	0.667
439.95	0.658
440.15	0.662
440.36	0.660
440.56	0.658
440.77	0.659
440.97	0.659
441.17	0.658
441.38	0.658
441.58	0.656
441.79	0.655
441.99	0.654
442.19	0.653
442.40	0.651
442.60	0.652
442.81	0.649
443.01	0.650
443.21	0.651
443.42	0.650
443.62	0.648
443.82	0.648
444.03	0.650
444.23	0.650
444.44	0.650
444.64	0.648
444.84	0.650
445.05	0.650
445.25	0.647
445.45	0.648
445.66	0.651
445.86	0.650
446.06	0.652
446.27	0.652
446.47	0.655
446.68	0.653
446.88	0.652
447.08	0.652
447.29	0.654
447.49	0.655
447.69	0.655
447.90	0.653
448.10	0.658
448.30	0.655
448.51	0.656
448.71	0.653
448.91	0.656
449.12	0.655
449.32	0.657
449.52	0.655
449.73	0.659
449.93	0.658
450.14	0.658
450.34	0.658
450.54	0.660
450.75	0.658
450.95	0.657
451.15	0.656
451.36	0.659
451.56	0.656
451.76	0.655
451.97	0.652
452.17	0.652
452.37	0.651
452.58	0.647
452.78	0.647
452.98	0.650
453.19	0.650
453.39	0.650
453.59	0.649
453.79	0.650
454.00	0.651
454.20	0.649
454.40	0.651
454.61	0.653
454.81	0.653
455.01	0.651
455.22	0.652
455.42	0.654
455.62	0.652
455.83	0.652
456.03	0.654
456.23	0.656
456.44	0.657
456.64	0.656
456.84	0.656
457.04	0.657
457.25	0.656
457.45	0.653
457.65	0.652
457.86	0.653
458.06	0.651
458.26	0.647
458.47	0.646
458.67	0.647
458.87	0.647
459.07	0.645
459.28	0.647
459.48	0.650
459.68	0.650
459.89	0.649
460.09	0.648
460.29	0.649
460.49	0.651
460.70	0.650
460.90	0.649
461.10	0.650
461.31	0.650
461.51	0.647
461.71	0.648
461.91	0.650
462.12	0.650
462.32	0.649
462.52	0.650
462.72	0.653
462.93	0.654
463.13	0.652
463.33	0.653
463.53	0.655
463.74	0.654
463.94	0.650
464.14	0.650
464.35	0.652
464.55	0.652
464.75	0.649
464.95	0.647
465.16	0.649
465.36	0.648
465.56	0.647
465.76	0.645
465.97	0.646
466.17	0.648
466.37	0.645
466.57	0.646
466.78	0.646
466.98	0.647
467.18	0.644
467.38	0.644
467.59	0.646
467.79	0.647
467.99	0.646
468.19	0.647
468.39	0.650
468.60	0.650
468.80	0.648
469.00	0.650
469.20	0.651
469.41	0.652
469.61	0.651
469.81	0.651
470.01	0.650
470.22	0.651
470.42	0.649
470.62	0.647
470.82	0.649
471.02	0.649
471.23	0.646
471.43	0.647
471.63	0.650
471.83	0.649
472.04	0.647
472.24	0.646
472.44	0.651
472.64	0.651
472.84	0.649
473.05	0.648
473.25	0.651
473.45	0.650
473.65	0.647
473.85	0.649
474.06	0.650
474.26	0.650
474.46	0.652
474.66	0.648
474.86	0.650
475.07	0.650
475.27	0.648
475.47	0.645
475.67	0.646
475.87	0.649
476.08	0.645
476.28	0.646
476.48	0.647
476.68	0.645
476.88	0.642
477.09	0.643
477.29	0.646
477.49	0.646
477.69	0.645
477.89	0.645
478.09	0.645
478.30	0.647
478.50	0.644
478.70	0.644
478.90	0.644
479.10	0.647
479.31	0.648
479.51	0.646
479.71	0.647
479.91	0.647
480.11	0.645
480.31	0.645
480.52	0.644
480.72	0.644
480.92	0.643
481.12	0.642
481.32	0.640
481.52	0.638
481.72	0.638
481.93	0.642
482.13	0.643
482.33	0.642
482.53	0.640
482.73	0.640
482.93	0.642
483.14	0.641
483.34	0.640
483.54	0.641
483.74	0.641
483.94	0.640
484.14	0.635
484.34	0.635
484.55	0.637
484.75	0.637
484.95	0.635
485.15	0.635
485.35	0.635
485.55	0.635
485.75	0.634
485.96	0.634
486.16	0.635
486.36	0.634
486.56	0.633
486.76	0.633
486.96	0.633
487.16	0.632
487.36	0.631
487.57	0.630
487.77	0.631
487.97	0.631
488.17	0.628
488.37	0.628
488.57	0.629
488.77	0.629
488.97	0.628
489.18	0.627
489.38	0.630
489.58	0.630
489.78	0.629
489.98	0.628
490.18	0.629
490.38	0.630
490.58	0.628
490.78	0.629
490.98	0.631
491.19	0.631
491.39	0.630
491.59	0.629
491.79	0.633
491.99	0.633
492.19	0.633
492.39	0.636
492.59	0.637
492.79	0.639
492.99	0.638
493.20	0.638
493.40	0.638
493.60	0.639
493.80	0.637
494.00	0.636
494.20	0.636
494.40	0.636
494.60	0.633
494.80	0.638
495.00	0.637
495.20	0.636
495.40	0.634
495.61	0.636
495.81	0.636
496.01	0.640
496.21	0.640
496.41	0.639
496.61	0.641
496.81	0.639
497.01	0.634
497.21	0.634
497.41	0.635
497.61	0.634
497.81	0.632
498.01	0.632
498.21	0.630
498.41	0.628
498.61	0.628
498.82	0.629
499.02	0.632
499.22	0.633
499.42	0.632
499.62	0.633
499.82	0.634
500.02	0.635
500.22	0.633
500.42	0.635
500.62	0.636
500.82	0.636
501.02	0.634
501.22	0.634
501.42	0.634
501.62	0.637
501.82	0.636
502.02	0.636
502.22	0.636
502.42	0.638
502.62	0.635
502.82	0.636
503.02	0.636
503.22	0.636
503.42	0.634
503.63	0.634
503.83	0.632
504.03	0.630
504.23	0.629
504.43	0.630
504.63	0.631
504.83	0.630
505.03	0.629
505.23	0.631
505.43	0.633
505.63	0.634
505.83	0.633
506.03	0.635
506.23	0.638
506.43	0.638
506.63	0.637
506.83	0.635
507.03	0.638
507.23	0.638
507.43	0.635
507.63	0.636
507.83	0.636
508.03	0.637
508.23	0.635
508.43	0.634
508.63	0.636
508.83	0.637
509.03	0.638
509.23	0.637
509.43	0.639
509.63	0.639
509.83	0.638
510.03	0.641
510.23	0.643
510.43	0.644
510.63	0.644
510.83	0.644
511.03	0.646
511.23	0.643
511.43	0.642
511.63	0.644
511.83	0.646
512.03	0.646
512.22	0.642
512.42	0.641
512.62	0.642
512.82	0.641
513.02	0.640
513.22	0.639
513.42	0.642
513.62	0.644
513.82	0.642
514.02	0.641
514.22	0.642
514.42	0.643
514.62	0.643
514.82	0.643
515.02	0.646
515.22	0.650
515.42	0.648
515.62	0.650
515.82	0.649
516.02	0.651
516.22	0.651
516.42	0.652
516.62	0.654
516.82	0.655
517.01	0.653
517.21	0.653
517.41	0.657
517.61	0.657
517.81	0.654
518.01	0.653
518.21	0.653
518.41	0.652
518.61	0.651
518.81	0.651
519.01	0.652
519.21	0.652
519.41	0.651
519.61	0.645
519.81	0.647
520.00	0.648
520.20	0.648
520.40	0.651
520.60	0.652
520.80	0.652
521.00	0.652
521.20	0.652
521.40	0.658
521.60	0.658
521.80	0.657
522.00	0.658
522.20	0.660
522.39	0.659
522.59	0.655
522.79	0.657
522.99	0.660
523.19	0.658
523.39	0.656
523.59	0.654
523.79	0.658
523.99	0.660
524.19	0.658
524.38	0.656
524.58	0.658
524.78	0.659
524.98	0.657
525.18	0.659
525.38	0.661
525.58	0.660
525.78	0.658
525.98	0.656
526.18	0.657
526.37	0.656
526.57	0.658
526.77	0.658
526.97	0.659
527.17	0.659
527.37	0.655
527.57	0.657
527.77	0.660
527.96	0.660
528.16	0.659
528.36	0.659
528.56	0.662
528.76	0.660
528.96	0.658
529.16	0.659
529.36	0.662
529.55	0.662
529.75	0.659
529.95	0.659
530.15	0.660
530.35	0.663
530.55	0.660
530.75	0.660
530.94	0.662
531.14	0.663
531.34	0.662
531.54	0.659
531.74	0.663
531.94	0.666
532.13	0.664
532.33	0.665
532.53	0.664
532.73	0.663
532.93	0.661
533.13	0.662
533.33	0.662
533.52	0.662
533.72	0.665
533.92	0.662
534.12	0.661
534.32	0.661
534.52	0.659
534.71	0.662
534.91	0.666
535.11	0.668
535.31	0.665
535.51	0.668
535.71	0.671
535.90	0.668
536.10	0.670
536.30	0.671
536.50	0.672
536.70	0.672
536.89	0.669
537.09	0.668
537.29	0.669
537.49	0.670
537.69	0.667
537.89	0.667
538.08	0.667
538.28	0.665
538.48	0.665
538.68	0.667
538.88	0.669
539.07	0.670
539.27	0.668
539.47	0.668
539.67	0.668
539.87	0.670
540.06	0.667
540.26	0.669
540.46	0.672
540.66	0.669
540.86	0.666
541.05	0.666
541.25	0.668
541.45	0.668
541.65	0.666
541.84	0.668
542.04	0.669
542.24	0.670
542.44	0.668
542.64	0.667
542.83	0.671
543.03	0.672
543.23	0.668
543.43	0.669
543.62	0.672
543.82	0.672
544.02	0.671
544.22	0.671
544.42	0.675
544.61	0.676
544.81	0.674
545.01	0.673
545.21	0.675
545.40	0.675
545.60	0.673
545.80	0.676
546.00	0.676
546.19	0.675
546.39	0.673
546.59	0.670
546.79	0.672
546.98	0.672
547.18	0.672
547.38	0.672
547.58	0.675
547.77	0.676
547.97	0.672
548.17	0.673
548.37	0.674
548.56	0.674
548.76	0.673
548.96	0.675
549.16	0.678
549.35	0.678
549.55	0.675
549.75	0.675
549.95	0.679
550.14	0.679
550.34	0.677
550.54	0.682
550.73	0.686
550.93	0.687
551.13	0.683
551.33	0.682
551.52	0.683
551.72	0.684
551.92	0.681
552.12	0.681
552.31	0.683
552.51	0.683
552.71	0.677
552.90	0.677
553.10	0.678
553.30	0.679
553.50	0.677
553.69	0.679
553.89	0.680
554.09	0.681
554.28	0.677
554.48	0.678
554.68	0.681
554.87	0.682
555.07	0.678
555.27	0.678
555.47	0.680
555.66	0.681
555.86	0.678
556.06	0.681
556.25	0.683
556.45	0.691
556.65	0.689
556.84	0.692
557.04	0.696
557.24	0.697
557.43	0.696
557.63	0.699
557.83	0.702
558.02	0.702
558.22	0.705
558.42	0.705
558.61	0.698
558.81	0.698
559.01	0.694
559.21	0.693
559.40	0.695
559.60	0.695
559.80	0.691
559.99	0.692
560.19	0.694
560.39	0.688
560.58	0.686
560.78	0.685
560.97	0.689
561.17	0.688
561.37	0.685
561.56	0.686
561.76	0.688
561.96	0.688
562.15	0.685
562.35	0.687
562.55	0.689
562.74	0.689
562.94	0.688
563.14	0.686
563.33	0.687
563.53	0.687
563.73	0.684
563.92	0.686
564.12	0.689
564.31	0.691
564.51	0.689
564.71	0.691
564.90	0.695
565.10	0.696
565.30	0.698
565.49	0.698
565.69	0.701
565.89	0.702
566.08	0.698
566.28	0.700
566.47	0.702
566.67	0.700
566.87	0.697
567.06	0.697
567.26	0.704
567.46	0.700
567.65	0.699
567.85	0.700
568.04	0.703
568.24	0.701
568.44	0.698
568.63	0.696
568.83	0.698
569.02	0.696
569.22	0.691
569.42	0.688
569.61	0.690
569.81	0.688
570.00	0.686
570.20	0.687
570.40	0.689
570.59	0.689
570.79	0.686
570.98	0.685
571.18	0.686
571.38	0.686
571.57	0.682
571.77	0.680
571.96	0.685
572.16	0.682
572.35	0.677
572.55	0.678
572.75	0.676
572.94	0.675
573.14	0.673
573.33	0.673
573.53	0.674
573.73	0.674
573.92	0.671
574.12	0.669
574.31	0.672
574.51	0.673
574.70	0.670
574.90	0.671
575.09	0.674
575.29	0.675
575.49	0.672
575.68	0.673
575.88	0.675
576.07	0.677
576.27	0.675
576.46	0.673
576.66	0.673
576.86	0.672
577.05	0.670
577.25	0.668
577.44	0.669
577.64	0.668
577.83	0.666
578.03	0.667
578.22	0.666
578.42	0.665
578.61	0.663
578.81	0.664
579.00	0.665
579.20	0.664
579.40	0.663
579.59	0.662
579.79	0.663
579.98	0.663
580.18	0.662
580.37	0.663
580.57	0.665
580.76	0.670
580.96	0.668
581.15	0.669
581.35	0.671
581.54	0.671
581.74	0.670
581.93	0.671
582.13	0.673
582.32	0.670
582.52	0.667
582.71	0.667
582.91	0.663
583.10	0.664
583.30	0.662
583.49	0.661
583.69	0.664
583.88	0.666
584.08	0.665
584.27	0.667
584.47	0.670
584.66	0.671
584.86	0.669
585.05	0.671
585.25	0.674
585.44	0.673
585.64	0.672
585.83	0.669
586.03	0.670
586.22	0.669
586.42	0.665
586.61	0.668
586.81	0.670
587.00	0.670
587.20	0.668
587.39	0.669
587.59	0.672
587.78	0.673
587.98	0.674
588.17	0.674
588.37	0.677
588.56	0.679
588.76	0.675
588.95	0.675
589.15	0.680
589.34	0.682
589.54	0.680
589.73	0.680
589.92	0.683
590.12	0.682
590.31	0.680
590.51	0.685
590.70	0.686
590.90	0.685
591.09	0.683
591.29	0.681
591.48	0.681
591.68	0.682
591.87	0.680
592.06	0.680
592.26	0.684
592.45	0.683
592.65	0.676
592.84	0.675
593.04	0.679
593.23	0.681
593.43	0.679
593.62	0.679
593.81	0.680
594.01	0.680
594.20	0.676
594.40	0.675
594.59	0.678
594.79	0.679
594.98	0.677
595.17	0.676
595.37	0.677
595.56	0.678
595.76	0.677
595.95	0.678
596.14	0.681
596.34	0.682
596.53	0.680
596.73	0.681
596.92	0.683
597.12	0.685
597.31	0.685
597.50	0.684
597.70	0.687
597.89	0.686
598.09	0.682
598.28	0.683
598.47	0.686
598.67	0.684
598.86	0.681
599.06	0.683
599.25	0.683
599.44	0.682
599.64	0.679
599.83	0.676
600.03	0.680
600.22	0.681
600.41	0.681
600.61	0.678
600.80	0.682
601.00	0.683
601.19	0.678
601.38	0.677
601.58	0.680
601.77	0.681
601.96	0.683
602.16	0.683
602.35	0.692
602.55	0.689
602.74	0.690
602.93	0.690
603.13	0.696
603.32	0.697
603.51	0.696
603.71	0.699
603.90	0.702
604.09	0.702
604.29	0.699
604.48	0.693
604.68	0.695
604.87	0.694
605.06	0.689
605.26	0.686
605.45	0.687
605.64	0.685
605.84	0.680
606.03	0.679
606.22	0.679
606.42	0.679
606.61	0.674
606.80	0.674
607.00	0.677
607.19	0.678
607.38	0.676
607.58	0.678
607.77	0.682
607.96	0.682
608.16	0.680
608.35	0.685
608.54	0.688
608.74	0.692
608.93	0.697
609.12	0.700
609.32	0.703
609.51	0.706
609.70	0.705
609.90	0.706
610.09	0.711
610.28	0.716
610.48	0.709
610.67	0.711
610.86	0.712
611.06	0.706
611.25	0.703
611.44	0.704
611.64	0.704
611.83	0.707
612.02	0.702
612.21	0.700
612.41	0.700
612.60	0.698
612.79	0.693
612.99	0.693
613.18	0.696
613.37	0.693
613.57	0.690
613.76	0.692
613.95	0.690
614.14	0.690
614.34	0.687
614.53	0.688
614.72	0.692
614.92	0.693
615.11	0.690
615.30	0.687
615.49	0.689
615.69	0.691
615.88	0.688
616.07	0.689
616.26	0.693
616.46	0.694
616.65	0.690
616.84	0.689
617.04	0.690
617.23	0.694
617.42	0.694
617.61	0.698
617.81	0.699
618.00	0.701
618.19	0.698
618.38	0.701
618.58	0.705
618.77	0.706
618.96	0.705
619.15	0.707
619.35	0.709
619.54	0.710
619.73	0.705
619.92	0.707
620.12	0.711
620.31	0.711
620.50	0.706
620.69	0.706
620.89	0.710
621.08	0.710
621.27	0.709
621.46	0.709
621.66	0.713
621.85	0.713
622.04	0.709
622.23	0.710
622.43	0.711
622.62	0.711
622.81	0.710
623.00	0.710
623.19	0.714
623.39	0.712
623.58	0.710
623.77	0.708
623.96	0.712
624.16	0.713
624.35	0.707
624.54	0.711
624.73	0.717
624.92	0.715
625.12	0.711
625.31	0.712
625.50	0.716
625.69	0.716
625.88	0.711
626.08	0.710
626.27	0.713
626.46	0.713
626.65	0.709
626.84	0.708
627.04	0.713
627.23	0.714
627.42	0.709
627.61	0.711
627.80	0.715
628.00	0.716
628.19	0.713
628.38	0.717
628.57	0.720
628.76	0.720
628.96	0.715
629.15	0.716
629.34	0.719
629.53	0.720
629.72	0.714
629.91	0.714
630.11	0.721
630.30	0.722
630.49	0.724
630.68	0.724
630.87	0.728
631.06	0.731
631.26	0.725
631.45	0.727
631.64	0.736
631.83	0.739
632.02	0.734
632.21	0.733
632.41	0.742
632.60	0.736
632.79	0.734
632.98	0.734
633.17	0.736
633.36	0.739
633.55	0.734
633.75	0.731
633.94	0.733
634.13	0.734
634.32	0.729
634.51	0.722
634.70	0.725
634.89	0.725
635.09	0.720
635.28	0.722
635.47	0.725
635.66	0.727
635.85	0.723
636.04	0.724
636.23	0.730
636.43	0.732
636.62	0.730
636.81	0.729
637.00	0.732
637.19	0.736
637.38	0.730
637.57	0.729
637.76	0.732
637.95	0.733
638.15	0.728
638.34	0.724
638.53	0.728
638.72	0.731
638.91	0.728
639.10	0.726
639.29	0.726
639.48	0.727
639.67	0.726
639.87	0.724
640.06	0.731
640.25	0.730
640.44	0.731
640.63	0.731
640.82	0.733
641.01	0.732
641.20	0.731
641.39	0.734
641.58	0.736
641.78	0.736
641.97	0.731
642.16	0.745
642.35	0.747
642.54	0.745
642.73	0.738
642.92	0.738
643.11	0.744
643.30	0.743
643.49	0.736
643.68	0.739
643.87	0.741
644.06	0.742
644.25	0.720
644.45	0.723
644.64	0.725
644.83	0.726
645.02	0.721
645.21	0.720
645.40	0.723
645.59	0.723
645.78	0.715
645.97	0.717
646.16	0.719
646.35	0.718
646.54	0.716
646.73	0.717
646.92	0.719
647.11	0.719
647.30	0.713
647.49	0.716
647.68	0.717
647.88	0.716
648.07	0.708
648.26	0.711
648.45	0.713
648.64	0.708
648.83	0.706
649.02	0.709
649.21	0.720
649.40	0.719
649.59	0.712
649.78	0.713
649.97	0.728
650.16	0.728
650.35	0.722
650.54	0.725
650.73	0.734
650.92	0.729
651.11	0.721
651.30	0.719
651.49	0.724
651.68	0.725
651.87	0.721
652.06	0.710
652.25	0.714
652.44	0.715
652.63	0.710
652.82	0.709
653.01	0.708
653.20	0.706
653.39	0.692
653.58	0.690
653.77	0.689
653.96	0.684
654.15	0.676
654.34	0.675
654.53	0.671
654.72	0.666
654.91	0.657
655.10	0.654
655.29	0.653
655.48	0.651
655.67	0.646
655.86	0.643
656.05	0.643
656.24	0.643
656.43	0.638
656.62	0.637
656.81	0.638
657.00	0.637
657.19	0.635
657.38	0.636
657.57	0.636
657.76	0.639
657.95	0.637
658.14	0.641
658.33	0.644
658.51	0.650
658.70	0.651
658.89	0.652
659.08	0.660
659.27	0.667
659.46	0.666
659.65	0.673
659.84	0.676
660.03	0.680
660.22	0.679
660.41	0.683
660.60	0.681
660.79	0.683
660.98	0.688
661.17	0.687
661.36	0.687
661.55	0.688
661.74	0.684
661.92	0.686
662.11	0.689
662.30	0.688
662.49	0.680
662.68	0.681
662.87	0.685
663.06	0.680
663.25	0.681
663.44	0.681
663.63	0.682
663.82	0.681
664.01	0.676
664.20	0.674
664.38	0.677
664.57	0.677
664.76	0.676
664.95	0.676
665.14	0.681
665.33	0.676
665.52	0.683
665.71	0.688
665.90	0.688
666.09	0.690
666.28	0.687
666.46	0.686
666.65	0.688
666.84	0.686
667.03	0.680
667.22	0.677
667.41	0.680
667.60	0.670
667.79	0.662
667.98	0.663
668.16	0.664
668.35	0.663
668.54	0.659
668.73	0.660
668.92	0.661
669.11	0.659
669.30	0.654
669.49	0.649
669.67	0.650
669.86	0.653
670.05	0.650
670.24	0.647
670.43	0.646
670.62	0.645
670.81	0.639
671.00	0.641
671.18	0.641
671.37	0.640
671.56	0.638
671.75	0.638
671.94	0.634
672.13	0.632
672.32	0.626
672.50	0.626
672.69	0.626
672.88	0.627
673.07	0.621
673.26	0.624
673.45	0.626
673.63	0.626
673.82	0.622
674.01	0.624
674.20	0.624
674.39	0.624
674.58	0.623
674.76	0.623
674.95	0.622
675.14	0.622
675.33	0.616
675.52	0.615
675.71	0.614
675.89	0.614
676.08	0.608
676.27	0.608
676.46	0.610
676.65	0.609
676.84	0.608
677.02	0.610
677.21	0.613
677.40	0.612
677.59	0.609
677.78	0.610
677.96	0.613
678.15	0.612
678.34	0.610
678.53	0.611
678.72	0.612
678.90	0.608
679.09	0.603
679.28	0.599
679.47	0.599
679.66	0.599
679.84	0.594
680.03	0.592
680.22	0.592
680.41	0.593
680.60	0.589
680.78	0.588
680.97	0.592
681.16	0.593
681.35	0.591
681.53	0.589
681.72	0.591
681.91	0.593
682.10	0.591
682.29	0.595
682.47	0.592
682.66	0.591
682.85	0.589
683.04	0.587
683.22	0.587
683.41	0.589
683.60	0.588
683.79	0.589
683.97	0.588
684.16	0.587
684.35	0.582
684.54	0.584
684.72	0.585
684.91	0.586
685.10	0.584
685.29	0.586
685.47	0.583
685.66	0.582
685.85	0.578
686.04	0.577
686.22	0.580
686.41	0.583
686.60	0.579
686.79	0.582
686.97	0.583
687.16	0.584
687.35	0.581
687.54	0.585
687.72	0.589
687.91	0.589
688.10	0.590
688.29	0.590
688.47	0.588
688.66	0.588
688.85	0.584
689.03	0.581
689.22	0.586
689.41	0.586
689.60	0.581
689.78	0.578
689.97	0.579
690.16	0.576
690.34	0.573
690.53	0.572
690.72	0.573
690.91	0.571
691.09	0.569
691.28	0.563
691.47	0.561
691.65	0.560
691.84	0.557
692.03	0.556
692.21	0.554
692.40	0.554
692.59	0.551
692.77	0.550
692.96	0.552
693.15	0.552
693.34	0.550
693.52	0.551
693.71	0.552
693.90	0.554
694.08	0.554
694.27	0.555
694.46	0.565
694.64	0.567
694.83	0.566
695.02	0.565
695.20	0.564
695.39	0.564
695.58	0.563
695.76	0.564
695.95	0.563
696.14	0.563
696.32	0.560
696.51	0.550
696.70	0.550
696.88	0.551
697.07	0.549
697.26	0.551
697.44	0.552
697.63	0.551
697.81	0.548
698.00	0.547
698.19	0.547
698.37	0.548
698.56	0.546
698.75	0.546
698.93	0.545
699.12	0.545
699.31	0.543
699.49	0.543
699.68	0.544
699.87	0.547
700.05	0.546
700.24	0.545
700.42	0.547
700.61	0.546
700.80	0.544
700.98	0.544
701.17	0.546
701.36	0.545
701.54	0.544
701.73	0.545
701.91	0.543
702.10	0.543
702.29	0.541
702.47	0.540
702.66	0.542
702.84	0.543
703.03	0.541
703.22	0.542
703.40	0.543
703.59	0.545
703.77	0.544
703.96	0.544
704.15	0.545
704.33	0.545
704.52	0.544
704.70	0.543
704.89	0.544
705.08	0.542
705.26	0.537
705.45	0.536
705.63	0.537
705.82	0.533
706.00	0.531
706.19	0.530
706.38	0.531
706.56	0.530
706.75	0.528
706.93	0.527
707.12	0.529
707.30	0.529
707.49	0.527
707.68	0.524
707.86	0.524
708.05	0.524
708.23	0.521
708.42	0.522
708.60	0.525
708.79	0.525
708.98	0.524
709.16	0.523
709.35	0.525
709.53	0.529
709.72	0.528
709.90	0.530
710.09	0.532
710.27	0.535
710.46	0.538
710.64	0.536
710.83	0.539
711.02	0.541
711.20	0.539
711.39	0.537
711.57	0.535
711.76	0.536
711.94	0.534
712.13	0.535
712.31	0.534
712.50	0.529
712.68	0.525
712.87	0.525
713.05	0.525
713.24	0.526
713.42	0.524
713.61	0.525
713.79	0.526
713.98	0.527
714.16	0.527
714.35	0.527
714.54	0.529
714.72	0.529
714.91	0.526
715.09	0.533
715.28	0.536
715.46	0.536
715.65	0.533
715.83	0.533
716.02	0.535
716.20	0.531
716.39	0.530
716.57	0.531
716.76	0.533
716.94	0.533
717.12	0.525
717.31	0.527
717.49	0.530
717.68	0.532
717.86	0.531
718.05	0.534
718.23	0.537
718.42	0.540
718.60	0.541
718.79	0.550
718.97	0.554
719.16	0.554
719.34	0.550
719.53	0.551
719.71	0.551
719.90	0.552
720.08	0.549
720.27	0.548
720.45	0.550
720.63	0.548
720.82	0.542
721.00	0.544
721.19	0.549
721.37	0.549
721.56	0.548
721.74	0.551
721.93	0.561
722.11	0.567
722.30	0.565
722.48	0.568
722.66	0.569
722.85	0.569
723.03	0.568
723.22	0.566
723.40	0.570
723.59	0.570
723.77	0.573
723.95	0.566
724.14	0.569
724.32	0.571
724.51	0.571
724.69	0.574
724.88	0.575
725.06	0.573
725.24	0.573
725.43	0.574
725.61	0.576
725.80	0.570
725.98	0.567
726.16	0.564
726.35	0.570
726.53	0.569
726.72	0.567
726.90	0.577
727.09	0.578
727.27	0.584
727.45	0.580
727.64	0.590
727.82	0.600
728.01	0.605
728.19	0.601
728.37	0.606
728.56	0.611
728.74	0.617
728.92	0.605
729.11	0.607
729.29	0.607
729.48	0.611
729.66	0.598
729.84	0.599
730.03	0.603
730.21	0.605
730.40	0.596
730.58	0.598
730.76	0.598
730.95	0.600
731.13	0.598
731.31	0.612
731.50	0.622
731.68	0.626
731.86	0.620
732.05	0.636
732.23	0.640
732.42	0.642
732.60	0.645
732.78	0.651
732.97	0.671
733.15	0.680
733.33	0.665
733.52	0.673
733.70	0.687
733.88	0.698
734.07	0.680
734.25	0.707
734.43	0.719
734.62	0.720
734.80	0.713
734.98	0.703
735.17	0.712
735.35	0.721
735.53	0.705
735.72	0.709
735.90	0.732
736.08	0.750
736.27	0.725
736.45	0.734
736.63	0.750
736.82	0.760
737.00	0.758
737.18	0.771
737.37	0.805
737.55	0.832
737.73	0.820
737.92	0.825
738.10	0.827
738.28	0.848
738.46	0.836
738.65	0.848
738.83	0.877
739.01	0.939
739.20	0.924
739.38	0.906
739.56	0.900
739.75	0.908
739.93	0.867
740.11	0.893
740.29	0.900
740.48	0.907
740.66	0.883
740.84	0.877
741.03	0.840
741.21	0.852
741.39	0.828
741.57	0.841
741.76	0.865
741.94	0.869
742.12	0.829
742.31	0.835
742.49	0.861
742.67	0.886
742.85	0.899
743.04	0.905
743.22	0.920
743.40	0.984
743.58	0.957
743.77	0.973
743.95	1.026
744.13	1.090
744.31	1.061
744.50	1.046
744.68	1.054
744.86	1.020
745.04	1.026
745.23	1.101
745.41	1.083
745.59	1.093
745.77	1.049
745.96	1.030
746.14	1.050
746.32	1.050
746.50	1.041
746.69	1.026
746.87	1.056
747.05	1.042
747.23	0.951
747.42	0.938
747.60	0.980
747.78	0.982
747.96	1.014
748.14	0.953
748.33	0.985
748.51	0.978
748.69	0.962
748.87	0.992
749.06	0.989
749.24	0.981
749.42	0.955
749.60	0.927
749.78	0.944
749.97	0.896
750.15	0.886
750.33	0.891
750.51	0.925
750.69	0.932
750.88	0.929
751.06	0.944
751.24	0.983
751.42	0.972
751.60	0.962
751.79	1.051
751.97	1.118
752.15	1.114
752.33	1.066
752.51	1.148
752.69	1.174
752.88	1.130
753.06	1.185
753.24	1.152
753.42	1.213
753.60	1.478
753.78	1.232
753.97	1.252
754.15	1.296
754.33	1.336
754.51	1.144
754.69	1.124
754.87	1.172
755.06	1.072
755.24	1.071
755.42	1.079
755.60	0.964
755.78	0.973
755.96	0.907
756.15	0.907
756.33	0.919
756.51	0.941
756.69	0.920
756.87	0.879
757.05	0.906
757.23	0.886
757.42	0.843
757.60	0.841
757.78	0.835
757.96	0.832
758.14	0.811
758.32	0.793
758.50	0.812
758.69	0.811
758.87	0.800
759.05	0.804
759.23	0.818
759.41	0.825
759.59	0.813
759.77	0.835
759.95	0.866
760.13	0.921
760.32	0.919
760.50	0.912
760.68	0.945
760.86	0.944
761.04	0.908
761.22	0.913
761.40	0.970
761.58	0.971
761.76	0.934
761.95	0.919
762.13	0.871
762.31	0.871
762.49	0.832
762.67	0.850
762.85	0.866
763.03	0.861
763.21	0.836
763.39	0.815
763.57	0.823
763.75	0.817
763.94	0.795
764.12	0.797
764.30	0.828
764.48	0.834
764.66	0.789
764.84	0.789
765.02	0.834
765.20	0.841
765.38	0.814
765.56	0.819
765.74	0.870
765.92	0.871
766.10	0.874
766.28	0.864
766.46	0.898
766.65	0.903
766.83	0.884
767.01	0.866
767.19	0.875
767.37	0.876
767.55	0.856
767.73	0.832
767.91	0.840
768.09	0.829
768.27	0.814
768.45	0.803
768.63	0.808
768.81	0.812
768.99	0.780
769.17	0.810
769.35	0.830
769.53	0.827
769.71	0.806
769.89	0.815
770.07	0.825
770.25	0.807
770.43	0.782
770.61	0.810
770.79	0.819
770.97	0.833
771.15	0.793
771.33	0.798
771.51	0.807
771.69	0.816
771.87	0.821
772.05	0.825
772.24	0.835
772.42	0.844
772.60	0.813
772.78	0.881
772.96	0.917
773.14	0.912
773.32	0.880
773.49	0.887
773.67	0.887
773.85	0.865
774.03	0.848
774.21	0.886
774.39	0.906
774.57	0.937
774.75	0.845
774.93	0.838
775.11	0.865
775.29	0.876
775.47	0.876
775.65	0.887
775.83	0.913
776.01	0.946
776.19	0.886
776.37	0.886
776.55	0.887
776.73	0.885
776.91	0.874
777.09	0.855
777.27	0.859
777.45	0.843
777.63	0.814
777.81	0.809
777.99	0.797
778.17	0.796
778.35	0.769
778.53	0.757
778.71	0.770
778.89	0.755
779.07	0.741
779.24	0.745
779.42	0.748
779.60	0.769
779.78	0.762
779.96	0.766
780.14	0.779
780.32	0.801
780.50	0.776
780.68	0.774
780.86	0.769
781.04	0.789
781.22	0.789
781.40	0.803
781.58	0.795
781.75	0.787
781.93	0.764
782.11	0.764
782.29	0.752
782.47	0.753
782.65	0.737
782.83	0.771
783.01	0.766
783.19	0.762
783.37	0.744
783.55	0.749
783.72	0.770
783.90	0.783
784.08	0.770
784.26	0.785
784.44	0.811
784.62	0.814
784.80	0.771
784.98	0.777
785.16	0.783
785.33	0.798
785.51	0.778
785.69	0.764
785.87	0.766
786.05	0.777
786.23	0.769
786.41	0.768
786.59	0.780
786.77	0.778
786.94	0.761
787.12	0.764
787.30	0.768
787.48	0.765
787.66	0.751
787.84	0.749
788.02	0.741
788.19	0.738
788.37	0.719
788.55	0.719
788.73	0.723
788.91	0.717
789.09	0.696
789.27	0.685
789.44	0.701
789.62	0.707
789.80	0.716
789.98	0.744
790.16	0.729
790.34	0.723
790.51	0.708
790.69	0.726
790.87	0.733
791.05	0.731
791.23	0.720
791.41	0.720
791.58	0.729
791.76	0.706
791.94	0.673
792.12	0.684
792.30	0.689
792.48	0.686
792.65	0.680
792.83	0.689
793.01	0.699
793.19	0.698
793.37	0.680
793.54	0.674
793.72	0.689
793.90	0.686
794.08	0.673
794.26	0.676
794.43	0.688
794.61	0.669
794.79	0.655
794.97	0.655
795.15	0.664
795.32	0.668
795.50	0.657
795.68	0.652
795.86	0.659
796.04	0.661
796.21	0.653
796.39	0.650
796.57	0.668
796.75	0.678
796.92	0.677
797.10	0.681
797.28	0.685
797.46	0.690
797.64	0.689
797.81	0.699
797.99	0.704
798.17	0.709
798.35	0.702
798.52	0.705
798.70	0.700
798.88	0.708
799.06	0.705
799.23	0.708
799.41	0.719
799.59	0.710
799.77	0.696
799.94	0.706
800.12	0.717
800.30	0.737
800.48	0.732
800.65	0.735
800.83	0.724
801.01	0.715
801.19	0.713
801.36	0.707
801.54	0.713
801.72	0.724
801.90	0.707
802.07	0.701
802.25	0.687
802.43	0.670
802.60	0.664
802.78	0.672
802.96	0.681
803.14	0.672
803.31	0.668
803.49	0.669
803.67	0.666
803.84	0.670
804.02	0.661
804.20	0.665
804.38	0.672
804.55	0.669
804.73	0.652
804.91	0.654
805.08	0.669
805.26	0.665
805.44	0.725
805.61	0.727
805.79	0.731
805.97	0.729
806.15	0.718
806.32	0.712
806.50	0.720
806.68	0.720
806.85	0.707
807.03	0.698
807.21	0.718
807.38	0.654
807.56	0.640
807.74	0.649
807.91	0.659
808.09	0.662
808.27	0.683
808.44	0.712
808.62	0.724
808.80	0.726
808.97	0.719
809.15	0.714
809.33	0.734
809.50	0.743
809.68	0.725
809.86	0.733
810.03	0.771
810.21	0.745
810.39	0.725
810.56	0.732
810.74	0.761
810.91	0.842
811.09	0.826
811.27	0.854
811.44	0.862
811.62	0.866
811.80	0.843
811.97	0.808
812.15	0.809
812.33	0.802
812.50	0.781
812.68	0.767
812.85	0.707
813.03	0.711
813.21	0.674
813.38	0.667
813.56	0.671
813.74	0.683
813.91	0.688
814.09	0.722
814.26	0.719
814.44	0.725
814.62	0.713
814.79	0.717
814.97	0.726
815.14	0.730
815.32	0.735
815.50	0.755
815.67	0.762
815.85	0.752
816.02	0.739
816.20	0.747
816.38	0.766
816.55	0.773
816.73	0.768
816.90	0.781
817.08	0.818
817.26	0.822
817.43	0.794
817.61	0.821
817.78	0.847
817.96	0.821
818.13	0.804
818.31	0.804
818.49	0.820
818.66	0.811
818.84	0.791
819.01	0.769
819.19	0.780
819.36	0.785
819.54	0.750
819.71	0.798
819.89	0.820
820.07	0.835
820.24	0.826
820.42	0.826
820.59	0.853
820.77	0.880
820.94	0.868
821.12	0.889
821.29	0.910
821.47	0.908
821.64	0.828
821.82	0.841
822.00	0.840
822.17	0.834
822.35	0.820
822.52	0.822
822.70	0.810
822.87	0.820
823.05	0.793
823.22	0.809
823.40	0.848
823.57	0.875
823.75	0.850
823.92	0.883
824.10	0.915
824.27	0.972
824.45	0.959
824.62	1.046
824.80	1.064
824.97	1.087
825.15	1.059
825.32	1.077
825.50	1.095
825.67	1.107
825.85	1.068
826.02	1.095
826.20	1.139
826.37	1.332
826.55	1.195
826.72	1.562
826.90	1.838
827.07	2.188
827.25	1.836
827.42	-0.000
827.60	-0.000
827.77	-0.000
827.95	-0.000
828.12	-0.000
828.30	-0.000
828.47	-0.000
828.65	2.021
828.82	2.660
829.00	-0.000
829.17	-0.000
829.34	-0.000
829.52	-0.000
829.69	-0.000
829.87	-0.000
830.04	-0.000
830.22	-0.000
830.39	-0.000
830.57	-0.000
830.74	-0.000
830.92	-0.000
831.09	-0.000
831.26	-0.000
831.44	-0.000
831.61	-0.000
831.79	-0.000
831.96	-0.000
832.14	-0.000
832.31	-0.000
832.49	-0.000
832.66	-0.000
832.83	-0.000
833.01	-0.000
833.18	-0.000
833.36	-0.000
833.53	-0.000
833.70	-0.000
833.88	-0.000
834.05	-0.000
834.23	-0.000
834.40	-0.000
834.58	-0.000
834.75	-0.000
834.92	-0.000
835.10	-0.000
835.27	-0.000
835.45	-0.000
835.62	-0.000
835.79	-0.000
835.97	-0.000
836.14	-0.000
836.32	-0.000
836.49	-0.000
836.66	-0.000
836.84	-0.000
837.01	-0.000
837.18	-0.000
837.36	-0.000
837.53	-0.000
837.71	-0.000
837.88	-0.000
838.05	-0.000
838.23	-0.000
838.40	-0.000
838.58	-0.000
838.75	-0.000
838.92	-0.000
839.10	-0.000
839.27	-0.000
839.44	-0.000
839.62	-0.000
839.79	-0.000
839.96	-0.000
840.14	-0.000
840.31	-0.000
840.48	-0.000
840.66	-0.000
840.83	-0.000
841.01	-0.000
841.18	-0.000
841.35	-0.000
841.53	-0.000
841.70	-0.000
841.87	-0.000
842.05	-0.000
842.22	-0.000
842.39	-0.000
842.57	-0.000
842.74	-0.000
842.91	-0.000
843.09	-0.000
843.26	-0.000
843.43	-0.000
843.60	-0.000
843.78	-0.000
843.95	-0.000
844.12	-0.000
844.30	-0.000
844.47	-0.000
844.64	-0.000
844.82	-0.000
844.99	-0.000
845.16	-0.000
845.34	-0.000
845.51	-0.000
845.68	-0.000
845.85	-0.000
846.03	-0.000
846.20	-0.000
846.37	-0.000
846.55	-0.000
846.72	-0.000
846.89	-0.000
847.06	-0.000
847.24	-0.000
847.41	-0.000
847.58	-0.000
847.76	-0.000
847.93	-0.000
848.10	-0.000
848.27	-0.000
848.45	-0.000
848.62	-0.000
848.79	-0.000
848.97	-0.000
849.14	-0.000
849.31	-0.000
849.48	-0.000
849.66	-0.000
849.83	-0.000
850.00	-0.000
850.17	-0.000
850.35	-0.000
850.52	-0.000
850.69	-0.000
850.86	-0.000
851.04	-0.000
851.21	-0.000
851.38	-0.000
851.55	-0.000
851.72	-0.000
851.90	-0.000
852.07	-0.000
852.24	-0.000
852.41	-0.000
852.59	-0.000
852.76	-0.000
852.93	-0.000
853.10	-0.000
853.28	-0.000
853.45	-0.000
853.62	-0.000
853.79	-0.000
853.96	-0.000
854.14	-0.000
854.31	-0.000
854.48	-0.000
854.65	-0.000
854.82	-0.000
855.00	-0.000
855.17	-0.000
855.34	-0.000
855.51	-0.000
855.68	-0.000
855.86	-0.000
856.03	-0.000
856.20	-0.000
856.37	-0.000
856.54	-0.000
856.72	-0.000
856.89	-0.000
857.06	-0.000
857.23	-0.000
857.40	-0.000
857.57	-0.000
857.75	-0.000
857.92	-0.000
858.09	-0.000
858.26	-0.000
858.43	-0.000
858.60	-0.000
858.78	-0.000
858.95	-0.000
859.12	-0.000
859.29	-0.000
859.46	-0.000
859.63	-0.000
859.81	-0.000
859.98	-0.000
860.15	-0.000
860.32	-0.000
860.49	-0.000
860.66	-0.000
860.83	-0.000
861.01	-0.000
861.18	-0.000
861.35	-0.000
861.52	-0.000
861.69	-0.000
861.86	-0.000
862.03	-0.000
862.21	-0.000
862.38	-0.000
862.55	-0.000
862.72	-0.000
862.89	-0.000
863.06	-0.000
863.23	-0.000
863.40	-0.000
863.58	-0.000
863.75	-0.000
863.92	-0.000
864.09	-0.000
864.26	-0.000
864.43	-0.000
864.60	-0.000
864.77	-0.000
864.94	-0.000
865.11	-0.000
865.29	-0.000
865.46	-0.000
865.63	-0.000
865.80	-0.000
865.97	-0.000
866.14	-0.000
866.31	-0.000
866.48	-0.000
866.65	-0.000
866.82	-0.000
866.99	-0.000
867.16	-0.000
867.34	-0.000
867.51	-0.000
867.68	-0.000
867.85	-0.000
868.02	-0.000
868.19	-0.000
868.36	-0.000
868.53	-0.000
868.70	-0.000
868.87	-0.000
869.04	-0.000
869.21	-0.000
869.38	-0.000
869.55	-0.000
869.72	-0.000
869.89	-0.000
870.06	-0.000
870.24	-0.000
870.41	-0.000
870.58	-0.000
870.75	-0.000
870.92	-0.000
871.09	-0.000
871.26	-0.000
871.43	-0.000
871.60	-0.000
871.77	-0.000
871.94	-0.000
872.11	-0.000
872.28	-0.000
872.45	-0.000
872.62	-0.000
872.79	-0.000
872.96	-0.000
873.13	-0.000
873.30	-0.000
873.47	-0.000
873.64	-0.000
873.81	-0.000
873.98	-0.000
874.15	-0.000
874.32	-0.000
874.49	-0.000
874.66	-0.000
874.83	-0.000
875.00	-0.000
875.17	-0.000
875.34	-0.000
875.51	-0.000
875.68	-0.000
875.85	-0.000
876.02	-0.000
876.19	-0.000
876.36	-0.000
876.53	-0.000
876.70	-0.000
876.87	-0.000
877.04	-0.000
877.21	-0.000
877.38	-0.000
877.55	-0.000
877.72	-0.000
877.89	-0.000
878.06	-0.000
878.23	-0.000
878.39	-0.000
878.56	-0.000
878.73	-0.000
878.90	-0.000
879.07	-0.000
879.24	-0.000
879.41	-0.000
879.58	-0.000
879.75	-0.000
879.92	-0.000
880.09	-0.000
880.26	-0.000
880.43	-0.000
880.60	-0.000
880.77	-0.000
880.94	-0.000
881.11	-0.000
881.27	-0.000
881.44	-0.000
881.61	-0.000
881.78	-0.000
881.95	-0.000
882.12	-0.000
882.29	-0.000
882.46	-0.000
882.63	-0.000
882.80	-0.000
882.97	-0.000
883.14	-0.000
883.30	-0.000
883.47	-0.000
883.64	-0.000
883.81	-0.000
883.98	-0.000
884.15	-0.000
884.32	-0.000
884.49	-0.000
884.66	-0.000
884.82	-0.000
884.99	-0.000
885.16	-0.000
885.33	-0.000
885.50	-0.000
885.67	-0.000
885.84	-0.000
886.01	-0.000
886.17	-0.000
886.34	-0.000
886.51	-0.000
886.68	-0.000
886.85	-0.000
887.02	-0.000
887.19	-0.000
887.36	-0.000
887.52	-0.000
887.69	-0.000
887.86	-0.000
888.03	-0.000
888.20	-0.000
888.37	-0.000
888.54	-0.000
888.70	-0.000
888.87	-0.000
889.04	-0.000
889.21	-0.000
889.38	-0.000
889.55	-0.000
889.71	-0.000
889.88	-0.000
890.05	-0.000
890.22	-0.000
890.39	-0.000
>>>>>End Processed Spectral Data<<<<<
