SpectraSuite Data File
++++++++++++++++++++++++++++++++++++
Date: Fri Jun 19 13:55:16 CEST 2015
User: introlabs
Dark Spectrum Present: Yes
Reference Spectrum Present: Yes
Number of Sampled Component Spectra: 1
Spectrometers: USB4H08886
Integration Time (usec): 745692 (USB4H08886)
Spectra Averaged: 5 (USB4H08886)
Boxcar Smoothing: 5 (USB4H08886)
Correct for Electrical Dark: Yes (USB4H08886)
Strobe/Lamp Enabled: No (USB4H08886)
Correct for Detector Non-linearity: Yes (USB4H08886)
Correct for Stray Light: Yes (USB4H08886)
Number of Pixels in Processed Spectrum: 3648
>>>>>Begin Processed Spectral Data<<<<<
178.14	-0.000
178.36	-0.000
178.57	-0.000
178.79	-0.000
179.01	-0.000
179.22	-0.000
179.44	-0.000
179.65	-0.000
179.87	-0.000
180.08	-0.000
180.30	-0.000
180.52	-0.000
180.73	-0.000
180.95	-0.000
181.16	-0.000
181.38	-0.000
181.59	-0.000
181.81	-0.000
182.03	-0.000
182.24	-0.000
182.46	-0.000
182.67	-0.000
182.89	-0.000
183.10	-0.000
183.32	-0.000
183.54	-0.000
183.75	-0.000
183.97	-0.000
184.18	-0.000
184.40	-0.000
184.61	-0.000
184.83	-0.000
185.04	-0.000
185.26	-0.000
185.48	-0.000
185.69	-0.000
185.91	-0.000
186.12	-0.000
186.34	-0.000
186.55	-0.000
186.77	-0.000
186.98	-0.000
187.20	-0.000
187.42	-0.000
187.63	-0.000
187.85	-0.000
188.06	-0.000
188.28	-0.000
188.49	-0.000
188.71	-0.000
188.92	-0.000
189.14	-0.000
189.36	-0.000
189.57	-0.000
189.79	-0.000
190.00	-0.000
190.22	-0.000
190.43	-0.000
190.65	-0.000
190.86	-0.000
191.08	-0.000
191.29	-0.000
191.51	-0.000
191.72	-0.000
191.94	-0.000
192.16	-0.000
192.37	-0.000
192.59	-0.000
192.80	-0.000
193.02	-0.000
193.23	-0.000
193.45	-0.000
193.66	-0.000
193.88	-0.000
194.09	-0.000
194.31	-0.000
194.52	-0.000
194.74	-0.000
194.95	-0.000
195.17	-0.000
195.38	-0.000
195.60	-0.000
195.81	-0.000
196.03	-0.000
196.25	-0.000
196.46	-0.000
196.68	-0.000
196.89	-0.000
197.11	-0.000
197.32	-0.000
197.54	-0.000
197.75	-0.000
197.97	-0.000
198.18	-0.000
198.40	-0.000
198.61	-0.000
198.83	-0.000
199.04	-0.000
199.26	-0.000
199.47	-0.000
199.69	-0.000
199.90	-0.000
200.12	-0.000
200.33	-0.000
200.55	-0.000
200.76	-0.000
200.98	-0.000
201.19	-0.000
201.41	-0.000
201.62	-0.000
201.84	-0.000
202.05	-0.000
202.27	-0.000
202.48	-0.000
202.70	-0.000
202.91	-0.000
203.13	-0.000
203.34	-0.000
203.56	-0.000
203.77	-0.000
203.99	-0.000
204.20	-0.000
204.42	-0.000
204.63	-0.000
204.85	-0.000
205.06	-0.000
205.28	-0.000
205.49	-0.000
205.71	-0.000
205.92	-0.000
206.14	-0.000
206.35	-0.000
206.56	-0.000
206.78	-0.000
206.99	-0.000
207.21	-0.000
207.42	-0.000
207.64	-0.000
207.85	-0.000
208.07	-0.000
208.28	-0.000
208.50	-0.000
208.71	-0.000
208.93	-0.000
209.14	-0.000
209.36	-0.000
209.57	-0.000
209.79	-0.000
210.00	-0.000
210.22	-0.000
210.43	-0.000
210.64	-0.000
210.86	-0.000
211.07	-0.000
211.29	-0.000
211.50	-0.000
211.72	-0.000
211.93	-0.000
212.15	-0.000
212.36	-0.000
212.58	-0.000
212.79	-0.000
213.01	-0.000
213.22	-0.000
213.43	-0.000
213.65	-0.000
213.86	-0.000
214.08	-0.000
214.29	-0.000
214.51	-0.000
214.72	-0.000
214.94	-0.000
215.15	-0.000
215.36	-0.000
215.58	-0.000
215.79	-0.000
216.01	-0.000
216.22	-0.000
216.44	-0.000
216.65	-0.000
216.87	-0.000
217.08	-0.000
217.29	-0.000
217.51	-0.000
217.72	-0.000
217.94	-0.000
218.15	-0.000
218.37	-0.000
218.58	-0.000
218.80	-0.000
219.01	-0.000
219.22	-0.000
219.44	-0.000
219.65	-0.000
219.87	-0.000
220.08	-0.000
220.30	-0.000
220.51	-0.000
220.72	-0.000
220.94	-0.000
221.15	-0.000
221.37	-0.000
221.58	-0.000
221.79	-0.000
222.01	-0.000
222.22	-0.000
222.44	-0.000
222.65	-0.000
222.87	-0.000
223.08	-0.000
223.29	-0.000
223.51	-0.000
223.72	-0.000
223.94	-0.000
224.15	-0.000
224.36	-0.000
224.58	-0.000
224.79	-0.000
225.01	-0.000
225.22	-0.000
225.44	-0.000
225.65	-0.000
225.86	-0.000
226.08	-0.000
226.29	-0.000
226.51	-0.000
226.72	-0.000
226.93	-0.000
227.15	-0.000
227.36	-0.000
227.58	-0.000
227.79	-0.000
228.00	-0.000
228.22	-0.000
228.43	-0.000
228.65	-0.000
228.86	-0.000
229.07	-0.000
229.29	-0.000
229.50	-0.000
229.72	-0.000
229.93	-0.000
230.14	-0.000
230.36	-0.000
230.57	-0.000
230.78	-0.000
231.00	-0.000
231.21	-0.000
231.43	-0.000
231.64	-0.000
231.85	-0.000
232.07	-0.000
232.28	-0.000
232.50	-0.000
232.71	-0.000
232.92	-0.000
233.14	-0.000
233.35	-0.000
233.56	-0.000
233.78	-0.000
233.99	-0.000
234.21	-0.000
234.42	-0.000
234.63	-0.000
234.85	-0.000
235.06	-0.000
235.27	-0.000
235.49	-0.000
235.70	-0.000
235.91	-0.000
236.13	-0.000
236.34	-0.000
236.56	-0.000
236.77	-0.000
236.98	-0.000
237.20	-0.000
237.41	-0.000
237.62	-0.000
237.84	-0.000
238.05	-0.000
238.26	-0.000
238.48	-0.000
238.69	-0.000
238.91	-0.000
239.12	-0.000
239.33	-0.000
239.55	-0.000
239.76	-0.000
239.97	-0.000
240.19	-0.000
240.40	-0.000
240.61	-0.000
240.83	-0.000
241.04	-0.000
241.25	-0.000
241.47	-0.000
241.68	-0.000
241.89	-0.000
242.11	-0.000
242.32	-0.000
242.53	-0.000
242.75	-0.000
242.96	-0.000
243.17	-0.000
243.39	-0.000
243.60	-0.000
243.81	-0.000
244.03	-0.000
244.24	-0.000
244.45	-0.000
244.67	-0.000
244.88	-0.000
245.09	-0.000
245.31	-0.000
245.52	-0.000
245.73	-0.000
245.95	-0.000
246.16	-0.000
246.37	-0.000
246.59	-0.000
246.80	-0.000
247.01	-0.000
247.23	-0.000
247.44	-0.000
247.65	-0.000
247.87	-0.000
248.08	-0.000
248.29	-0.000
248.51	-0.000
248.72	-0.000
248.93	-0.000
249.15	-0.000
249.36	-0.000
249.57	-0.000
249.78	-0.000
250.00	-0.000
250.21	-0.000
250.42	-0.000
250.64	-0.000
250.85	-0.000
251.06	-0.000
251.28	-0.000
251.49	-0.000
251.70	-0.000
251.92	-0.000
252.13	-0.000
252.34	-0.000
252.55	-0.000
252.77	-0.000
252.98	-0.000
253.19	-0.000
253.41	-0.000
253.62	-0.000
253.83	-0.000
254.05	-0.000
254.26	-0.000
254.47	-0.000
254.68	-0.000
254.90	-0.000
255.11	-0.000
255.32	-0.000
255.54	-0.000
255.75	-0.000
255.96	-0.000
256.17	-0.000
256.39	-0.000
256.60	-0.000
256.81	-0.000
257.03	-0.000
257.24	-0.000
257.45	-0.000
257.66	-0.000
257.88	-0.000
258.09	-0.000
258.30	-0.000
258.51	-0.000
258.73	-0.000
258.94	-0.000
259.15	-0.000
259.37	-0.000
259.58	-0.000
259.79	-0.000
260.00	-0.000
260.22	-0.000
260.43	-0.000
260.64	-0.000
260.85	-0.000
261.07	-0.000
261.28	-0.000
261.49	-0.000
261.71	-0.000
261.92	-0.000
262.13	-0.000
262.34	-0.000
262.56	-0.000
262.77	-0.000
262.98	-0.000
263.19	-0.000
263.41	-0.000
263.62	-0.000
263.83	-0.000
264.04	-0.000
264.26	-0.000
264.47	-0.000
264.68	-0.000
264.89	-0.000
265.11	-0.000
265.32	-0.000
265.53	-0.000
265.74	-0.000
265.96	-0.000
266.17	-0.000
266.38	-0.000
266.59	-0.000
266.81	-0.000
267.02	-0.000
267.23	-0.000
267.44	-0.000
267.65	-0.000
267.87	-0.000
268.08	-0.000
268.29	-0.000
268.50	-0.000
268.72	-0.000
268.93	-0.000
269.14	-0.000
269.35	-0.000
269.57	-0.000
269.78	-0.000
269.99	-0.000
270.20	-0.000
270.41	-0.000
270.63	-0.000
270.84	-0.000
271.05	-0.000
271.26	-0.000
271.48	-0.000
271.69	-0.000
271.90	-0.000
272.11	-0.000
272.32	-0.000
272.54	-0.000
272.75	-0.000
272.96	-0.000
273.17	-0.000
273.39	-0.000
273.60	-0.000
273.81	-0.000
274.02	-0.000
274.23	-0.000
274.45	-0.000
274.66	-0.000
274.87	-0.000
275.08	-0.000
275.29	-0.000
275.51	-0.000
275.72	-0.000
275.93	-0.000
276.14	-0.000
276.35	-0.000
276.57	-0.000
276.78	-0.000
276.99	-0.000
277.20	-0.000
277.41	-0.000
277.63	-0.000
277.84	-0.000
278.05	-0.000
278.26	-0.000
278.47	-0.000
278.69	-0.000
278.90	-0.000
279.11	-0.000
279.32	-0.000
279.53	-0.000
279.74	-0.000
279.96	-0.000
280.17	-0.000
280.38	-0.000
280.59	-0.000
280.80	-0.000
281.02	-0.000
281.23	-0.000
281.44	-0.000
281.65	-0.000
281.86	-0.000
282.07	-0.000
282.29	-0.000
282.50	-0.000
282.71	-0.000
282.92	-0.000
283.13	-0.000
283.35	-0.000
283.56	-0.000
283.77	-0.000
283.98	-0.000
284.19	-0.000
284.40	-0.000
284.62	-0.000
284.83	-0.000
285.04	-0.000
285.25	-0.000
285.46	-0.000
285.67	-0.000
285.88	-0.000
286.10	-0.000
286.31	-0.000
286.52	-0.000
286.73	-0.000
286.94	-0.000
287.15	-0.000
287.37	-0.000
287.58	-0.000
287.79	-0.000
288.00	-0.000
288.21	-0.000
288.42	-0.000
288.63	-0.000
288.85	-0.000
289.06	-0.000
289.27	-0.000
289.48	-0.000
289.69	-0.000
289.90	-0.000
290.11	-0.000
290.33	-0.000
290.54	-0.000
290.75	-0.000
290.96	-0.000
291.17	-0.000
291.38	-0.000
291.59	-0.000
291.81	-0.000
292.02	-0.000
292.23	-0.000
292.44	-0.000
292.65	-0.000
292.86	-0.000
293.07	-0.000
293.28	-0.000
293.50	-0.000
293.71	-0.000
293.92	-0.000
294.13	-0.000
294.34	-0.000
294.55	-0.000
294.76	-0.000
294.97	-0.000
295.19	-0.000
295.40	-0.000
295.61	-0.000
295.82	-0.000
296.03	-0.000
296.24	-0.000
296.45	-0.000
296.66	2.307
296.87	2.326
297.09	2.942
297.30	-0.000
297.51	2.153
297.72	2.076
297.93	2.372
298.14	2.174
298.35	2.027
298.56	1.950
298.77	2.253
298.99	2.158
299.20	2.081
299.41	1.984
299.62	1.897
299.83	1.889
300.04	1.769
300.25	1.755
300.46	1.830
300.67	1.780
300.88	1.693
301.10	1.699
301.31	1.813
301.52	1.726
301.73	1.656
301.94	1.666
302.15	1.682
302.36	1.613
302.57	1.523
302.78	1.533
302.99	1.592
303.20	1.626
303.41	1.497
303.63	1.471
303.84	1.477
304.05	1.472
304.26	1.395
304.47	1.398
304.68	1.406
304.89	1.393
305.10	1.343
305.31	1.332
305.52	1.379
305.73	1.371
305.94	1.323
306.15	1.315
306.37	1.339
306.58	1.344
306.79	1.309
307.00	1.330
307.21	1.381
307.42	1.368
307.63	1.321
307.84	1.282
308.05	1.325
308.26	1.326
308.47	1.298
308.68	1.290
308.89	1.294
309.10	1.291
309.31	1.246
309.52	1.234
309.73	1.256
309.95	1.251
310.16	1.220
310.37	1.207
310.58	1.227
310.79	1.226
311.00	1.223
311.21	1.223
311.42	1.225
311.63	1.216
311.84	1.193
312.05	1.190
312.26	1.214
312.47	1.225
312.68	1.199
312.89	1.180
313.10	1.187
313.31	1.158
313.52	1.159
313.73	1.161
313.94	1.166
314.15	1.148
314.36	1.125
314.57	1.116
314.78	1.104
314.99	1.097
315.21	1.084
315.42	1.089
315.63	1.101
315.84	1.077
316.05	1.062
316.26	1.069
316.47	1.089
316.68	1.083
316.89	1.063
317.10	1.085
317.31	1.091
317.52	1.092
317.73	1.070
317.94	1.069
318.15	1.112
318.36	1.113
318.57	1.094
318.78	1.079
318.99	1.116
319.20	1.114
319.41	1.078
319.62	1.080
319.83	1.094
320.04	1.089
320.25	1.075
320.46	1.041
320.67	1.044
320.88	1.042
321.09	1.031
321.30	1.015
321.51	1.031
321.72	1.029
321.93	1.011
322.14	1.004
322.35	1.031
322.56	1.034
322.77	1.020
322.98	1.031
323.19	1.039
323.40	1.043
323.61	1.021
323.82	1.014
324.03	1.020
324.24	1.018
324.45	1.004
324.66	0.984
324.87	0.980
325.08	0.980
325.29	0.960
325.50	0.953
325.71	0.961
325.92	0.969
326.13	0.956
326.34	0.955
326.55	0.963
326.76	0.963
326.97	0.952
327.18	0.947
327.39	0.973
327.60	0.974
327.80	0.972
328.01	0.968
328.22	0.968
328.43	0.972
328.64	0.960
328.85	0.964
329.06	0.966
329.27	0.965
329.48	0.961
329.69	0.940
329.90	0.952
330.11	0.945
330.32	0.939
330.53	0.931
330.74	0.932
330.95	0.930
331.16	0.914
331.37	0.922
331.58	0.923
331.79	0.922
332.00	0.913
332.21	0.906
332.42	0.911
332.63	0.902
332.83	0.897
333.04	0.900
333.25	0.913
333.46	0.912
333.67	0.897
333.88	0.900
334.09	0.909
334.30	0.907
334.51	0.897
334.72	0.892
334.93	0.895
335.14	0.894
335.35	0.885
335.56	0.879
335.77	0.888
335.98	0.887
336.18	0.879
336.39	0.873
336.60	0.877
336.81	0.875
337.02	0.874
337.23	0.880
337.44	0.884
337.65	0.886
337.86	0.875
338.07	0.870
338.28	0.875
338.49	0.872
338.70	0.864
338.91	0.872
339.11	0.881
339.32	0.877
339.53	0.865
339.74	0.860
339.95	0.858
340.16	0.856
340.37	0.849
340.58	0.847
340.79	0.852
341.00	0.852
341.21	0.839
341.41	0.840
341.62	0.841
341.83	0.842
342.04	0.838
342.25	0.850
342.46	0.855
342.67	0.854
342.88	0.846
343.09	0.845
343.30	0.854
343.50	0.856
343.71	0.846
343.92	0.844
344.13	0.849
344.34	0.848
344.55	0.830
344.76	0.828
344.97	0.832
345.18	0.831
345.38	0.828
345.59	0.822
345.80	0.822
346.01	0.820
346.22	0.815
346.43	0.810
346.64	0.819
346.85	0.819
347.06	0.812
347.26	0.813
347.47	0.818
347.68	0.813
347.89	0.810
348.10	0.805
348.31	0.812
348.52	0.812
348.73	0.809
348.93	0.806
349.14	0.808
349.35	0.807
349.56	0.801
349.77	0.795
349.98	0.801
350.19	0.797
350.39	0.792
350.60	0.788
350.81	0.803
351.02	0.802
351.23	0.796
351.44	0.799
351.65	0.802
351.86	0.800
352.06	0.798
352.27	0.799
352.48	0.800
352.69	0.800
352.90	0.795
353.11	0.782
353.31	0.790
353.52	0.786
353.73	0.777
353.94	0.779
354.15	0.785
354.36	0.785
354.57	0.776
354.77	0.778
354.98	0.777
355.19	0.776
355.40	0.775
355.61	0.781
355.82	0.785
356.02	0.785
356.23	0.778
356.44	0.779
356.65	0.783
356.86	0.783
357.07	0.778
357.27	0.781
357.48	0.784
357.69	0.780
357.90	0.764
358.11	0.761
358.32	0.764
358.52	0.767
358.73	0.757
358.94	0.759
359.15	0.764
359.36	0.763
359.56	0.758
359.77	0.756
359.98	0.763
360.19	0.764
360.40	0.760
360.61	0.761
360.81	0.760
361.02	0.760
361.23	0.752
361.44	0.750
361.65	0.752
361.85	0.751
362.06	0.749
362.27	0.750
362.48	0.750
362.69	0.753
362.89	0.746
363.10	0.747
363.31	0.753
363.52	0.755
363.73	0.751
363.93	0.750
364.14	0.752
364.35	0.753
364.56	0.743
364.77	0.745
364.97	0.747
365.18	0.748
365.39	0.742
365.60	0.739
365.81	0.740
366.01	0.740
366.22	0.737
366.43	0.735
366.64	0.737
366.84	0.743
367.05	0.739
367.26	0.739
367.47	0.740
367.68	0.740
367.88	0.737
368.09	0.735
368.30	0.737
368.51	0.737
368.71	0.737
368.92	0.741
369.13	0.740
369.34	0.740
369.55	0.738
369.75	0.739
369.96	0.746
370.17	0.746
370.38	0.742
370.58	0.741
370.79	0.747
371.00	0.745
371.21	0.736
371.41	0.741
371.62	0.745
371.83	0.740
372.04	0.738
372.24	0.732
372.45	0.733
372.66	0.734
372.87	0.731
373.07	0.729
373.28	0.729
373.49	0.733
373.70	0.724
373.90	0.722
374.11	0.732
374.32	0.732
374.53	0.731
374.73	0.731
374.94	0.734
375.15	0.734
375.36	0.730
375.56	0.739
375.77	0.740
375.98	0.739
376.19	0.736
376.39	0.730
376.60	0.733
376.81	0.733
377.02	0.731
377.22	0.729
377.43	0.730
377.64	0.729
377.84	0.719
378.05	0.724
378.26	0.731
378.47	0.729
378.67	0.726
378.88	0.724
379.09	0.725
379.30	0.725
379.50	0.722
379.71	0.724
379.92	0.727
380.12	0.726
380.33	0.718
380.54	0.714
380.75	0.722
380.95	0.723
381.16	0.720
381.37	0.720
381.57	0.721
381.78	0.722
381.99	0.722
382.20	0.721
382.40	0.724
382.61	0.725
382.82	0.720
383.02	0.712
383.23	0.716
383.44	0.716
383.64	0.714
383.85	0.717
384.06	0.720
384.27	0.718
384.47	0.716
384.68	0.716
384.89	0.722
385.09	0.722
385.30	0.722
385.51	0.720
385.71	0.724
385.92	0.726
386.13	0.724
386.33	0.726
386.54	0.726
386.75	0.726
386.95	0.722
387.16	0.717
387.37	0.719
387.58	0.719
387.78	0.717
387.99	0.714
388.20	0.716
388.40	0.713
388.61	0.709
388.82	0.713
389.02	0.715
389.23	0.715
389.44	0.713
389.64	0.713
389.85	0.724
390.06	0.724
390.26	0.724
390.47	0.724
390.68	0.726
390.88	0.725
391.09	0.720
391.30	0.719
391.50	0.718
391.71	0.718
391.92	0.716
392.12	0.708
392.33	0.709
392.53	0.709
392.74	0.708
392.95	0.706
393.15	0.709
393.36	0.710
393.57	0.708
393.77	0.712
393.98	0.714
394.19	0.713
394.39	0.712
394.60	0.714
394.81	0.716
395.01	0.714
395.22	0.713
395.43	0.714
395.63	0.719
395.84	0.720
396.04	0.715
396.25	0.717
396.46	0.719
396.66	0.717
396.87	0.714
397.08	0.712
397.28	0.714
397.49	0.715
397.69	0.712
397.90	0.707
398.11	0.709
398.31	0.709
398.52	0.706
398.73	0.706
398.93	0.705
399.14	0.704
399.34	0.703
399.55	0.704
399.76	0.703
399.96	0.704
400.17	0.703
400.37	0.701
400.58	0.708
400.79	0.709
400.99	0.707
401.20	0.713
401.41	0.716
401.61	0.717
401.82	0.722
402.02	0.722
402.23	0.723
402.44	0.722
402.64	0.722
402.85	0.716
403.05	0.716
403.26	0.715
403.47	0.708
403.67	0.707
403.88	0.707
404.08	0.701
404.29	0.699
404.50	0.699
404.70	0.698
404.91	0.697
405.11	0.693
405.32	0.694
405.52	0.694
405.73	0.694
405.94	0.693
406.14	0.696
406.35	0.698
406.55	0.698
406.76	0.695
406.97	0.696
407.17	0.699
407.38	0.699
407.58	0.697
407.79	0.700
407.99	0.702
408.20	0.702
408.41	0.697
408.61	0.695
408.82	0.697
409.02	0.697
409.23	0.694
409.43	0.694
409.64	0.696
409.84	0.695
410.05	0.691
410.26	0.690
410.46	0.690
410.67	0.690
410.87	0.690
411.08	0.692
411.28	0.693
411.49	0.694
411.69	0.691
411.90	0.692
412.11	0.694
412.31	0.695
412.52	0.693
412.72	0.694
412.93	0.695
413.13	0.694
413.34	0.690
413.54	0.692
413.75	0.693
413.95	0.693
414.16	0.690
414.37	0.693
414.57	0.693
414.78	0.695
414.98	0.693
415.19	0.694
415.39	0.692
415.60	0.695
415.80	0.694
416.01	0.692
416.21	0.694
416.42	0.695
416.62	0.690
416.83	0.690
417.03	0.690
417.24	0.690
417.44	0.687
417.65	0.687
417.86	0.688
418.06	0.686
418.27	0.684
418.47	0.686
418.68	0.687
418.88	0.687
419.09	0.686
419.29	0.687
419.50	0.687
419.70	0.688
419.91	0.685
420.11	0.683
420.32	0.685
420.52	0.684
420.73	0.683
420.93	0.684
421.14	0.686
421.34	0.685
421.55	0.681
421.75	0.681
421.96	0.683
422.16	0.683
422.37	0.682
422.57	0.678
422.78	0.681
422.98	0.677
423.19	0.675
423.39	0.673
423.60	0.676
423.80	0.678
424.01	0.676
424.21	0.678
424.42	0.679
424.62	0.680
424.83	0.679
425.03	0.679
425.23	0.682
425.44	0.682
425.64	0.682
425.85	0.681
426.05	0.682
426.26	0.682
426.46	0.678
426.67	0.678
426.87	0.683
427.08	0.683
427.28	0.681
427.49	0.682
427.69	0.683
427.90	0.683
428.10	0.680
428.31	0.680
428.51	0.682
428.71	0.681
428.92	0.681
429.12	0.678
429.33	0.679
429.53	0.683
429.74	0.687
429.94	0.687
430.15	0.687
430.35	0.687
430.56	0.684
430.76	0.683
430.96	0.684
431.17	0.681
431.37	0.678
431.58	0.677
431.78	0.674
431.99	0.667
432.19	0.669
432.40	0.670
432.60	0.671
432.80	0.674
433.01	0.672
433.21	0.672
433.42	0.675
433.62	0.675
433.83	0.674
434.03	0.677
434.23	0.679
434.44	0.677
434.64	0.675
434.85	0.680
435.05	0.680
435.26	0.680
435.46	0.678
435.66	0.678
435.87	0.678
436.07	0.679
436.28	0.674
436.48	0.672
436.69	0.672
436.89	0.672
437.09	0.666
437.30	0.665
437.50	0.665
437.71	0.678
437.91	0.677
438.11	0.679
438.32	0.683
438.52	0.683
438.73	0.682
438.93	0.681
439.13	0.681
439.34	0.684
439.54	0.682
439.75	0.682
439.95	0.672
440.15	0.676
440.36	0.674
440.56	0.672
440.77	0.672
440.97	0.672
441.17	0.671
441.38	0.672
441.58	0.670
441.79	0.669
441.99	0.668
442.19	0.667
442.40	0.665
442.60	0.664
442.81	0.661
443.01	0.662
443.21	0.663
443.42	0.662
443.62	0.661
443.82	0.660
444.03	0.662
444.23	0.661
444.44	0.661
444.64	0.660
444.84	0.663
445.05	0.663
445.25	0.660
445.45	0.660
445.66	0.663
445.86	0.662
446.06	0.664
446.27	0.663
446.47	0.667
446.68	0.665
446.88	0.664
447.08	0.663
447.29	0.665
447.49	0.666
447.69	0.665
447.90	0.664
448.10	0.667
448.30	0.665
448.51	0.665
448.71	0.663
448.91	0.666
449.12	0.665
449.32	0.666
449.52	0.664
449.73	0.668
449.93	0.667
450.14	0.668
450.34	0.667
450.54	0.670
450.75	0.668
450.95	0.667
451.15	0.665
451.36	0.668
451.56	0.664
451.76	0.664
451.97	0.661
452.17	0.662
452.37	0.660
452.58	0.657
452.78	0.656
452.98	0.659
453.19	0.658
453.39	0.659
453.59	0.658
453.79	0.659
454.00	0.659
454.20	0.658
454.40	0.659
454.61	0.661
454.81	0.662
455.01	0.660
455.22	0.660
455.42	0.662
455.62	0.659
455.83	0.659
456.03	0.663
456.23	0.664
456.44	0.664
456.64	0.663
456.84	0.663
457.04	0.664
457.25	0.663
457.45	0.660
457.65	0.659
457.86	0.661
458.06	0.659
458.26	0.654
458.47	0.654
458.67	0.655
458.87	0.655
459.07	0.653
459.28	0.655
459.48	0.658
459.68	0.657
459.89	0.657
460.09	0.656
460.29	0.657
460.49	0.658
460.70	0.657
460.90	0.657
461.10	0.659
461.31	0.658
461.51	0.655
461.71	0.657
461.91	0.658
462.12	0.658
462.32	0.657
462.52	0.657
462.72	0.661
462.93	0.661
463.13	0.659
463.33	0.658
463.53	0.660
463.74	0.660
463.94	0.655
464.14	0.656
464.35	0.658
464.55	0.657
464.75	0.655
464.95	0.653
465.16	0.655
465.36	0.654
465.56	0.653
465.76	0.652
465.97	0.653
466.17	0.654
466.37	0.652
466.57	0.652
466.78	0.653
466.98	0.653
467.18	0.652
467.38	0.650
467.59	0.652
467.79	0.654
467.99	0.653
468.19	0.654
468.39	0.656
468.60	0.656
468.80	0.654
469.00	0.656
469.20	0.657
469.41	0.658
469.61	0.657
469.81	0.658
470.01	0.657
470.22	0.658
470.42	0.656
470.62	0.654
470.82	0.655
471.02	0.654
471.23	0.652
471.43	0.652
471.63	0.654
471.83	0.653
472.04	0.651
472.24	0.649
472.44	0.654
472.64	0.655
472.84	0.653
473.05	0.653
473.25	0.656
473.45	0.655
473.65	0.653
473.85	0.654
474.06	0.656
474.26	0.656
474.46	0.657
474.66	0.653
474.86	0.655
475.07	0.655
475.27	0.652
475.47	0.649
475.67	0.650
475.87	0.652
476.08	0.648
476.28	0.649
476.48	0.651
476.68	0.649
476.88	0.646
477.09	0.648
477.29	0.649
477.49	0.650
477.69	0.649
477.89	0.649
478.09	0.648
478.30	0.651
478.50	0.648
478.70	0.647
478.90	0.648
479.10	0.651
479.31	0.651
479.51	0.649
479.71	0.651
479.91	0.651
480.11	0.649
480.31	0.650
480.52	0.649
480.72	0.649
480.92	0.648
481.12	0.647
481.32	0.644
481.52	0.643
481.72	0.643
481.93	0.645
482.13	0.646
482.33	0.646
482.53	0.643
482.73	0.644
482.93	0.645
483.14	0.645
483.34	0.644
483.54	0.645
483.74	0.645
483.94	0.643
484.14	0.639
484.34	0.639
484.55	0.640
484.75	0.640
484.95	0.638
485.15	0.637
485.35	0.638
485.55	0.637
485.75	0.635
485.96	0.635
486.16	0.637
486.36	0.637
486.56	0.635
486.76	0.635
486.96	0.635
487.16	0.635
487.36	0.633
487.57	0.632
487.77	0.634
487.97	0.634
488.17	0.632
488.37	0.631
488.57	0.632
488.77	0.632
488.97	0.630
489.18	0.630
489.38	0.632
489.58	0.633
489.78	0.633
489.98	0.632
490.18	0.632
490.38	0.633
490.58	0.631
490.78	0.632
490.98	0.634
491.19	0.634
491.39	0.634
491.59	0.632
491.79	0.635
491.99	0.636
492.19	0.635
492.39	0.638
492.59	0.638
492.79	0.640
492.99	0.640
493.20	0.641
493.40	0.641
493.60	0.642
493.80	0.640
494.00	0.638
494.20	0.638
494.40	0.638
494.60	0.636
494.80	0.640
495.00	0.639
495.20	0.637
495.40	0.636
495.61	0.638
495.81	0.638
496.01	0.642
496.21	0.643
496.41	0.642
496.61	0.643
496.81	0.642
497.01	0.637
497.21	0.636
497.41	0.636
497.61	0.636
497.81	0.633
498.01	0.633
498.21	0.631
498.41	0.628
498.61	0.628
498.82	0.630
499.02	0.633
499.22	0.634
499.42	0.633
499.62	0.634
499.82	0.636
500.02	0.637
500.22	0.635
500.42	0.638
500.62	0.638
500.82	0.639
501.02	0.637
501.22	0.636
501.42	0.636
501.62	0.639
501.82	0.638
502.02	0.639
502.22	0.638
502.42	0.640
502.62	0.637
502.82	0.637
503.02	0.638
503.22	0.638
503.42	0.636
503.63	0.636
503.83	0.634
504.03	0.632
504.23	0.631
504.43	0.631
504.63	0.633
504.83	0.633
505.03	0.631
505.23	0.633
505.43	0.635
505.63	0.636
505.83	0.636
506.03	0.638
506.23	0.640
506.43	0.640
506.63	0.639
506.83	0.637
507.03	0.639
507.23	0.639
507.43	0.637
507.63	0.637
507.83	0.637
508.03	0.637
508.23	0.637
508.43	0.635
508.63	0.637
508.83	0.637
509.03	0.638
509.23	0.637
509.43	0.639
509.63	0.639
509.83	0.637
510.03	0.640
510.23	0.642
510.43	0.642
510.63	0.642
510.83	0.642
511.03	0.644
511.23	0.641
511.43	0.641
511.63	0.642
511.83	0.645
512.03	0.645
512.22	0.641
512.42	0.640
512.62	0.641
512.82	0.641
513.02	0.640
513.22	0.640
513.42	0.642
513.62	0.645
513.82	0.642
514.02	0.642
514.22	0.643
514.42	0.644
514.62	0.644
514.82	0.644
515.02	0.646
515.22	0.649
515.42	0.648
515.62	0.651
515.82	0.649
516.02	0.651
516.22	0.651
516.42	0.652
516.62	0.654
516.82	0.655
517.01	0.653
517.21	0.653
517.41	0.656
517.61	0.656
517.81	0.652
518.01	0.651
518.21	0.651
518.41	0.650
518.61	0.649
518.81	0.649
519.01	0.650
519.21	0.650
519.41	0.649
519.61	0.644
519.81	0.647
520.00	0.647
520.20	0.648
520.40	0.651
520.60	0.653
520.80	0.651
521.00	0.652
521.20	0.653
521.40	0.658
521.60	0.659
521.80	0.657
522.00	0.658
522.20	0.660
522.39	0.660
522.59	0.656
522.79	0.658
522.99	0.660
523.19	0.658
523.39	0.655
523.59	0.653
523.79	0.657
523.99	0.659
524.19	0.658
524.38	0.656
524.58	0.658
524.78	0.658
524.98	0.656
525.18	0.659
525.38	0.660
525.58	0.661
525.78	0.658
525.98	0.656
526.18	0.656
526.37	0.655
526.57	0.657
526.77	0.656
526.97	0.657
527.17	0.658
527.37	0.654
527.57	0.657
527.77	0.658
527.96	0.659
528.16	0.658
528.36	0.659
528.56	0.661
528.76	0.658
528.96	0.658
529.16	0.659
529.36	0.661
529.55	0.661
529.75	0.658
529.95	0.658
530.15	0.659
530.35	0.662
530.55	0.659
530.75	0.660
530.94	0.661
531.14	0.662
531.34	0.660
531.54	0.658
531.74	0.661
531.94	0.664
532.13	0.662
532.33	0.664
532.53	0.663
532.73	0.662
532.93	0.660
533.13	0.662
533.33	0.662
533.52	0.663
533.72	0.666
533.92	0.664
534.12	0.662
534.32	0.663
534.52	0.661
534.71	0.662
534.91	0.665
535.11	0.667
535.31	0.665
535.51	0.667
535.71	0.669
535.90	0.665
536.10	0.667
536.30	0.669
536.50	0.670
536.70	0.670
536.89	0.667
537.09	0.666
537.29	0.668
537.49	0.669
537.69	0.667
537.89	0.668
538.08	0.668
538.28	0.665
538.48	0.666
538.68	0.668
538.88	0.670
539.07	0.671
539.27	0.669
539.47	0.668
539.67	0.668
539.87	0.669
540.06	0.667
540.26	0.668
540.46	0.670
540.66	0.667
540.86	0.664
541.05	0.664
541.25	0.666
541.45	0.665
541.65	0.664
541.84	0.667
542.04	0.667
542.24	0.667
542.44	0.666
542.64	0.667
542.83	0.670
543.03	0.671
543.23	0.668
543.43	0.668
543.62	0.670
543.82	0.670
544.02	0.668
544.22	0.669
544.42	0.672
544.61	0.673
544.81	0.669
545.01	0.668
545.21	0.670
545.40	0.671
545.60	0.669
545.80	0.673
546.00	0.673
546.19	0.673
546.39	0.672
546.59	0.670
546.79	0.671
546.98	0.671
547.18	0.671
547.38	0.671
547.58	0.673
547.77	0.674
547.97	0.670
548.17	0.671
548.37	0.672
548.56	0.672
548.76	0.671
548.96	0.673
549.16	0.676
549.35	0.675
549.55	0.673
549.75	0.673
549.95	0.676
550.14	0.676
550.34	0.674
550.54	0.679
550.73	0.683
550.93	0.683
551.13	0.680
551.33	0.678
551.52	0.680
551.72	0.681
551.92	0.678
552.12	0.679
552.31	0.680
552.51	0.680
552.71	0.675
552.90	0.675
553.10	0.676
553.30	0.677
553.50	0.677
553.69	0.678
553.89	0.678
554.09	0.678
554.28	0.675
554.48	0.676
554.68	0.679
554.87	0.679
555.07	0.675
555.27	0.675
555.47	0.677
555.66	0.678
555.86	0.676
556.06	0.677
556.25	0.680
556.45	0.687
556.65	0.686
556.84	0.689
557.04	0.692
557.24	0.693
557.43	0.693
557.63	0.695
557.83	0.697
558.02	0.698
558.22	0.702
558.42	0.702
558.61	0.695
558.81	0.695
559.01	0.692
559.21	0.692
559.40	0.692
559.60	0.693
559.80	0.689
559.99	0.690
560.19	0.692
560.39	0.686
560.58	0.684
560.78	0.684
560.97	0.687
561.17	0.686
561.37	0.684
561.56	0.685
561.76	0.687
561.96	0.686
562.15	0.683
562.35	0.686
562.55	0.687
562.74	0.687
562.94	0.686
563.14	0.683
563.33	0.684
563.53	0.684
563.73	0.681
563.92	0.683
564.12	0.686
564.31	0.688
564.51	0.686
564.71	0.688
564.90	0.690
565.10	0.691
565.30	0.694
565.49	0.695
565.69	0.698
565.89	0.698
566.08	0.695
566.28	0.697
566.47	0.699
566.67	0.697
566.87	0.694
567.06	0.696
567.26	0.703
567.46	0.698
567.65	0.697
567.85	0.698
568.04	0.701
568.24	0.700
568.44	0.697
568.63	0.695
568.83	0.696
569.02	0.695
569.22	0.690
569.42	0.686
569.61	0.689
569.81	0.687
570.00	0.685
570.20	0.686
570.40	0.688
570.59	0.688
570.79	0.686
570.98	0.683
571.18	0.685
571.38	0.684
571.57	0.681
571.77	0.678
571.96	0.682
572.16	0.679
572.35	0.674
572.55	0.674
572.75	0.672
572.94	0.672
573.14	0.671
573.33	0.671
573.53	0.673
573.73	0.672
573.92	0.670
574.12	0.668
574.31	0.671
574.51	0.672
574.70	0.669
574.90	0.671
575.09	0.673
575.29	0.673
575.49	0.671
575.68	0.671
575.88	0.672
576.07	0.673
576.27	0.671
576.46	0.669
576.66	0.668
576.86	0.668
577.05	0.665
577.25	0.663
577.44	0.665
577.64	0.665
577.83	0.663
578.03	0.664
578.22	0.663
578.42	0.663
578.61	0.661
578.81	0.662
579.00	0.663
579.20	0.663
579.40	0.662
579.59	0.660
579.79	0.661
579.98	0.661
580.18	0.660
580.37	0.660
580.57	0.662
580.76	0.667
580.96	0.665
581.15	0.666
581.35	0.668
581.54	0.667
581.74	0.666
581.93	0.668
582.13	0.669
582.32	0.666
582.52	0.664
582.71	0.664
582.91	0.660
583.10	0.660
583.30	0.659
583.49	0.658
583.69	0.663
583.88	0.663
584.08	0.662
584.27	0.665
584.47	0.668
584.66	0.669
584.86	0.668
585.05	0.669
585.25	0.671
585.44	0.671
585.64	0.669
585.83	0.666
586.03	0.667
586.22	0.666
586.42	0.662
586.61	0.664
586.81	0.666
587.00	0.666
587.20	0.664
587.39	0.664
587.59	0.666
587.78	0.668
587.98	0.668
588.17	0.669
588.37	0.671
588.56	0.673
588.76	0.669
588.95	0.668
589.15	0.672
589.34	0.675
589.54	0.673
589.73	0.674
589.92	0.678
590.12	0.678
590.31	0.676
590.51	0.681
590.70	0.683
590.90	0.683
591.09	0.682
591.29	0.680
591.48	0.681
591.68	0.681
591.87	0.680
592.06	0.679
592.26	0.682
592.45	0.681
592.65	0.675
592.84	0.674
593.04	0.676
593.23	0.678
593.43	0.676
593.62	0.675
593.81	0.675
594.01	0.674
594.20	0.672
594.40	0.671
594.59	0.673
594.79	0.674
594.98	0.672
595.17	0.672
595.37	0.673
595.56	0.675
595.76	0.673
595.95	0.676
596.14	0.679
596.34	0.680
596.53	0.679
596.73	0.680
596.92	0.681
597.12	0.684
597.31	0.684
597.50	0.683
597.70	0.685
597.89	0.685
598.09	0.681
598.28	0.682
598.47	0.685
598.67	0.683
598.86	0.679
599.06	0.682
599.25	0.682
599.44	0.680
599.64	0.677
599.83	0.674
600.03	0.677
600.22	0.678
600.41	0.678
600.61	0.675
600.80	0.678
601.00	0.679
601.19	0.675
601.38	0.673
601.58	0.677
601.77	0.678
601.96	0.680
602.16	0.679
602.35	0.689
602.55	0.687
602.74	0.688
602.93	0.689
603.13	0.694
603.32	0.695
603.51	0.695
603.71	0.697
603.90	0.699
604.09	0.700
604.29	0.697
604.48	0.691
604.68	0.693
604.87	0.692
605.06	0.688
605.26	0.684
605.45	0.685
605.64	0.684
605.84	0.679
606.03	0.678
606.22	0.678
606.42	0.677
606.61	0.673
606.80	0.672
607.00	0.675
607.19	0.675
607.38	0.674
607.58	0.675
607.77	0.678
607.96	0.678
608.16	0.677
608.35	0.681
608.54	0.685
608.74	0.688
608.93	0.693
609.12	0.696
609.32	0.698
609.51	0.702
609.70	0.701
609.90	0.703
610.09	0.707
610.28	0.713
610.48	0.706
610.67	0.707
610.86	0.709
611.06	0.703
611.25	0.700
611.44	0.701
611.64	0.700
611.83	0.702
612.02	0.698
612.21	0.697
612.41	0.696
612.60	0.694
612.79	0.690
612.99	0.690
613.18	0.692
613.37	0.689
613.57	0.686
613.76	0.689
613.95	0.686
614.14	0.687
614.34	0.684
614.53	0.684
614.72	0.688
614.92	0.688
615.11	0.684
615.30	0.682
615.49	0.683
615.69	0.686
615.88	0.683
616.07	0.684
616.26	0.687
616.46	0.688
616.65	0.686
616.84	0.685
617.04	0.687
617.23	0.690
617.42	0.691
617.61	0.695
617.81	0.696
618.00	0.698
618.19	0.696
618.38	0.699
618.58	0.703
618.77	0.703
618.96	0.702
619.15	0.704
619.35	0.706
619.54	0.707
619.73	0.702
619.92	0.704
620.12	0.707
620.31	0.708
620.50	0.702
620.69	0.703
620.89	0.706
621.08	0.707
621.27	0.706
621.46	0.705
621.66	0.710
621.85	0.710
622.04	0.706
622.23	0.707
622.43	0.708
622.62	0.708
622.81	0.707
623.00	0.706
623.19	0.709
623.39	0.708
623.58	0.705
623.77	0.703
623.96	0.706
624.16	0.706
624.35	0.701
624.54	0.703
624.73	0.708
624.92	0.705
625.12	0.703
625.31	0.703
625.50	0.706
625.69	0.707
625.88	0.703
626.08	0.703
626.27	0.705
626.46	0.706
626.65	0.703
626.84	0.703
627.04	0.708
627.23	0.708
627.42	0.705
627.61	0.707
627.80	0.710
628.00	0.710
628.19	0.708
628.38	0.711
628.57	0.715
628.76	0.714
628.96	0.711
629.15	0.712
629.34	0.716
629.53	0.715
629.72	0.709
629.91	0.710
630.11	0.715
630.30	0.715
630.49	0.717
630.68	0.717
630.87	0.721
631.06	0.723
631.26	0.717
631.45	0.718
631.64	0.727
631.83	0.730
632.02	0.727
632.21	0.727
632.41	0.734
632.60	0.729
632.79	0.727
632.98	0.728
633.17	0.729
633.36	0.732
633.55	0.729
633.75	0.725
633.94	0.726
634.13	0.725
634.32	0.721
634.51	0.715
634.70	0.717
634.89	0.716
635.09	0.712
635.28	0.713
635.47	0.714
635.66	0.717
635.85	0.712
636.04	0.714
636.23	0.719
636.43	0.721
636.62	0.720
636.81	0.718
637.00	0.721
637.19	0.723
637.38	0.720
637.57	0.719
637.76	0.721
637.95	0.722
638.15	0.718
638.34	0.714
638.53	0.718
638.72	0.720
638.91	0.717
639.10	0.716
639.29	0.717
639.48	0.718
639.67	0.717
639.87	0.716
640.06	0.722
640.25	0.722
640.44	0.724
640.63	0.723
640.82	0.726
641.01	0.727
641.20	0.726
641.39	0.728
641.58	0.731
641.78	0.731
641.97	0.726
642.16	0.741
642.35	0.743
642.54	0.741
642.73	0.735
642.92	0.733
643.11	0.737
643.30	0.738
643.49	0.731
643.68	0.733
643.87	0.735
644.06	0.735
644.25	0.713
644.45	0.716
644.64	0.717
644.83	0.718
645.02	0.715
645.21	0.713
645.40	0.714
645.59	0.714
645.78	0.709
645.97	0.711
646.16	0.712
646.35	0.711
646.54	0.709
646.73	0.710
646.92	0.712
647.11	0.711
647.30	0.708
647.49	0.711
647.68	0.710
647.88	0.709
648.07	0.701
648.26	0.705
648.45	0.707
648.64	0.703
648.83	0.701
649.02	0.704
649.21	0.714
649.40	0.712
649.59	0.705
649.78	0.707
649.97	0.722
650.16	0.722
650.35	0.715
650.54	0.718
650.73	0.726
650.92	0.722
651.11	0.716
651.30	0.713
651.49	0.718
651.68	0.719
651.87	0.716
652.06	0.704
652.25	0.708
652.44	0.710
652.63	0.707
652.82	0.707
653.01	0.707
653.20	0.705
653.39	0.692
653.58	0.690
653.77	0.688
653.96	0.683
654.15	0.675
654.34	0.673
654.53	0.668
654.72	0.662
654.91	0.652
655.10	0.648
655.29	0.647
655.48	0.645
655.67	0.639
655.86	0.637
656.05	0.635
656.24	0.635
656.43	0.630
656.62	0.629
656.81	0.629
657.00	0.627
657.19	0.625
657.38	0.624
657.57	0.624
657.76	0.626
657.95	0.624
658.14	0.628
658.33	0.631
658.51	0.636
658.70	0.637
658.89	0.639
659.08	0.648
659.27	0.656
659.46	0.656
659.65	0.662
659.84	0.666
660.03	0.670
660.22	0.671
660.41	0.675
660.60	0.675
660.79	0.677
660.98	0.682
661.17	0.682
661.36	0.681
661.55	0.683
661.74	0.680
661.92	0.682
662.11	0.685
662.30	0.684
662.49	0.677
662.68	0.676
662.87	0.680
663.06	0.674
663.25	0.674
663.44	0.674
663.63	0.675
663.82	0.673
664.01	0.668
664.20	0.667
664.38	0.669
664.57	0.669
664.76	0.668
664.95	0.668
665.14	0.673
665.33	0.668
665.52	0.675
665.71	0.679
665.90	0.679
666.09	0.681
666.28	0.677
666.46	0.676
666.65	0.678
666.84	0.677
667.03	0.670
667.22	0.668
667.41	0.671
667.60	0.661
667.79	0.654
667.98	0.655
668.16	0.656
668.35	0.656
668.54	0.652
668.73	0.652
668.92	0.653
669.11	0.653
669.30	0.646
669.49	0.643
669.67	0.645
669.86	0.647
670.05	0.645
670.24	0.642
670.43	0.641
670.62	0.640
670.81	0.634
671.00	0.635
671.18	0.635
671.37	0.635
671.56	0.633
671.75	0.631
671.94	0.629
672.13	0.626
672.32	0.621
672.50	0.619
672.69	0.620
672.88	0.620
673.07	0.616
673.26	0.617
673.45	0.618
673.63	0.618
673.82	0.614
674.01	0.615
674.20	0.615
674.39	0.615
674.58	0.615
674.76	0.615
674.95	0.615
675.14	0.615
675.33	0.611
675.52	0.610
675.71	0.610
675.89	0.610
676.08	0.605
676.27	0.605
676.46	0.606
676.65	0.605
676.84	0.604
677.02	0.605
677.21	0.608
677.40	0.605
677.59	0.603
677.78	0.604
677.96	0.606
678.15	0.606
678.34	0.603
678.53	0.604
678.72	0.605
678.90	0.602
679.09	0.598
679.28	0.594
679.47	0.595
679.66	0.594
679.84	0.591
680.03	0.588
680.22	0.587
680.41	0.589
680.60	0.584
680.78	0.584
680.97	0.586
681.16	0.585
681.35	0.584
681.53	0.584
681.72	0.585
681.91	0.587
682.10	0.585
682.29	0.588
682.47	0.586
682.66	0.586
682.85	0.584
683.04	0.582
683.22	0.583
683.41	0.584
683.60	0.583
683.79	0.584
683.97	0.584
684.16	0.582
684.35	0.578
684.54	0.580
684.72	0.580
684.91	0.581
685.10	0.579
685.29	0.580
685.47	0.577
685.66	0.576
685.85	0.572
686.04	0.571
686.22	0.574
686.41	0.577
686.60	0.574
686.79	0.576
686.97	0.577
687.16	0.579
687.35	0.576
687.54	0.579
687.72	0.584
687.91	0.584
688.10	0.586
688.29	0.585
688.47	0.583
688.66	0.583
688.85	0.579
689.03	0.576
689.22	0.581
689.41	0.581
689.60	0.577
689.78	0.574
689.97	0.574
690.16	0.571
690.34	0.567
690.53	0.567
690.72	0.567
690.91	0.565
691.09	0.563
691.28	0.557
691.47	0.555
691.65	0.554
691.84	0.551
692.03	0.550
692.21	0.549
692.40	0.549
692.59	0.546
692.77	0.545
692.96	0.546
693.15	0.547
693.34	0.545
693.52	0.545
693.71	0.546
693.90	0.547
694.08	0.547
694.27	0.548
694.46	0.558
694.64	0.558
694.83	0.558
695.02	0.557
695.20	0.557
695.39	0.557
695.58	0.557
695.76	0.558
695.95	0.558
696.14	0.557
696.32	0.554
696.51	0.545
696.70	0.545
696.88	0.546
697.07	0.545
697.26	0.546
697.44	0.547
697.63	0.546
697.81	0.543
698.00	0.542
698.19	0.542
698.37	0.542
698.56	0.541
698.75	0.540
698.93	0.540
699.12	0.540
699.31	0.538
699.49	0.537
699.68	0.538
699.87	0.541
700.05	0.541
700.24	0.540
700.42	0.542
700.61	0.542
700.80	0.540
700.98	0.540
701.17	0.542
701.36	0.541
701.54	0.540
701.73	0.541
701.91	0.538
702.10	0.538
702.29	0.536
702.47	0.535
702.66	0.537
702.84	0.538
703.03	0.537
703.22	0.538
703.40	0.538
703.59	0.539
703.77	0.539
703.96	0.539
704.15	0.540
704.33	0.540
704.52	0.539
704.70	0.538
704.89	0.537
705.08	0.535
705.26	0.531
705.45	0.531
705.63	0.531
705.82	0.528
706.00	0.526
706.19	0.525
706.38	0.525
706.56	0.525
706.75	0.523
706.93	0.522
707.12	0.524
707.30	0.525
707.49	0.522
707.68	0.520
707.86	0.520
708.05	0.520
708.23	0.518
708.42	0.519
708.60	0.521
708.79	0.522
708.98	0.520
709.16	0.519
709.35	0.521
709.53	0.526
709.72	0.525
709.90	0.527
710.09	0.529
710.27	0.531
710.46	0.534
710.64	0.533
710.83	0.534
711.02	0.536
711.20	0.534
711.39	0.532
711.57	0.530
711.76	0.530
711.94	0.528
712.13	0.529
712.31	0.528
712.50	0.523
712.68	0.521
712.87	0.521
713.05	0.522
713.24	0.523
713.42	0.522
713.61	0.523
713.79	0.524
713.98	0.524
714.16	0.525
714.35	0.524
714.54	0.526
714.72	0.526
714.91	0.524
715.09	0.530
715.28	0.532
715.46	0.532
715.65	0.530
715.83	0.529
716.02	0.532
716.20	0.529
716.39	0.528
716.57	0.530
716.76	0.532
716.94	0.533
717.12	0.526
717.31	0.527
717.49	0.531
717.68	0.532
717.86	0.531
718.05	0.534
718.23	0.537
718.42	0.539
718.60	0.540
718.79	0.547
718.97	0.550
719.16	0.550
719.34	0.547
719.53	0.547
719.71	0.547
719.90	0.549
720.08	0.545
720.27	0.545
720.45	0.545
720.63	0.543
720.82	0.536
721.00	0.539
721.19	0.543
721.37	0.542
721.56	0.543
721.74	0.546
721.93	0.555
722.11	0.563
722.30	0.562
722.48	0.567
722.66	0.568
722.85	0.569
723.03	0.569
723.22	0.567
723.40	0.571
723.59	0.570
723.77	0.573
723.95	0.567
724.14	0.567
724.32	0.569
724.51	0.568
724.69	0.569
724.88	0.569
725.06	0.568
725.24	0.569
725.43	0.570
725.61	0.574
725.80	0.567
725.98	0.565
726.16	0.562
726.35	0.569
726.53	0.568
726.72	0.568
726.90	0.577
727.09	0.579
727.27	0.585
727.45	0.581
727.64	0.591
727.82	0.601
728.01	0.605
728.19	0.603
728.37	0.608
728.56	0.613
728.74	0.619
728.92	0.607
729.11	0.609
729.29	0.607
729.48	0.610
729.66	0.597
729.84	0.596
730.03	0.601
730.21	0.602
730.40	0.591
730.58	0.592
730.76	0.593
730.95	0.595
731.13	0.595
731.31	0.610
731.50	0.619
731.68	0.623
731.86	0.619
732.05	0.632
732.23	0.637
732.42	0.640
732.60	0.642
732.78	0.646
732.97	0.666
733.15	0.674
733.33	0.661
733.52	0.669
733.70	0.681
733.88	0.692
734.07	0.676
734.25	0.705
734.43	0.716
734.62	0.721
734.80	0.716
734.98	0.708
735.17	0.714
735.35	0.720
735.53	0.707
735.72	0.713
735.90	0.737
736.08	0.758
736.27	0.733
736.45	0.743
736.63	0.758
736.82	0.769
737.00	0.767
737.18	0.781
737.37	0.817
737.55	0.845
737.73	0.838
737.92	0.843
738.10	0.845
738.28	0.868
738.46	0.854
738.65	0.869
738.83	0.894
739.01	0.956
739.20	0.941
739.38	0.922
739.56	0.912
739.75	0.915
739.93	0.871
740.11	0.897
740.29	0.898
740.48	0.902
740.66	0.880
740.84	0.874
741.03	0.836
741.21	0.851
741.39	0.831
741.57	0.842
741.76	0.860
741.94	0.869
742.12	0.827
742.31	0.834
742.49	0.860
742.67	0.881
742.85	0.895
743.04	0.902
743.22	0.911
743.40	0.973
743.58	0.958
743.77	0.979
743.95	1.028
744.13	1.092
744.31	1.063
744.50	1.057
744.68	1.063
744.86	1.030
745.04	1.038
745.23	1.107
745.41	1.085
745.59	1.091
745.77	1.050
745.96	1.031
746.14	1.044
746.32	1.048
746.50	1.035
746.69	1.015
746.87	1.031
747.05	1.020
747.23	0.940
747.42	0.925
747.60	0.954
747.78	0.957
747.96	0.997
748.14	0.940
748.33	0.972
748.51	0.966
748.69	0.956
748.87	0.987
749.06	0.982
749.24	0.978
749.42	0.962
749.60	0.940
749.78	0.954
749.97	0.897
750.15	0.890
750.33	0.887
750.51	0.918
750.69	0.925
750.88	0.930
751.06	0.942
751.24	0.976
751.42	0.963
751.60	0.951
751.79	1.035
751.97	1.100
752.15	1.099
752.33	1.065
752.51	1.136
752.69	1.162
752.88	1.119
753.06	1.177
753.24	1.145
753.42	1.201
753.60	1.453
753.78	1.226
753.97	1.243
754.15	1.277
754.33	1.315
754.51	1.150
754.69	1.122
754.87	1.159
755.06	1.065
755.24	1.055
755.42	1.063
755.60	0.950
755.78	0.960
755.96	0.895
756.15	0.894
756.33	0.900
756.51	0.918
756.69	0.902
756.87	0.866
757.05	0.886
757.23	0.873
757.42	0.834
757.60	0.834
757.78	0.820
757.96	0.820
758.14	0.801
758.32	0.784
758.50	0.799
758.69	0.797
758.87	0.785
759.05	0.791
759.23	0.802
759.41	0.801
759.59	0.791
759.77	0.817
759.95	0.846
760.13	0.901
760.32	0.901
760.50	0.898
760.68	0.929
760.86	0.936
761.04	0.903
761.22	0.909
761.40	0.969
761.58	0.975
761.76	0.940
761.95	0.916
762.13	0.867
762.31	0.867
762.49	0.833
762.67	0.851
762.85	0.865
763.03	0.857
763.21	0.832
763.39	0.810
763.57	0.813
763.75	0.807
763.94	0.792
764.12	0.792
764.30	0.818
764.48	0.820
764.66	0.780
764.84	0.777
765.02	0.821
765.20	0.834
765.38	0.811
765.56	0.816
765.74	0.860
765.92	0.863
766.10	0.873
766.28	0.866
766.46	0.897
766.65	0.896
766.83	0.882
767.01	0.862
767.19	0.868
767.37	0.867
767.55	0.853
767.73	0.832
767.91	0.835
768.09	0.817
768.27	0.802
768.45	0.794
768.63	0.799
768.81	0.801
768.99	0.774
769.17	0.797
769.35	0.814
769.53	0.812
769.71	0.792
769.89	0.801
770.07	0.809
770.25	0.792
770.43	0.768
770.61	0.795
770.79	0.800
770.97	0.810
771.15	0.777
771.33	0.782
771.51	0.785
771.69	0.795
771.87	0.802
772.05	0.809
772.24	0.819
772.42	0.826
772.60	0.803
772.78	0.870
772.96	0.902
773.14	0.900
773.32	0.873
773.49	0.879
773.67	0.879
773.85	0.856
774.03	0.841
774.21	0.877
774.39	0.894
774.57	0.920
774.75	0.838
774.93	0.831
775.11	0.854
775.29	0.862
775.47	0.862
775.65	0.871
775.83	0.890
776.01	0.915
776.19	0.860
776.37	0.863
776.55	0.859
776.73	0.854
776.91	0.850
777.09	0.832
777.27	0.832
777.45	0.818
777.63	0.791
777.81	0.789
777.99	0.776
778.17	0.774
778.35	0.749
778.53	0.741
778.71	0.748
778.89	0.734
779.07	0.722
779.24	0.726
779.42	0.729
779.60	0.752
779.78	0.748
779.96	0.754
780.14	0.765
780.32	0.789
780.50	0.769
780.68	0.768
780.86	0.761
781.04	0.779
781.22	0.780
781.40	0.793
781.58	0.783
781.75	0.773
781.93	0.755
782.11	0.754
782.29	0.739
782.47	0.739
782.65	0.724
782.83	0.751
783.01	0.746
783.19	0.741
783.37	0.722
783.55	0.725
783.72	0.745
783.90	0.757
784.08	0.751
784.26	0.762
784.44	0.783
784.62	0.789
784.80	0.755
784.98	0.761
785.16	0.768
785.33	0.786
785.51	0.769
785.69	0.754
785.87	0.750
786.05	0.760
786.23	0.755
786.41	0.754
786.59	0.761
786.77	0.759
786.94	0.746
787.12	0.748
787.30	0.749
787.48	0.746
787.66	0.734
787.84	0.736
788.02	0.724
788.19	0.720
788.37	0.703
788.55	0.704
788.73	0.705
788.91	0.699
789.09	0.681
789.27	0.671
789.44	0.684
789.62	0.690
789.80	0.699
789.98	0.725
790.16	0.714
790.34	0.711
790.51	0.698
790.69	0.719
790.87	0.728
791.05	0.725
791.23	0.718
791.41	0.718
791.58	0.725
791.76	0.703
791.94	0.672
792.12	0.680
792.30	0.683
792.48	0.681
792.65	0.674
792.83	0.681
793.01	0.689
793.19	0.687
793.37	0.672
793.54	0.669
793.72	0.681
793.90	0.679
794.08	0.668
794.26	0.668
794.43	0.678
794.61	0.661
794.79	0.648
794.97	0.647
795.15	0.652
795.32	0.655
795.50	0.645
795.68	0.641
795.86	0.645
796.04	0.647
796.21	0.642
796.39	0.638
796.57	0.652
796.75	0.660
796.92	0.661
797.10	0.664
797.28	0.668
797.46	0.671
797.64	0.671
797.81	0.679
797.99	0.684
798.17	0.686
798.35	0.682
798.52	0.685
798.70	0.682
798.88	0.691
799.06	0.690
799.23	0.692
799.41	0.700
799.59	0.692
799.77	0.680
799.94	0.689
800.12	0.703
800.30	0.719
800.48	0.717
800.65	0.717
800.83	0.708
801.01	0.699
801.19	0.699
801.36	0.694
801.54	0.698
801.72	0.708
801.90	0.694
802.07	0.686
802.25	0.671
802.43	0.654
802.60	0.649
802.78	0.657
802.96	0.663
803.14	0.658
803.31	0.656
803.49	0.656
803.67	0.653
803.84	0.657
804.02	0.648
804.20	0.652
804.38	0.657
804.55	0.655
804.73	0.641
804.91	0.641
805.08	0.654
805.26	0.649
805.44	0.718
805.61	0.721
805.79	0.722
805.97	0.722
806.15	0.713
806.32	0.710
806.50	0.719
806.68	0.716
806.85	0.705
807.03	0.696
807.21	0.716
807.38	0.643
807.56	0.631
807.74	0.641
807.91	0.647
808.09	0.650
808.27	0.669
808.44	0.694
808.62	0.706
808.80	0.708
808.97	0.701
809.15	0.695
809.33	0.716
809.50	0.725
809.68	0.709
809.86	0.718
810.03	0.752
810.21	0.730
810.39	0.712
810.56	0.718
810.74	0.743
810.91	0.822
811.09	0.810
811.27	0.831
811.44	0.843
811.62	0.844
811.80	0.822
811.97	0.788
812.15	0.787
812.33	0.779
812.50	0.764
812.68	0.752
812.85	0.694
813.03	0.696
813.21	0.663
813.38	0.653
813.56	0.658
813.74	0.671
813.91	0.679
814.09	0.713
814.26	0.709
814.44	0.713
814.62	0.702
814.79	0.705
814.97	0.710
815.14	0.712
815.32	0.716
815.50	0.733
815.67	0.738
815.85	0.729
816.02	0.716
816.20	0.721
816.38	0.738
816.55	0.745
816.73	0.742
816.90	0.756
817.08	0.790
817.26	0.797
817.43	0.776
817.61	0.804
817.78	0.824
817.96	0.798
818.13	0.789
818.31	0.788
818.49	0.800
818.66	0.791
818.84	0.770
819.01	0.751
819.19	0.758
819.36	0.758
819.54	0.724
819.71	0.773
819.89	0.790
820.07	0.806
820.24	0.799
820.42	0.802
820.59	0.826
820.77	0.854
820.94	0.841
821.12	0.860
821.29	0.880
821.47	0.883
821.64	0.808
821.82	0.824
822.00	0.819
822.17	0.814
822.35	0.806
822.52	0.808
822.70	0.797
822.87	0.813
823.05	0.793
823.22	0.809
823.40	0.839
823.57	0.865
823.75	0.840
823.92	0.870
824.10	0.900
824.27	0.953
824.45	0.941
824.62	1.015
824.80	1.031
824.97	1.046
825.15	1.028
825.32	1.053
825.50	1.054
825.67	1.067
825.85	1.044
826.02	1.067
826.20	1.104
826.37	1.283
826.55	1.175
826.72	1.507
826.90	1.706
827.07	1.880
827.25	1.677
827.42	2.977
827.60	-0.000
827.77	-0.000
827.95	-0.000
828.12	-0.000
828.30	-0.000
828.47	-0.000
828.65	1.760
828.82	2.003
829.00	-0.000
829.17	-0.000
829.34	-0.000
829.52	-0.000
829.69	-0.000
829.87	-0.000
830.04	-0.000
830.22	-0.000
830.39	-0.000
830.57	-0.000
830.74	-0.000
830.92	-0.000
831.09	-0.000
831.26	-0.000
831.44	-0.000
831.61	-0.000
831.79	-0.000
831.96	-0.000
832.14	-0.000
832.31	-0.000
832.49	-0.000
832.66	-0.000
832.83	-0.000
833.01	-0.000
833.18	-0.000
833.36	-0.000
833.53	-0.000
833.70	-0.000
833.88	-0.000
834.05	-0.000
834.23	-0.000
834.40	-0.000
834.58	-0.000
834.75	-0.000
834.92	-0.000
835.10	-0.000
835.27	-0.000
835.45	-0.000
835.62	-0.000
835.79	-0.000
835.97	-0.000
836.14	-0.000
836.32	-0.000
836.49	-0.000
836.66	-0.000
836.84	-0.000
837.01	-0.000
837.18	-0.000
837.36	-0.000
837.53	-0.000
837.71	-0.000
837.88	-0.000
838.05	-0.000
838.23	-0.000
838.40	-0.000
838.58	-0.000
838.75	-0.000
838.92	-0.000
839.10	-0.000
839.27	-0.000
839.44	-0.000
839.62	-0.000
839.79	-0.000
839.96	-0.000
840.14	-0.000
840.31	-0.000
840.48	-0.000
840.66	-0.000
840.83	-0.000
841.01	-0.000
841.18	-0.000
841.35	-0.000
841.53	-0.000
841.70	-0.000
841.87	-0.000
842.05	-0.000
842.22	-0.000
842.39	-0.000
842.57	-0.000
842.74	-0.000
842.91	-0.000
843.09	-0.000
843.26	-0.000
843.43	-0.000
843.60	-0.000
843.78	-0.000
843.95	-0.000
844.12	-0.000
844.30	-0.000
844.47	-0.000
844.64	-0.000
844.82	-0.000
844.99	-0.000
845.16	-0.000
845.34	-0.000
845.51	-0.000
845.68	-0.000
845.85	-0.000
846.03	-0.000
846.20	-0.000
846.37	-0.000
846.55	-0.000
846.72	-0.000
846.89	-0.000
847.06	-0.000
847.24	-0.000
847.41	-0.000
847.58	-0.000
847.76	-0.000
847.93	-0.000
848.10	-0.000
848.27	-0.000
848.45	-0.000
848.62	-0.000
848.79	-0.000
848.97	-0.000
849.14	-0.000
849.31	-0.000
849.48	-0.000
849.66	-0.000
849.83	-0.000
850.00	-0.000
850.17	-0.000
850.35	-0.000
850.52	-0.000
850.69	-0.000
850.86	-0.000
851.04	-0.000
851.21	-0.000
851.38	-0.000
851.55	-0.000
851.72	-0.000
851.90	-0.000
852.07	-0.000
852.24	-0.000
852.41	-0.000
852.59	-0.000
852.76	-0.000
852.93	-0.000
853.10	-0.000
853.28	-0.000
853.45	-0.000
853.62	-0.000
853.79	-0.000
853.96	-0.000
854.14	-0.000
854.31	-0.000
854.48	-0.000
854.65	-0.000
854.82	-0.000
855.00	-0.000
855.17	-0.000
855.34	-0.000
855.51	-0.000
855.68	-0.000
855.86	-0.000
856.03	-0.000
856.20	-0.000
856.37	-0.000
856.54	-0.000
856.72	-0.000
856.89	-0.000
857.06	-0.000
857.23	-0.000
857.40	-0.000
857.57	-0.000
857.75	-0.000
857.92	-0.000
858.09	-0.000
858.26	-0.000
858.43	-0.000
858.60	-0.000
858.78	-0.000
858.95	-0.000
859.12	-0.000
859.29	-0.000
859.46	-0.000
859.63	-0.000
859.81	-0.000
859.98	-0.000
860.15	-0.000
860.32	-0.000
860.49	-0.000
860.66	-0.000
860.83	-0.000
861.01	-0.000
861.18	-0.000
861.35	-0.000
861.52	-0.000
861.69	-0.000
861.86	-0.000
862.03	-0.000
862.21	-0.000
862.38	-0.000
862.55	-0.000
862.72	-0.000
862.89	-0.000
863.06	-0.000
863.23	-0.000
863.40	-0.000
863.58	-0.000
863.75	-0.000
863.92	-0.000
864.09	-0.000
864.26	-0.000
864.43	-0.000
864.60	-0.000
864.77	-0.000
864.94	-0.000
865.11	-0.000
865.29	-0.000
865.46	-0.000
865.63	-0.000
865.80	-0.000
865.97	-0.000
866.14	-0.000
866.31	-0.000
866.48	-0.000
866.65	-0.000
866.82	-0.000
866.99	-0.000
867.16	-0.000
867.34	-0.000
867.51	-0.000
867.68	-0.000
867.85	-0.000
868.02	-0.000
868.19	-0.000
868.36	-0.000
868.53	-0.000
868.70	-0.000
868.87	-0.000
869.04	-0.000
869.21	-0.000
869.38	-0.000
869.55	-0.000
869.72	-0.000
869.89	-0.000
870.06	-0.000
870.24	-0.000
870.41	-0.000
870.58	-0.000
870.75	-0.000
870.92	-0.000
871.09	-0.000
871.26	-0.000
871.43	-0.000
871.60	-0.000
871.77	-0.000
871.94	-0.000
872.11	-0.000
872.28	-0.000
872.45	-0.000
872.62	-0.000
872.79	-0.000
872.96	-0.000
873.13	-0.000
873.30	-0.000
873.47	-0.000
873.64	-0.000
873.81	-0.000
873.98	-0.000
874.15	-0.000
874.32	-0.000
874.49	-0.000
874.66	-0.000
874.83	-0.000
875.00	-0.000
875.17	-0.000
875.34	-0.000
875.51	-0.000
875.68	-0.000
875.85	-0.000
876.02	-0.000
876.19	-0.000
876.36	-0.000
876.53	-0.000
876.70	-0.000
876.87	-0.000
877.04	-0.000
877.21	-0.000
877.38	-0.000
877.55	-0.000
877.72	-0.000
877.89	-0.000
878.06	-0.000
878.23	-0.000
878.39	-0.000
878.56	-0.000
878.73	-0.000
878.90	-0.000
879.07	-0.000
879.24	-0.000
879.41	-0.000
879.58	-0.000
879.75	-0.000
879.92	-0.000
880.09	-0.000
880.26	-0.000
880.43	-0.000
880.60	-0.000
880.77	-0.000
880.94	-0.000
881.11	-0.000
881.27	-0.000
881.44	-0.000
881.61	-0.000
881.78	-0.000
881.95	-0.000
882.12	-0.000
882.29	-0.000
882.46	-0.000
882.63	-0.000
882.80	-0.000
882.97	-0.000
883.14	-0.000
883.30	-0.000
883.47	-0.000
883.64	-0.000
883.81	-0.000
883.98	-0.000
884.15	-0.000
884.32	-0.000
884.49	-0.000
884.66	-0.000
884.82	-0.000
884.99	-0.000
885.16	-0.000
885.33	-0.000
885.50	-0.000
885.67	-0.000
885.84	-0.000
886.01	-0.000
886.17	-0.000
886.34	-0.000
886.51	-0.000
886.68	-0.000
886.85	-0.000
887.02	-0.000
887.19	-0.000
887.36	-0.000
887.52	-0.000
887.69	-0.000
887.86	-0.000
888.03	-0.000
888.20	-0.000
888.37	-0.000
888.54	-0.000
888.70	-0.000
888.87	-0.000
889.04	-0.000
889.21	-0.000
889.38	-0.000
889.55	-0.000
889.71	-0.000
889.88	-0.000
890.05	-0.000
890.22	-0.000
890.39	-0.000
>>>>>End Processed Spectral Data<<<<<
