SpectraSuite Data File
++++++++++++++++++++++++++++++++++++
Date: Fri Jun 19 15:12:28 CEST 2015
User: introlabs
Dark Spectrum Present: Yes
Reference Spectrum Present: Yes
Number of Sampled Component Spectra: 1
Spectrometers: USB4H08886
Integration Time (usec): 745692 (USB4H08886)
Spectra Averaged: 5 (USB4H08886)
Boxcar Smoothing: 5 (USB4H08886)
Correct for Electrical Dark: Yes (USB4H08886)
Strobe/Lamp Enabled: No (USB4H08886)
Correct for Detector Non-linearity: Yes (USB4H08886)
Correct for Stray Light: Yes (USB4H08886)
Number of Pixels in Processed Spectrum: 3648
>>>>>Begin Processed Spectral Data<<<<<
178.14	-0.000
178.36	-0.000
178.57	-0.000
178.79	-0.000
179.01	-0.000
179.22	-0.000
179.44	-0.000
179.65	-0.000
179.87	-0.000
180.08	-0.000
180.30	-0.000
180.52	-0.000
180.73	-0.000
180.95	-0.000
181.16	-0.000
181.38	-0.000
181.59	-0.000
181.81	-0.000
182.03	-0.000
182.24	-0.000
182.46	-0.000
182.67	-0.000
182.89	-0.000
183.10	-0.000
183.32	-0.000
183.54	-0.000
183.75	-0.000
183.97	-0.000
184.18	-0.000
184.40	-0.000
184.61	-0.000
184.83	-0.000
185.04	-0.000
185.26	-0.000
185.48	-0.000
185.69	-0.000
185.91	-0.000
186.12	-0.000
186.34	-0.000
186.55	-0.000
186.77	-0.000
186.98	-0.000
187.20	-0.000
187.42	-0.000
187.63	-0.000
187.85	-0.000
188.06	-0.000
188.28	-0.000
188.49	-0.000
188.71	-0.000
188.92	-0.000
189.14	-0.000
189.36	-0.000
189.57	-0.000
189.79	-0.000
190.00	-0.000
190.22	-0.000
190.43	-0.000
190.65	-0.000
190.86	-0.000
191.08	-0.000
191.29	-0.000
191.51	-0.000
191.72	-0.000
191.94	-0.000
192.16	-0.000
192.37	-0.000
192.59	-0.000
192.80	-0.000
193.02	-0.000
193.23	-0.000
193.45	-0.000
193.66	-0.000
193.88	-0.000
194.09	-0.000
194.31	-0.000
194.52	-0.000
194.74	-0.000
194.95	-0.000
195.17	-0.000
195.38	-0.000
195.60	-0.000
195.81	-0.000
196.03	-0.000
196.25	-0.000
196.46	-0.000
196.68	-0.000
196.89	-0.000
197.11	-0.000
197.32	-0.000
197.54	-0.000
197.75	-0.000
197.97	-0.000
198.18	-0.000
198.40	-0.000
198.61	-0.000
198.83	-0.000
199.04	-0.000
199.26	-0.000
199.47	-0.000
199.69	-0.000
199.90	-0.000
200.12	-0.000
200.33	-0.000
200.55	-0.000
200.76	-0.000
200.98	-0.000
201.19	-0.000
201.41	-0.000
201.62	-0.000
201.84	-0.000
202.05	-0.000
202.27	-0.000
202.48	-0.000
202.70	-0.000
202.91	-0.000
203.13	-0.000
203.34	-0.000
203.56	-0.000
203.77	-0.000
203.99	-0.000
204.20	-0.000
204.42	-0.000
204.63	-0.000
204.85	-0.000
205.06	-0.000
205.28	-0.000
205.49	-0.000
205.71	-0.000
205.92	-0.000
206.14	-0.000
206.35	-0.000
206.56	-0.000
206.78	-0.000
206.99	-0.000
207.21	-0.000
207.42	-0.000
207.64	-0.000
207.85	-0.000
208.07	-0.000
208.28	-0.000
208.50	-0.000
208.71	-0.000
208.93	-0.000
209.14	-0.000
209.36	-0.000
209.57	-0.000
209.79	-0.000
210.00	-0.000
210.22	-0.000
210.43	-0.000
210.64	-0.000
210.86	-0.000
211.07	-0.000
211.29	-0.000
211.50	-0.000
211.72	-0.000
211.93	-0.000
212.15	-0.000
212.36	-0.000
212.58	-0.000
212.79	-0.000
213.01	-0.000
213.22	-0.000
213.43	-0.000
213.65	-0.000
213.86	-0.000
214.08	-0.000
214.29	-0.000
214.51	-0.000
214.72	-0.000
214.94	-0.000
215.15	-0.000
215.36	-0.000
215.58	-0.000
215.79	-0.000
216.01	-0.000
216.22	-0.000
216.44	-0.000
216.65	-0.000
216.87	-0.000
217.08	-0.000
217.29	-0.000
217.51	-0.000
217.72	-0.000
217.94	-0.000
218.15	-0.000
218.37	-0.000
218.58	-0.000
218.80	-0.000
219.01	-0.000
219.22	-0.000
219.44	-0.000
219.65	-0.000
219.87	-0.000
220.08	-0.000
220.30	-0.000
220.51	-0.000
220.72	-0.000
220.94	-0.000
221.15	-0.000
221.37	-0.000
221.58	-0.000
221.79	-0.000
222.01	-0.000
222.22	-0.000
222.44	-0.000
222.65	-0.000
222.87	-0.000
223.08	-0.000
223.29	-0.000
223.51	-0.000
223.72	-0.000
223.94	-0.000
224.15	-0.000
224.36	-0.000
224.58	-0.000
224.79	-0.000
225.01	-0.000
225.22	-0.000
225.44	-0.000
225.65	-0.000
225.86	-0.000
226.08	-0.000
226.29	-0.000
226.51	-0.000
226.72	-0.000
226.93	-0.000
227.15	-0.000
227.36	-0.000
227.58	-0.000
227.79	-0.000
228.00	-0.000
228.22	-0.000
228.43	-0.000
228.65	-0.000
228.86	-0.000
229.07	-0.000
229.29	-0.000
229.50	-0.000
229.72	-0.000
229.93	-0.000
230.14	-0.000
230.36	-0.000
230.57	-0.000
230.78	-0.000
231.00	-0.000
231.21	-0.000
231.43	-0.000
231.64	-0.000
231.85	-0.000
232.07	-0.000
232.28	-0.000
232.50	-0.000
232.71	-0.000
232.92	-0.000
233.14	-0.000
233.35	-0.000
233.56	-0.000
233.78	-0.000
233.99	-0.000
234.21	-0.000
234.42	-0.000
234.63	-0.000
234.85	-0.000
235.06	-0.000
235.27	-0.000
235.49	-0.000
235.70	-0.000
235.91	-0.000
236.13	-0.000
236.34	-0.000
236.56	-0.000
236.77	-0.000
236.98	-0.000
237.20	-0.000
237.41	-0.000
237.62	-0.000
237.84	-0.000
238.05	-0.000
238.26	-0.000
238.48	-0.000
238.69	-0.000
238.91	-0.000
239.12	-0.000
239.33	-0.000
239.55	-0.000
239.76	-0.000
239.97	-0.000
240.19	-0.000
240.40	-0.000
240.61	-0.000
240.83	-0.000
241.04	-0.000
241.25	-0.000
241.47	-0.000
241.68	-0.000
241.89	-0.000
242.11	-0.000
242.32	-0.000
242.53	-0.000
242.75	-0.000
242.96	-0.000
243.17	-0.000
243.39	-0.000
243.60	-0.000
243.81	-0.000
244.03	-0.000
244.24	-0.000
244.45	-0.000
244.67	-0.000
244.88	-0.000
245.09	-0.000
245.31	-0.000
245.52	-0.000
245.73	-0.000
245.95	-0.000
246.16	-0.000
246.37	-0.000
246.59	-0.000
246.80	-0.000
247.01	-0.000
247.23	-0.000
247.44	-0.000
247.65	-0.000
247.87	-0.000
248.08	-0.000
248.29	-0.000
248.51	-0.000
248.72	-0.000
248.93	-0.000
249.15	-0.000
249.36	-0.000
249.57	-0.000
249.78	-0.000
250.00	-0.000
250.21	-0.000
250.42	-0.000
250.64	-0.000
250.85	-0.000
251.06	-0.000
251.28	-0.000
251.49	-0.000
251.70	-0.000
251.92	-0.000
252.13	-0.000
252.34	-0.000
252.55	-0.000
252.77	-0.000
252.98	-0.000
253.19	-0.000
253.41	-0.000
253.62	-0.000
253.83	-0.000
254.05	-0.000
254.26	-0.000
254.47	-0.000
254.68	-0.000
254.90	-0.000
255.11	-0.000
255.32	-0.000
255.54	-0.000
255.75	-0.000
255.96	-0.000
256.17	-0.000
256.39	-0.000
256.60	-0.000
256.81	-0.000
257.03	-0.000
257.24	-0.000
257.45	-0.000
257.66	-0.000
257.88	-0.000
258.09	-0.000
258.30	-0.000
258.51	-0.000
258.73	-0.000
258.94	-0.000
259.15	-0.000
259.37	-0.000
259.58	-0.000
259.79	-0.000
260.00	-0.000
260.22	-0.000
260.43	-0.000
260.64	-0.000
260.85	-0.000
261.07	-0.000
261.28	-0.000
261.49	-0.000
261.71	-0.000
261.92	-0.000
262.13	-0.000
262.34	-0.000
262.56	-0.000
262.77	-0.000
262.98	-0.000
263.19	-0.000
263.41	-0.000
263.62	-0.000
263.83	-0.000
264.04	-0.000
264.26	-0.000
264.47	-0.000
264.68	-0.000
264.89	-0.000
265.11	-0.000
265.32	-0.000
265.53	-0.000
265.74	-0.000
265.96	-0.000
266.17	-0.000
266.38	-0.000
266.59	-0.000
266.81	-0.000
267.02	-0.000
267.23	-0.000
267.44	-0.000
267.65	-0.000
267.87	-0.000
268.08	-0.000
268.29	-0.000
268.50	-0.000
268.72	-0.000
268.93	-0.000
269.14	-0.000
269.35	-0.000
269.57	-0.000
269.78	-0.000
269.99	-0.000
270.20	-0.000
270.41	-0.000
270.63	-0.000
270.84	-0.000
271.05	-0.000
271.26	-0.000
271.48	-0.000
271.69	-0.000
271.90	-0.000
272.11	-0.000
272.32	-0.000
272.54	-0.000
272.75	-0.000
272.96	-0.000
273.17	-0.000
273.39	-0.000
273.60	-0.000
273.81	-0.000
274.02	-0.000
274.23	-0.000
274.45	-0.000
274.66	-0.000
274.87	-0.000
275.08	-0.000
275.29	-0.000
275.51	-0.000
275.72	-0.000
275.93	-0.000
276.14	-0.000
276.35	-0.000
276.57	-0.000
276.78	-0.000
276.99	-0.000
277.20	-0.000
277.41	-0.000
277.63	-0.000
277.84	-0.000
278.05	-0.000
278.26	-0.000
278.47	-0.000
278.69	-0.000
278.90	-0.000
279.11	-0.000
279.32	-0.000
279.53	-0.000
279.74	-0.000
279.96	-0.000
280.17	-0.000
280.38	-0.000
280.59	-0.000
280.80	-0.000
281.02	-0.000
281.23	-0.000
281.44	-0.000
281.65	-0.000
281.86	-0.000
282.07	-0.000
282.29	-0.000
282.50	-0.000
282.71	-0.000
282.92	-0.000
283.13	-0.000
283.35	-0.000
283.56	-0.000
283.77	-0.000
283.98	-0.000
284.19	-0.000
284.40	-0.000
284.62	-0.000
284.83	-0.000
285.04	-0.000
285.25	-0.000
285.46	-0.000
285.67	-0.000
285.88	-0.000
286.10	-0.000
286.31	-0.000
286.52	-0.000
286.73	-0.000
286.94	-0.000
287.15	-0.000
287.37	-0.000
287.58	-0.000
287.79	-0.000
288.00	-0.000
288.21	-0.000
288.42	-0.000
288.63	-0.000
288.85	-0.000
289.06	-0.000
289.27	-0.000
289.48	-0.000
289.69	-0.000
289.90	-0.000
290.11	-0.000
290.33	-0.000
290.54	-0.000
290.75	-0.000
290.96	-0.000
291.17	-0.000
291.38	-0.000
291.59	-0.000
291.81	-0.000
292.02	-0.000
292.23	-0.000
292.44	-0.000
292.65	-0.000
292.86	-0.000
293.07	-0.000
293.28	-0.000
293.50	-0.000
293.71	-0.000
293.92	-0.000
294.13	-0.000
294.34	-0.000
294.55	-0.000
294.76	-0.000
294.97	-0.000
295.19	-0.000
295.40	-0.000
295.61	-0.000
295.82	-0.000
296.03	-0.000
296.24	-0.000
296.45	2.160
296.66	1.789
296.87	1.825
297.09	1.903
297.30	2.164
297.51	1.762
297.72	1.741
297.93	1.853
298.14	1.805
298.35	1.744
298.56	1.719
298.77	1.862
298.99	1.818
299.20	1.793
299.41	1.766
299.62	1.698
299.83	1.704
300.04	1.633
300.25	1.619
300.46	1.661
300.67	1.631
300.88	1.586
301.10	1.582
301.31	1.652
301.52	1.591
301.73	1.535
301.94	1.544
302.15	1.552
302.36	1.504
302.57	1.444
302.78	1.448
302.99	1.490
303.20	1.509
303.41	1.421
303.63	1.408
303.84	1.408
304.05	1.406
304.26	1.347
304.47	1.349
304.68	1.346
304.89	1.338
305.10	1.302
305.31	1.286
305.52	1.326
305.73	1.322
305.94	1.284
306.15	1.275
306.37	1.298
306.58	1.304
306.79	1.278
307.00	1.302
307.21	1.338
307.42	1.329
307.63	1.296
307.84	1.261
308.05	1.297
308.26	1.293
308.47	1.273
308.68	1.263
308.89	1.263
309.10	1.263
309.31	1.225
309.52	1.214
309.73	1.232
309.95	1.229
310.16	1.202
310.37	1.190
310.58	1.209
310.79	1.208
311.00	1.210
311.21	1.210
311.42	1.209
311.63	1.203
311.84	1.190
312.05	1.186
312.26	1.209
312.47	1.220
312.68	1.198
312.89	1.181
313.10	1.186
313.31	1.158
313.52	1.160
313.73	1.161
313.94	1.164
314.15	1.146
314.36	1.125
314.57	1.116
314.78	1.103
314.99	1.096
315.21	1.086
315.42	1.091
315.63	1.104
315.84	1.082
316.05	1.069
316.26	1.076
316.47	1.094
316.68	1.088
316.89	1.069
317.10	1.090
317.31	1.095
317.52	1.097
317.73	1.076
317.94	1.073
318.15	1.115
318.36	1.113
318.57	1.098
318.78	1.088
318.99	1.123
319.20	1.121
319.41	1.086
319.62	1.087
319.83	1.098
320.04	1.094
320.25	1.084
320.46	1.051
320.67	1.052
320.88	1.046
321.09	1.031
321.30	1.017
321.51	1.030
321.72	1.029
321.93	1.013
322.14	1.006
322.35	1.033
322.56	1.033
322.77	1.021
322.98	1.034
323.19	1.042
323.40	1.048
323.61	1.029
323.82	1.024
324.03	1.031
324.24	1.028
324.45	1.016
324.66	0.997
324.87	0.993
325.08	0.992
325.29	0.973
325.50	0.965
325.71	0.970
325.92	0.977
326.13	0.965
326.34	0.963
326.55	0.969
326.76	0.966
326.97	0.957
327.18	0.950
327.39	0.976
327.60	0.976
327.80	0.978
328.01	0.977
328.22	0.977
328.43	0.979
328.64	0.970
328.85	0.975
329.06	0.978
329.27	0.975
329.48	0.972
329.69	0.952
329.90	0.961
330.11	0.956
330.32	0.947
330.53	0.940
330.74	0.938
330.95	0.936
331.16	0.922
331.37	0.929
331.58	0.929
331.79	0.929
332.00	0.921
332.21	0.916
332.42	0.918
332.63	0.910
332.83	0.906
333.04	0.911
333.25	0.925
333.46	0.922
333.67	0.909
333.88	0.912
334.09	0.922
334.30	0.919
334.51	0.910
334.72	0.906
334.93	0.909
335.14	0.910
335.35	0.900
335.56	0.895
335.77	0.903
335.98	0.902
336.18	0.897
336.39	0.889
336.60	0.893
336.81	0.891
337.02	0.892
337.23	0.896
337.44	0.897
337.65	0.899
337.86	0.888
338.07	0.884
338.28	0.888
338.49	0.885
338.70	0.879
338.91	0.884
339.11	0.890
339.32	0.886
339.53	0.875
339.74	0.873
339.95	0.870
340.16	0.868
340.37	0.860
340.58	0.860
340.79	0.863
341.00	0.863
341.21	0.854
341.41	0.855
341.62	0.857
341.83	0.857
342.04	0.852
342.25	0.864
342.46	0.869
342.67	0.867
342.88	0.860
343.09	0.859
343.30	0.866
343.50	0.869
343.71	0.859
343.92	0.857
344.13	0.861
344.34	0.859
344.55	0.842
344.76	0.841
344.97	0.845
345.18	0.844
345.38	0.841
345.59	0.836
345.80	0.835
346.01	0.833
346.22	0.829
346.43	0.823
346.64	0.830
346.85	0.830
347.06	0.824
347.26	0.823
347.47	0.827
347.68	0.822
347.89	0.819
348.10	0.814
348.31	0.819
348.52	0.818
348.73	0.816
348.93	0.815
349.14	0.816
349.35	0.814
349.56	0.810
349.77	0.805
349.98	0.810
350.19	0.808
350.39	0.804
350.60	0.800
350.81	0.815
351.02	0.814
351.23	0.809
351.44	0.814
351.65	0.816
351.86	0.814
352.06	0.813
352.27	0.813
352.48	0.813
352.69	0.812
352.90	0.807
353.11	0.792
353.31	0.798
353.52	0.795
353.73	0.787
353.94	0.787
354.15	0.793
354.36	0.793
354.57	0.784
354.77	0.788
354.98	0.787
355.19	0.787
355.40	0.787
355.61	0.793
355.82	0.797
356.02	0.796
356.23	0.790
356.44	0.792
356.65	0.794
356.86	0.795
357.07	0.788
357.27	0.791
357.48	0.794
357.69	0.790
357.90	0.775
358.11	0.771
358.32	0.775
358.52	0.778
358.73	0.768
358.94	0.770
359.15	0.774
359.36	0.774
359.56	0.769
359.77	0.766
359.98	0.772
360.19	0.772
360.40	0.769
360.61	0.769
360.81	0.767
361.02	0.768
361.23	0.760
361.44	0.758
361.65	0.759
361.85	0.759
362.06	0.757
362.27	0.759
362.48	0.760
362.69	0.761
362.89	0.755
363.10	0.756
363.31	0.760
363.52	0.763
363.73	0.759
363.93	0.759
364.14	0.760
364.35	0.762
364.56	0.752
364.77	0.752
364.97	0.754
365.18	0.755
365.39	0.750
365.60	0.747
365.81	0.749
366.01	0.748
366.22	0.745
366.43	0.745
366.64	0.747
366.84	0.753
367.05	0.751
367.26	0.750
367.47	0.752
367.68	0.751
367.88	0.749
368.09	0.746
368.30	0.748
368.51	0.748
368.71	0.748
368.92	0.752
369.13	0.749
369.34	0.749
369.55	0.749
369.75	0.749
369.96	0.757
370.17	0.756
370.38	0.754
370.58	0.753
370.79	0.758
371.00	0.755
371.21	0.747
371.41	0.752
371.62	0.757
371.83	0.752
372.04	0.749
372.24	0.742
372.45	0.744
372.66	0.743
372.87	0.741
373.07	0.738
373.28	0.739
373.49	0.744
373.70	0.734
373.90	0.732
374.11	0.741
374.32	0.741
374.53	0.741
374.73	0.740
374.94	0.742
375.15	0.742
375.36	0.740
375.56	0.747
375.77	0.746
375.98	0.747
376.19	0.744
376.39	0.738
376.60	0.741
376.81	0.741
377.02	0.740
377.22	0.739
377.43	0.739
377.64	0.739
377.84	0.730
378.05	0.736
378.26	0.741
378.47	0.740
378.67	0.737
378.88	0.736
379.09	0.735
379.30	0.735
379.50	0.733
379.71	0.734
379.92	0.737
380.12	0.737
380.33	0.729
380.54	0.724
380.75	0.731
380.95	0.731
381.16	0.729
381.37	0.730
381.57	0.731
381.78	0.732
381.99	0.732
382.20	0.731
382.40	0.734
382.61	0.734
382.82	0.732
383.02	0.725
383.23	0.728
383.44	0.728
383.64	0.727
383.85	0.730
384.06	0.733
384.27	0.730
384.47	0.729
384.68	0.729
384.89	0.735
385.09	0.733
385.30	0.733
385.51	0.732
385.71	0.736
385.92	0.735
386.13	0.734
386.33	0.736
386.54	0.737
386.75	0.736
386.95	0.732
387.16	0.727
387.37	0.730
387.58	0.731
387.78	0.729
387.99	0.726
388.20	0.728
388.40	0.726
388.61	0.722
388.82	0.725
389.02	0.728
389.23	0.729
389.44	0.729
389.64	0.729
389.85	0.740
390.06	0.740
390.26	0.740
390.47	0.739
390.68	0.742
390.88	0.740
391.09	0.736
391.30	0.734
391.50	0.734
391.71	0.733
391.92	0.731
392.12	0.723
392.33	0.723
392.53	0.723
392.74	0.723
392.95	0.722
393.15	0.724
393.36	0.726
393.57	0.725
393.77	0.728
393.98	0.730
394.19	0.729
394.39	0.729
394.60	0.731
394.81	0.733
395.01	0.732
395.22	0.730
395.43	0.731
395.63	0.735
395.84	0.736
396.04	0.732
396.25	0.734
396.46	0.735
396.66	0.734
396.87	0.732
397.08	0.729
397.28	0.731
397.49	0.732
397.69	0.729
397.90	0.724
398.11	0.725
398.31	0.726
398.52	0.723
398.73	0.725
398.93	0.724
399.14	0.723
399.34	0.722
399.55	0.723
399.76	0.723
399.96	0.723
400.17	0.722
400.37	0.720
400.58	0.727
400.79	0.728
400.99	0.726
401.20	0.732
401.41	0.734
401.61	0.734
401.82	0.740
402.02	0.739
402.23	0.741
402.44	0.741
402.64	0.741
402.85	0.736
403.05	0.734
403.26	0.733
403.47	0.727
403.67	0.726
403.88	0.727
404.08	0.721
404.29	0.720
404.50	0.720
404.70	0.719
404.91	0.718
405.11	0.715
405.32	0.716
405.52	0.716
405.73	0.717
405.94	0.715
406.14	0.718
406.35	0.719
406.55	0.719
406.76	0.716
406.97	0.717
407.17	0.720
407.38	0.720
407.58	0.718
407.79	0.720
407.99	0.722
408.20	0.723
408.41	0.719
408.61	0.718
408.82	0.719
409.02	0.719
409.23	0.717
409.43	0.716
409.64	0.717
409.84	0.718
410.05	0.715
410.26	0.714
410.46	0.713
410.67	0.712
410.87	0.713
411.08	0.715
411.28	0.716
411.49	0.718
411.69	0.715
411.90	0.716
412.11	0.717
412.31	0.718
412.52	0.716
412.72	0.717
412.93	0.718
413.13	0.716
413.34	0.713
413.54	0.715
413.75	0.716
413.95	0.716
414.16	0.713
414.37	0.715
414.57	0.716
414.78	0.719
414.98	0.717
415.19	0.718
415.39	0.716
415.60	0.719
415.80	0.718
416.01	0.716
416.21	0.717
416.42	0.717
416.62	0.712
416.83	0.712
417.03	0.711
417.24	0.711
417.44	0.709
417.65	0.707
417.86	0.707
418.06	0.705
418.27	0.703
418.47	0.705
418.68	0.706
418.88	0.706
419.09	0.705
419.29	0.706
419.50	0.706
419.70	0.707
419.91	0.706
420.11	0.704
420.32	0.706
420.52	0.705
420.73	0.705
420.93	0.705
421.14	0.707
421.34	0.705
421.55	0.702
421.75	0.702
421.96	0.703
422.16	0.703
422.37	0.702
422.57	0.699
422.78	0.701
422.98	0.697
423.19	0.695
423.39	0.693
423.60	0.696
423.80	0.698
424.01	0.696
424.21	0.698
424.42	0.699
424.62	0.699
424.83	0.699
425.03	0.699
425.23	0.700
425.44	0.701
425.64	0.701
425.85	0.700
426.05	0.701
426.26	0.702
426.46	0.698
426.67	0.698
426.87	0.703
427.08	0.703
427.28	0.701
427.49	0.702
427.69	0.703
427.90	0.701
428.10	0.699
428.31	0.699
428.51	0.701
428.71	0.700
428.92	0.701
429.12	0.698
429.33	0.699
429.53	0.703
429.74	0.708
429.94	0.708
430.15	0.707
430.35	0.707
430.56	0.704
430.76	0.702
430.96	0.703
431.17	0.700
431.37	0.697
431.58	0.695
431.78	0.691
431.99	0.683
432.19	0.685
432.40	0.687
432.60	0.688
432.80	0.690
433.01	0.688
433.21	0.689
433.42	0.690
433.62	0.691
433.83	0.691
434.03	0.693
434.23	0.696
434.44	0.695
434.64	0.693
434.85	0.697
435.05	0.698
435.26	0.698
435.46	0.696
435.66	0.696
435.87	0.696
436.07	0.696
436.28	0.692
436.48	0.689
436.69	0.689
436.89	0.688
437.09	0.681
437.30	0.680
437.50	0.680
437.71	0.692
437.91	0.691
438.11	0.692
438.32	0.696
438.52	0.697
438.73	0.696
438.93	0.694
439.13	0.694
439.34	0.698
439.54	0.696
439.75	0.696
439.95	0.686
440.15	0.691
440.36	0.689
440.56	0.687
440.77	0.688
440.97	0.687
441.17	0.686
441.38	0.688
441.58	0.685
441.79	0.684
441.99	0.683
442.19	0.682
442.40	0.678
442.60	0.678
442.81	0.676
443.01	0.676
443.21	0.676
443.42	0.676
443.62	0.674
443.82	0.673
444.03	0.675
444.23	0.674
444.44	0.675
444.64	0.674
444.84	0.675
445.05	0.674
445.25	0.672
445.45	0.673
445.66	0.675
445.86	0.675
446.06	0.676
446.27	0.675
446.47	0.678
446.68	0.676
446.88	0.674
447.08	0.674
447.29	0.676
447.49	0.676
447.69	0.676
447.90	0.675
448.10	0.678
448.30	0.675
448.51	0.677
448.71	0.675
448.91	0.677
449.12	0.676
449.32	0.678
449.52	0.676
449.73	0.679
449.93	0.678
450.14	0.678
450.34	0.677
450.54	0.678
450.75	0.675
450.95	0.675
451.15	0.674
451.36	0.676
451.56	0.673
451.76	0.672
451.97	0.670
452.17	0.670
452.37	0.668
452.58	0.665
452.78	0.665
452.98	0.667
453.19	0.667
453.39	0.667
453.59	0.666
453.79	0.667
454.00	0.668
454.20	0.667
454.40	0.667
454.61	0.670
454.81	0.671
455.01	0.669
455.22	0.670
455.42	0.672
455.62	0.669
455.83	0.669
456.03	0.672
456.23	0.674
456.44	0.674
456.64	0.673
456.84	0.673
457.04	0.673
457.25	0.673
457.45	0.669
457.65	0.668
457.86	0.670
458.06	0.668
458.26	0.664
458.47	0.663
458.67	0.664
458.87	0.664
459.07	0.662
459.28	0.664
459.48	0.665
459.68	0.665
459.89	0.664
460.09	0.663
460.29	0.664
460.49	0.665
460.70	0.663
460.90	0.663
461.10	0.664
461.31	0.663
461.51	0.661
461.71	0.663
461.91	0.664
462.12	0.664
462.32	0.664
462.52	0.664
462.72	0.667
462.93	0.668
463.13	0.667
463.33	0.668
463.53	0.669
463.74	0.668
463.94	0.664
464.14	0.665
464.35	0.666
464.55	0.666
464.75	0.664
464.95	0.661
465.16	0.663
465.36	0.662
465.56	0.660
465.76	0.660
465.97	0.660
466.17	0.660
466.37	0.658
466.57	0.658
466.78	0.658
466.98	0.659
467.18	0.657
467.38	0.656
467.59	0.657
467.79	0.659
467.99	0.658
468.19	0.659
468.39	0.661
468.60	0.661
468.80	0.660
469.00	0.662
469.20	0.662
469.41	0.662
469.61	0.662
469.81	0.663
470.01	0.662
470.22	0.662
470.42	0.661
470.62	0.659
470.82	0.660
471.02	0.660
471.23	0.658
471.43	0.660
471.63	0.662
471.83	0.662
472.04	0.660
472.24	0.659
472.44	0.664
472.64	0.664
472.84	0.663
473.05	0.662
473.25	0.665
473.45	0.664
473.65	0.662
473.85	0.662
474.06	0.663
474.26	0.663
474.46	0.664
474.66	0.660
474.86	0.661
475.07	0.661
475.27	0.659
475.47	0.657
475.67	0.656
475.87	0.658
476.08	0.655
476.28	0.656
476.48	0.657
476.68	0.655
476.88	0.653
477.09	0.655
477.29	0.656
477.49	0.656
477.69	0.655
477.89	0.656
478.09	0.656
478.30	0.658
478.50	0.655
478.70	0.655
478.90	0.656
479.10	0.659
479.31	0.660
479.51	0.658
479.71	0.658
479.91	0.658
480.11	0.657
480.31	0.657
480.52	0.655
480.72	0.655
480.92	0.654
481.12	0.652
481.32	0.650
481.52	0.648
481.72	0.649
481.93	0.652
482.13	0.653
482.33	0.653
482.53	0.651
482.73	0.652
482.93	0.653
483.14	0.653
483.34	0.653
483.54	0.654
483.74	0.652
483.94	0.651
484.14	0.647
484.34	0.647
484.55	0.647
484.75	0.647
484.95	0.645
485.15	0.645
485.35	0.645
485.55	0.645
485.75	0.643
485.96	0.643
486.16	0.644
486.36	0.644
486.56	0.642
486.76	0.642
486.96	0.642
487.16	0.641
487.36	0.639
487.57	0.639
487.77	0.640
487.97	0.640
488.17	0.639
488.37	0.638
488.57	0.638
488.77	0.638
488.97	0.637
489.18	0.637
489.38	0.639
489.58	0.640
489.78	0.639
489.98	0.639
490.18	0.639
490.38	0.640
490.58	0.638
490.78	0.639
490.98	0.640
491.19	0.640
491.39	0.640
491.59	0.639
491.79	0.641
491.99	0.641
492.19	0.641
492.39	0.644
492.59	0.644
492.79	0.647
492.99	0.647
493.20	0.647
493.40	0.647
493.60	0.648
493.80	0.647
494.00	0.644
494.20	0.644
494.40	0.644
494.60	0.641
494.80	0.646
495.00	0.644
495.20	0.643
495.40	0.642
495.61	0.644
495.81	0.644
496.01	0.647
496.21	0.649
496.41	0.648
496.61	0.649
496.81	0.648
497.01	0.643
497.21	0.642
497.41	0.643
497.61	0.642
497.81	0.640
498.01	0.640
498.21	0.638
498.41	0.636
498.61	0.636
498.82	0.637
499.02	0.639
499.22	0.640
499.42	0.639
499.62	0.640
499.82	0.641
500.02	0.642
500.22	0.641
500.42	0.642
500.62	0.643
500.82	0.643
501.02	0.641
501.22	0.641
501.42	0.641
501.62	0.643
501.82	0.643
502.02	0.643
502.22	0.642
502.42	0.645
502.62	0.642
502.82	0.642
503.02	0.642
503.22	0.642
503.42	0.640
503.63	0.640
503.83	0.638
504.03	0.636
504.23	0.635
504.43	0.635
504.63	0.635
504.83	0.636
505.03	0.635
505.23	0.636
505.43	0.638
505.63	0.639
505.83	0.639
506.03	0.640
506.23	0.642
506.43	0.642
506.63	0.641
506.83	0.640
507.03	0.641
507.23	0.642
507.43	0.639
507.63	0.640
507.83	0.640
508.03	0.640
508.23	0.640
508.43	0.638
508.63	0.641
508.83	0.641
509.03	0.642
509.23	0.642
509.43	0.643
509.63	0.643
509.83	0.641
510.03	0.644
510.23	0.645
510.43	0.646
510.63	0.646
510.83	0.645
511.03	0.646
511.23	0.644
511.43	0.644
511.63	0.645
511.83	0.647
512.03	0.647
512.22	0.644
512.42	0.644
512.62	0.644
512.82	0.644
513.02	0.644
513.22	0.643
513.42	0.645
513.62	0.648
513.82	0.646
514.02	0.645
514.22	0.647
514.42	0.647
514.62	0.647
514.82	0.648
515.02	0.650
515.22	0.653
515.42	0.651
515.62	0.653
515.82	0.652
516.02	0.653
516.22	0.654
516.42	0.654
516.62	0.656
516.82	0.656
517.01	0.655
517.21	0.654
517.41	0.658
517.61	0.658
517.81	0.654
518.01	0.654
518.21	0.654
518.41	0.652
518.61	0.652
518.81	0.652
519.01	0.653
519.21	0.653
519.41	0.652
519.61	0.647
519.81	0.649
520.00	0.650
520.20	0.650
520.40	0.653
520.60	0.654
520.80	0.653
521.00	0.654
521.20	0.655
521.40	0.659
521.60	0.659
521.80	0.658
522.00	0.659
522.20	0.662
522.39	0.661
522.59	0.658
522.79	0.660
522.99	0.662
523.19	0.660
523.39	0.658
523.59	0.656
523.79	0.659
523.99	0.662
524.19	0.661
524.38	0.659
524.58	0.660
524.78	0.661
524.98	0.659
525.18	0.661
525.38	0.662
525.58	0.662
525.78	0.660
525.98	0.658
526.18	0.658
526.37	0.658
526.57	0.660
526.77	0.660
526.97	0.661
527.17	0.661
527.37	0.657
527.57	0.659
527.77	0.661
527.96	0.661
528.16	0.661
528.36	0.662
528.56	0.663
528.76	0.661
528.96	0.661
529.16	0.661
529.36	0.663
529.55	0.664
529.75	0.661
529.95	0.660
530.15	0.662
530.35	0.664
530.55	0.661
530.75	0.661
530.94	0.662
531.14	0.662
531.34	0.661
531.54	0.659
531.74	0.662
531.94	0.666
532.13	0.664
532.33	0.666
532.53	0.665
532.73	0.665
532.93	0.664
533.13	0.665
533.33	0.665
533.52	0.666
533.72	0.669
533.92	0.668
534.12	0.666
534.32	0.665
534.52	0.664
534.71	0.665
534.91	0.667
535.11	0.669
535.31	0.667
535.51	0.669
535.71	0.671
535.90	0.668
536.10	0.669
536.30	0.671
536.50	0.672
536.70	0.672
536.89	0.670
537.09	0.670
537.29	0.671
537.49	0.671
537.69	0.669
537.89	0.669
538.08	0.669
538.28	0.667
538.48	0.667
538.68	0.669
538.88	0.670
539.07	0.670
539.27	0.669
539.47	0.668
539.67	0.668
539.87	0.669
540.06	0.667
540.26	0.668
540.46	0.670
540.66	0.668
540.86	0.666
541.05	0.666
541.25	0.668
541.45	0.667
541.65	0.666
541.84	0.668
542.04	0.669
542.24	0.669
542.44	0.668
542.64	0.669
542.83	0.672
543.03	0.672
543.23	0.669
543.43	0.671
543.62	0.672
543.82	0.672
544.02	0.670
544.22	0.670
544.42	0.673
544.61	0.674
544.81	0.671
545.01	0.670
545.21	0.672
545.40	0.672
545.60	0.670
545.80	0.673
546.00	0.674
546.19	0.673
546.39	0.673
546.59	0.670
546.79	0.672
546.98	0.672
547.18	0.672
547.38	0.672
547.58	0.675
547.77	0.675
547.97	0.671
548.17	0.672
548.37	0.673
548.56	0.673
548.76	0.672
548.96	0.674
549.16	0.675
549.35	0.675
549.55	0.673
549.75	0.674
549.95	0.677
550.14	0.678
550.34	0.677
550.54	0.681
550.73	0.685
550.93	0.686
551.13	0.683
551.33	0.682
551.52	0.683
551.72	0.683
551.92	0.680
552.12	0.680
552.31	0.681
552.51	0.680
552.71	0.676
552.90	0.676
553.10	0.676
553.30	0.676
553.50	0.675
553.69	0.677
553.89	0.678
554.09	0.679
554.28	0.676
554.48	0.678
554.68	0.680
554.87	0.679
555.07	0.677
555.27	0.677
555.47	0.678
555.66	0.679
555.86	0.677
556.06	0.679
556.25	0.680
556.45	0.688
556.65	0.687
556.84	0.690
557.04	0.693
557.24	0.694
557.43	0.694
557.63	0.697
557.83	0.698
558.02	0.698
558.22	0.703
558.42	0.703
558.61	0.696
558.81	0.696
559.01	0.693
559.21	0.693
559.40	0.694
559.60	0.694
559.80	0.690
559.99	0.691
560.19	0.693
560.39	0.687
560.58	0.685
560.78	0.685
560.97	0.688
561.17	0.686
561.37	0.684
561.56	0.685
561.76	0.687
561.96	0.686
562.15	0.684
562.35	0.686
562.55	0.687
562.74	0.687
562.94	0.686
563.14	0.684
563.33	0.685
563.53	0.685
563.73	0.683
563.92	0.684
564.12	0.686
564.31	0.688
564.51	0.686
564.71	0.688
564.90	0.690
565.10	0.691
565.30	0.694
565.49	0.695
565.69	0.698
565.89	0.698
566.08	0.696
566.28	0.697
566.47	0.699
566.67	0.697
566.87	0.694
567.06	0.696
567.26	0.702
567.46	0.698
567.65	0.698
567.85	0.700
568.04	0.702
568.24	0.701
568.44	0.699
568.63	0.698
568.83	0.699
569.02	0.698
569.22	0.694
569.42	0.690
569.61	0.692
569.81	0.690
570.00	0.688
570.20	0.689
570.40	0.690
570.59	0.689
570.79	0.688
570.98	0.686
571.18	0.686
571.38	0.686
571.57	0.683
571.77	0.681
571.96	0.684
572.16	0.682
572.35	0.676
572.55	0.677
572.75	0.675
572.94	0.675
573.14	0.674
573.33	0.674
573.53	0.675
573.73	0.675
573.92	0.673
574.12	0.671
574.31	0.673
574.51	0.674
574.70	0.671
574.90	0.673
575.09	0.676
575.29	0.676
575.49	0.673
575.68	0.673
575.88	0.674
576.07	0.675
576.27	0.674
576.46	0.672
576.66	0.672
576.86	0.671
577.05	0.668
577.25	0.666
577.44	0.668
577.64	0.668
577.83	0.666
578.03	0.668
578.22	0.667
578.42	0.666
578.61	0.664
578.81	0.665
579.00	0.665
579.20	0.665
579.40	0.664
579.59	0.663
579.79	0.664
579.98	0.663
580.18	0.663
580.37	0.663
580.57	0.665
580.76	0.670
580.96	0.668
581.15	0.669
581.35	0.671
581.54	0.671
581.74	0.670
581.93	0.672
582.13	0.672
582.32	0.669
582.52	0.667
582.71	0.666
582.91	0.661
583.10	0.661
583.30	0.660
583.49	0.660
583.69	0.663
583.88	0.664
584.08	0.663
584.27	0.666
584.47	0.670
584.66	0.671
584.86	0.670
585.05	0.673
585.25	0.676
585.44	0.676
585.64	0.674
585.83	0.670
586.03	0.670
586.22	0.668
586.42	0.664
586.61	0.666
586.81	0.667
587.00	0.666
587.20	0.664
587.39	0.664
587.59	0.665
587.78	0.667
587.98	0.667
588.17	0.668
588.37	0.671
588.56	0.673
588.76	0.669
588.95	0.669
589.15	0.673
589.34	0.676
589.54	0.675
589.73	0.675
589.92	0.679
590.12	0.679
590.31	0.677
590.51	0.682
590.70	0.684
590.90	0.685
591.09	0.683
591.29	0.681
591.48	0.680
591.68	0.681
591.87	0.680
592.06	0.679
592.26	0.682
592.45	0.681
592.65	0.675
592.84	0.674
593.04	0.677
593.23	0.679
593.43	0.676
593.62	0.676
593.81	0.676
594.01	0.676
594.20	0.674
594.40	0.673
594.59	0.674
594.79	0.675
594.98	0.674
595.17	0.673
595.37	0.674
595.56	0.676
595.76	0.675
595.95	0.677
596.14	0.679
596.34	0.681
596.53	0.679
596.73	0.681
596.92	0.682
597.12	0.685
597.31	0.685
597.50	0.684
597.70	0.686
597.89	0.686
598.09	0.683
598.28	0.684
598.47	0.686
598.67	0.685
598.86	0.682
599.06	0.683
599.25	0.683
599.44	0.681
599.64	0.678
599.83	0.676
600.03	0.678
600.22	0.679
600.41	0.679
600.61	0.677
600.80	0.679
601.00	0.679
601.19	0.675
601.38	0.674
601.58	0.676
601.77	0.678
601.96	0.680
602.16	0.680
602.35	0.689
602.55	0.686
602.74	0.687
602.93	0.688
603.13	0.693
603.32	0.695
603.51	0.694
603.71	0.698
603.90	0.700
604.09	0.700
604.29	0.698
604.48	0.692
604.68	0.694
604.87	0.693
605.06	0.690
605.26	0.687
605.45	0.687
605.64	0.686
605.84	0.681
606.03	0.680
606.22	0.678
606.42	0.677
606.61	0.674
606.80	0.673
607.00	0.674
607.19	0.674
607.38	0.673
607.58	0.674
607.77	0.676
607.96	0.675
608.16	0.674
608.35	0.678
608.54	0.681
608.74	0.683
608.93	0.688
609.12	0.691
609.32	0.694
609.51	0.697
609.70	0.696
609.90	0.698
610.09	0.703
610.28	0.709
610.48	0.703
610.67	0.705
610.86	0.706
611.06	0.700
611.25	0.698
611.44	0.699
611.64	0.699
611.83	0.702
612.02	0.699
612.21	0.697
612.41	0.695
612.60	0.694
612.79	0.690
612.99	0.691
613.18	0.692
613.37	0.690
613.57	0.687
613.76	0.688
613.95	0.685
614.14	0.685
614.34	0.682
614.53	0.683
614.72	0.686
614.92	0.686
615.11	0.683
615.30	0.680
615.49	0.682
615.69	0.684
615.88	0.681
616.07	0.682
616.26	0.683
616.46	0.684
616.65	0.681
616.84	0.679
617.04	0.680
617.23	0.683
617.42	0.684
617.61	0.687
617.81	0.688
618.00	0.689
618.19	0.689
618.38	0.694
618.58	0.697
618.77	0.698
618.96	0.698
619.15	0.701
619.35	0.702
619.54	0.704
619.73	0.700
619.92	0.702
620.12	0.707
620.31	0.707
620.50	0.702
620.69	0.703
620.89	0.706
621.08	0.706
621.27	0.706
621.46	0.704
621.66	0.708
621.85	0.708
622.04	0.704
622.23	0.705
622.43	0.706
622.62	0.705
622.81	0.704
623.00	0.703
623.19	0.706
623.39	0.704
623.58	0.702
623.77	0.701
623.96	0.704
624.16	0.704
624.35	0.698
624.54	0.701
624.73	0.704
624.92	0.703
625.12	0.701
625.31	0.701
625.50	0.704
625.69	0.705
625.88	0.701
626.08	0.701
626.27	0.701
626.46	0.702
626.65	0.699
626.84	0.699
627.04	0.704
627.23	0.704
627.42	0.701
627.61	0.702
627.80	0.704
628.00	0.705
628.19	0.703
628.38	0.706
628.57	0.709
628.76	0.708
628.96	0.705
629.15	0.706
629.34	0.709
629.53	0.710
629.72	0.705
629.91	0.705
630.11	0.709
630.30	0.710
630.49	0.712
630.68	0.713
630.87	0.716
631.06	0.718
631.26	0.712
631.45	0.714
631.64	0.721
631.83	0.723
632.02	0.721
632.21	0.719
632.41	0.725
632.60	0.719
632.79	0.718
632.98	0.718
633.17	0.718
633.36	0.720
633.55	0.718
633.75	0.714
633.94	0.716
634.13	0.716
634.32	0.714
634.51	0.709
634.70	0.711
634.89	0.710
635.09	0.707
635.28	0.708
635.47	0.708
635.66	0.711
635.85	0.706
636.04	0.707
636.23	0.711
636.43	0.712
636.62	0.712
636.81	0.711
637.00	0.713
637.19	0.716
637.38	0.713
637.57	0.714
637.76	0.715
637.95	0.716
638.15	0.713
638.34	0.710
638.53	0.713
638.72	0.715
638.91	0.712
639.10	0.710
639.29	0.710
639.48	0.711
639.67	0.712
639.87	0.710
640.06	0.715
640.25	0.715
640.44	0.716
640.63	0.716
640.82	0.717
641.01	0.717
641.20	0.718
641.39	0.720
641.58	0.721
641.78	0.719
641.97	0.717
642.16	0.731
642.35	0.731
642.54	0.729
642.73	0.724
642.92	0.724
643.11	0.727
643.30	0.728
643.49	0.723
643.68	0.726
643.87	0.727
644.06	0.727
644.25	0.706
644.45	0.709
644.64	0.710
644.83	0.710
645.02	0.706
645.21	0.705
645.40	0.706
645.59	0.705
645.78	0.700
645.97	0.703
646.16	0.703
646.35	0.704
646.54	0.703
646.73	0.704
646.92	0.706
647.11	0.706
647.30	0.703
647.49	0.705
647.68	0.705
647.88	0.703
648.07	0.696
648.26	0.699
648.45	0.699
648.64	0.695
648.83	0.693
649.02	0.695
649.21	0.704
649.40	0.703
649.59	0.697
649.78	0.698
649.97	0.713
650.16	0.713
650.35	0.707
650.54	0.711
650.73	0.718
650.92	0.715
651.11	0.710
651.30	0.707
651.49	0.711
651.68	0.712
651.87	0.709
652.06	0.698
652.25	0.702
652.44	0.705
652.63	0.703
652.82	0.705
653.01	0.706
653.20	0.704
653.39	0.694
653.58	0.692
653.77	0.692
653.96	0.687
654.15	0.679
654.34	0.677
654.53	0.672
654.72	0.666
654.91	0.656
655.10	0.652
655.29	0.650
655.48	0.646
655.67	0.641
655.86	0.638
656.05	0.636
656.24	0.635
656.43	0.630
656.62	0.629
656.81	0.628
657.00	0.624
657.19	0.621
657.38	0.619
657.57	0.618
657.76	0.620
657.95	0.618
658.14	0.621
658.33	0.623
658.51	0.627
658.70	0.627
658.89	0.629
659.08	0.640
659.27	0.648
659.46	0.649
659.65	0.655
659.84	0.659
660.03	0.663
660.22	0.664
660.41	0.669
660.60	0.668
660.79	0.669
660.98	0.675
661.17	0.673
661.36	0.671
661.55	0.672
661.74	0.671
661.92	0.674
662.11	0.675
662.30	0.673
662.49	0.667
662.68	0.667
662.87	0.670
663.06	0.664
663.25	0.666
663.44	0.667
663.63	0.668
663.82	0.667
664.01	0.662
664.20	0.660
664.38	0.662
664.57	0.662
664.76	0.662
664.95	0.663
665.14	0.666
665.33	0.662
665.52	0.668
665.71	0.672
665.90	0.671
666.09	0.673
666.28	0.671
666.46	0.670
666.65	0.670
666.84	0.667
667.03	0.662
667.22	0.661
667.41	0.664
667.60	0.655
667.79	0.649
667.98	0.650
668.16	0.651
668.35	0.650
668.54	0.647
668.73	0.648
668.92	0.649
669.11	0.647
669.30	0.642
669.49	0.637
669.67	0.639
669.86	0.641
670.05	0.639
670.24	0.636
670.43	0.633
670.62	0.633
670.81	0.628
671.00	0.629
671.18	0.629
671.37	0.628
671.56	0.627
671.75	0.626
671.94	0.622
672.13	0.620
672.32	0.616
672.50	0.616
672.69	0.615
672.88	0.615
673.07	0.611
673.26	0.614
673.45	0.614
673.63	0.613
673.82	0.611
674.01	0.612
674.20	0.612
674.39	0.612
674.58	0.611
674.76	0.611
674.95	0.610
675.14	0.610
675.33	0.606
675.52	0.605
675.71	0.605
675.89	0.605
676.08	0.601
676.27	0.600
676.46	0.601
676.65	0.601
676.84	0.601
677.02	0.602
677.21	0.604
677.40	0.602
677.59	0.600
677.78	0.601
677.96	0.603
678.15	0.602
678.34	0.601
678.53	0.601
678.72	0.601
678.90	0.598
679.09	0.594
679.28	0.591
679.47	0.591
679.66	0.590
679.84	0.587
680.03	0.584
680.22	0.583
680.41	0.584
680.60	0.579
680.78	0.579
680.97	0.581
681.16	0.581
681.35	0.580
681.53	0.579
681.72	0.580
681.91	0.582
682.10	0.581
682.29	0.584
682.47	0.581
682.66	0.580
682.85	0.579
683.04	0.577
683.22	0.577
683.41	0.578
683.60	0.577
683.79	0.578
683.97	0.577
684.16	0.576
684.35	0.572
684.54	0.573
684.72	0.574
684.91	0.575
685.10	0.574
685.29	0.575
685.47	0.572
685.66	0.570
685.85	0.567
686.04	0.566
686.22	0.568
686.41	0.571
686.60	0.568
686.79	0.570
686.97	0.571
687.16	0.572
687.35	0.569
687.54	0.573
687.72	0.577
687.91	0.577
688.10	0.579
688.29	0.579
688.47	0.577
688.66	0.577
688.85	0.573
689.03	0.571
689.22	0.576
689.41	0.577
689.60	0.572
689.78	0.569
689.97	0.570
690.16	0.567
690.34	0.563
690.53	0.563
690.72	0.563
690.91	0.561
691.09	0.559
691.28	0.553
691.47	0.551
691.65	0.550
691.84	0.547
692.03	0.546
692.21	0.544
692.40	0.544
692.59	0.542
692.77	0.540
692.96	0.541
693.15	0.542
693.34	0.539
693.52	0.539
693.71	0.540
693.90	0.541
694.08	0.542
694.27	0.543
694.46	0.552
694.64	0.554
694.83	0.553
695.02	0.552
695.20	0.552
695.39	0.552
695.58	0.552
695.76	0.553
695.95	0.552
696.14	0.551
696.32	0.549
696.51	0.539
696.70	0.539
696.88	0.539
697.07	0.538
697.26	0.540
697.44	0.540
697.63	0.539
697.81	0.537
698.00	0.536
698.19	0.536
698.37	0.536
698.56	0.535
698.75	0.535
698.93	0.535
699.12	0.534
699.31	0.533
699.49	0.533
699.68	0.534
699.87	0.536
700.05	0.536
700.24	0.535
700.42	0.537
700.61	0.537
700.80	0.535
700.98	0.536
701.17	0.536
701.36	0.536
701.54	0.535
701.73	0.536
701.91	0.533
702.10	0.533
702.29	0.532
702.47	0.530
702.66	0.531
702.84	0.533
703.03	0.531
703.22	0.532
703.40	0.532
703.59	0.533
703.77	0.533
703.96	0.533
704.15	0.533
704.33	0.533
704.52	0.533
704.70	0.532
704.89	0.532
705.08	0.530
705.26	0.526
705.45	0.527
705.63	0.527
705.82	0.524
706.00	0.523
706.19	0.522
706.38	0.522
706.56	0.522
706.75	0.520
706.93	0.519
707.12	0.520
707.30	0.521
707.49	0.518
707.68	0.516
707.86	0.515
708.05	0.516
708.23	0.513
708.42	0.513
708.60	0.515
708.79	0.515
708.98	0.513
709.16	0.512
709.35	0.514
709.53	0.518
709.72	0.518
709.90	0.520
710.09	0.521
710.27	0.522
710.46	0.526
710.64	0.525
710.83	0.527
711.02	0.529
711.20	0.528
711.39	0.526
711.57	0.523
711.76	0.524
711.94	0.523
712.13	0.524
712.31	0.524
712.50	0.519
712.68	0.517
712.87	0.518
713.05	0.518
713.24	0.518
713.42	0.518
713.61	0.518
713.79	0.519
713.98	0.519
714.16	0.520
714.35	0.519
714.54	0.520
714.72	0.520
714.91	0.518
715.09	0.524
715.28	0.526
715.46	0.527
715.65	0.525
715.83	0.524
716.02	0.526
716.20	0.522
716.39	0.522
716.57	0.523
716.76	0.525
716.94	0.524
717.12	0.517
717.31	0.518
717.49	0.520
717.68	0.523
717.86	0.523
718.05	0.525
718.23	0.527
718.42	0.529
718.60	0.530
718.79	0.537
718.97	0.540
719.16	0.541
719.34	0.538
719.53	0.538
719.71	0.538
719.90	0.539
720.08	0.536
720.27	0.537
720.45	0.537
720.63	0.535
720.82	0.530
721.00	0.532
721.19	0.535
721.37	0.535
721.56	0.536
721.74	0.538
721.93	0.546
722.11	0.551
722.30	0.550
722.48	0.555
722.66	0.557
722.85	0.557
723.03	0.557
723.22	0.556
723.40	0.559
723.59	0.559
723.77	0.563
723.95	0.555
724.14	0.558
724.32	0.560
724.51	0.560
724.69	0.561
724.88	0.561
725.06	0.559
725.24	0.560
725.43	0.561
725.61	0.562
725.80	0.556
725.98	0.556
726.16	0.552
726.35	0.557
726.53	0.556
726.72	0.555
726.90	0.565
727.09	0.566
727.27	0.572
727.45	0.570
727.64	0.579
727.82	0.587
728.01	0.592
728.19	0.589
728.37	0.594
728.56	0.597
728.74	0.604
728.92	0.593
729.11	0.595
729.29	0.593
729.48	0.595
729.66	0.586
729.84	0.584
730.03	0.587
730.21	0.589
730.40	0.581
730.58	0.582
730.76	0.582
730.95	0.584
731.13	0.584
731.31	0.598
731.50	0.606
731.68	0.607
731.86	0.606
732.05	0.619
732.23	0.622
732.42	0.625
732.60	0.629
732.78	0.632
732.97	0.649
733.15	0.654
733.33	0.643
733.52	0.649
733.70	0.661
733.88	0.669
734.07	0.654
734.25	0.679
734.43	0.687
734.62	0.689
734.80	0.685
734.98	0.676
735.17	0.682
735.35	0.687
735.53	0.679
735.72	0.682
735.90	0.701
736.08	0.722
736.27	0.699
736.45	0.709
736.63	0.721
736.82	0.731
737.00	0.730
737.18	0.742
737.37	0.771
737.55	0.793
737.73	0.790
737.92	0.792
738.10	0.787
738.28	0.807
738.46	0.797
738.65	0.809
738.83	0.828
739.01	0.882
739.20	0.875
739.38	0.857
739.56	0.844
739.75	0.848
739.93	0.819
740.11	0.842
740.29	0.843
740.48	0.850
740.66	0.829
740.84	0.824
741.03	0.784
741.21	0.794
741.39	0.778
741.57	0.793
741.76	0.803
741.94	0.811
742.12	0.776
742.31	0.779
742.49	0.793
742.67	0.817
742.85	0.829
743.04	0.837
743.22	0.842
743.40	0.893
743.58	0.875
743.77	0.896
743.95	0.922
744.13	0.974
744.31	0.959
744.50	0.957
744.68	0.951
744.86	0.925
745.04	0.935
745.23	0.999
745.41	0.976
745.59	0.975
745.77	0.938
745.96	0.932
746.14	0.932
746.32	0.929
746.50	0.922
746.69	0.908
746.87	0.915
747.05	0.907
747.23	0.840
747.42	0.828
747.60	0.852
747.78	0.857
747.96	0.880
748.14	0.845
748.33	0.868
748.51	0.861
748.69	0.856
748.87	0.881
749.06	0.873
749.24	0.871
749.42	0.862
749.60	0.849
749.78	0.857
749.97	0.817
750.15	0.813
750.33	0.817
750.51	0.839
750.69	0.848
750.88	0.856
751.06	0.866
751.24	0.888
751.42	0.878
751.60	0.871
751.79	0.935
751.97	0.976
752.15	0.975
752.33	0.944
752.51	1.006
752.69	1.012
752.88	0.980
753.06	1.023
753.24	1.005
753.42	1.035
753.60	1.188
753.78	1.061
753.97	1.078
754.15	1.093
754.33	1.118
754.51	1.004
754.69	0.993
754.87	1.018
755.06	0.954
755.24	0.951
755.42	0.959
755.60	0.865
755.78	0.872
755.96	0.824
756.15	0.823
756.33	0.828
756.51	0.847
756.69	0.832
756.87	0.800
757.05	0.815
757.23	0.802
757.42	0.772
757.60	0.771
757.78	0.761
757.96	0.759
758.14	0.744
758.32	0.727
758.50	0.736
758.69	0.736
758.87	0.728
759.05	0.730
759.23	0.737
759.41	0.740
759.59	0.734
759.77	0.753
759.95	0.779
760.13	0.823
760.32	0.829
760.50	0.824
760.68	0.845
760.86	0.846
761.04	0.827
761.22	0.834
761.40	0.874
761.58	0.879
761.76	0.853
761.95	0.833
762.13	0.789
762.31	0.789
762.49	0.762
762.67	0.779
762.85	0.792
763.03	0.785
763.21	0.768
763.39	0.752
763.57	0.754
763.75	0.751
763.94	0.740
764.12	0.745
764.30	0.765
764.48	0.770
764.66	0.735
764.84	0.733
765.02	0.768
765.20	0.774
765.38	0.754
765.56	0.758
765.74	0.790
765.92	0.792
766.10	0.798
766.28	0.791
766.46	0.815
766.65	0.817
766.83	0.805
767.01	0.790
767.19	0.793
767.37	0.796
767.55	0.781
767.73	0.763
767.91	0.761
768.09	0.750
768.27	0.739
768.45	0.731
768.63	0.734
768.81	0.736
768.99	0.714
769.17	0.736
769.35	0.747
769.53	0.747
769.71	0.733
769.89	0.743
770.07	0.746
770.25	0.732
770.43	0.713
770.61	0.733
770.79	0.738
770.97	0.748
771.15	0.721
771.33	0.724
771.51	0.725
771.69	0.732
771.87	0.739
772.05	0.743
772.24	0.752
772.42	0.760
772.60	0.741
772.78	0.797
772.96	0.819
773.14	0.814
773.32	0.795
773.49	0.800
773.67	0.801
773.85	0.783
774.03	0.776
774.21	0.801
774.39	0.810
774.57	0.830
774.75	0.761
774.93	0.758
775.11	0.777
775.29	0.784
775.47	0.786
775.65	0.792
775.83	0.806
776.01	0.825
776.19	0.785
776.37	0.786
776.55	0.787
776.73	0.786
776.91	0.782
777.09	0.768
777.27	0.767
777.45	0.756
777.63	0.738
777.81	0.734
777.99	0.721
778.17	0.719
778.35	0.701
778.53	0.689
778.71	0.691
778.89	0.680
779.07	0.670
779.24	0.675
779.42	0.677
779.60	0.693
779.78	0.691
779.96	0.695
780.14	0.702
780.32	0.721
780.50	0.707
780.68	0.706
780.86	0.697
781.04	0.715
781.22	0.718
781.40	0.727
781.58	0.715
781.75	0.707
781.93	0.693
782.11	0.693
782.29	0.680
782.47	0.679
782.65	0.671
782.83	0.698
783.01	0.688
783.19	0.684
783.37	0.671
783.55	0.676
783.72	0.692
783.90	0.703
784.08	0.698
784.26	0.708
784.44	0.729
784.62	0.729
784.80	0.699
784.98	0.705
785.16	0.709
785.33	0.724
785.51	0.712
785.69	0.700
785.87	0.696
786.05	0.707
786.23	0.704
786.41	0.699
786.59	0.704
786.77	0.705
786.94	0.695
787.12	0.698
787.30	0.699
787.48	0.694
787.66	0.684
787.84	0.689
788.02	0.678
788.19	0.677
788.37	0.667
788.55	0.669
788.73	0.668
788.91	0.661
789.09	0.646
789.27	0.636
789.44	0.647
789.62	0.652
789.80	0.660
789.98	0.684
790.16	0.670
790.34	0.663
790.51	0.651
790.69	0.671
790.87	0.675
791.05	0.674
791.23	0.669
791.41	0.671
791.58	0.676
791.76	0.655
791.94	0.627
792.12	0.635
792.30	0.639
792.48	0.637
792.65	0.632
792.83	0.638
793.01	0.643
793.19	0.641
793.37	0.626
793.54	0.621
793.72	0.631
793.90	0.630
794.08	0.620
794.26	0.621
794.43	0.628
794.61	0.613
794.79	0.602
794.97	0.601
795.15	0.606
795.32	0.610
795.50	0.603
795.68	0.599
795.86	0.602
796.04	0.603
796.21	0.598
796.39	0.596
796.57	0.607
796.75	0.615
796.92	0.616
797.10	0.620
797.28	0.622
797.46	0.624
797.64	0.627
797.81	0.633
797.99	0.637
798.17	0.641
798.35	0.638
798.52	0.640
798.70	0.637
798.88	0.646
799.06	0.646
799.23	0.648
799.41	0.655
799.59	0.647
799.77	0.638
799.94	0.645
800.12	0.652
800.30	0.669
800.48	0.670
800.65	0.668
800.83	0.658
801.01	0.650
801.19	0.652
801.36	0.647
801.54	0.649
801.72	0.658
801.90	0.646
802.07	0.642
802.25	0.627
802.43	0.611
802.60	0.608
802.78	0.613
802.96	0.617
803.14	0.611
803.31	0.611
803.49	0.612
803.67	0.608
803.84	0.613
804.02	0.607
804.20	0.611
804.38	0.615
804.55	0.616
804.73	0.603
804.91	0.605
805.08	0.616
805.26	0.613
805.44	0.676
805.61	0.678
805.79	0.675
805.97	0.675
806.15	0.668
806.32	0.665
806.50	0.670
806.68	0.671
806.85	0.663
807.03	0.652
807.21	0.665
807.38	0.601
807.56	0.593
807.74	0.603
807.91	0.608
808.09	0.609
808.27	0.626
808.44	0.649
808.62	0.656
808.80	0.658
808.97	0.657
809.15	0.654
809.33	0.669
809.50	0.677
809.68	0.666
809.86	0.673
810.03	0.702
810.21	0.682
810.39	0.665
810.56	0.670
810.74	0.692
810.91	0.758
811.09	0.746
811.27	0.764
811.44	0.769
811.62	0.769
811.80	0.754
811.97	0.726
812.15	0.727
812.33	0.724
812.50	0.713
812.68	0.700
812.85	0.646
813.03	0.648
813.21	0.619
813.38	0.615
813.56	0.617
813.74	0.628
813.91	0.637
814.09	0.663
814.26	0.655
814.44	0.657
814.62	0.649
814.79	0.653
814.97	0.656
815.14	0.661
815.32	0.663
815.50	0.678
815.67	0.677
815.85	0.667
816.02	0.657
816.20	0.664
816.38	0.676
816.55	0.681
816.73	0.680
816.90	0.690
817.08	0.714
817.26	0.719
817.43	0.703
817.61	0.728
817.78	0.744
817.96	0.725
818.13	0.719
818.31	0.718
818.49	0.729
818.66	0.720
818.84	0.708
819.01	0.690
819.19	0.694
819.36	0.694
819.54	0.666
819.71	0.704
819.89	0.717
820.07	0.726
820.24	0.722
820.42	0.724
820.59	0.740
820.77	0.762
820.94	0.754
821.12	0.776
821.29	0.788
821.47	0.789
821.64	0.732
821.82	0.742
822.00	0.740
822.17	0.738
822.35	0.731
822.52	0.734
822.70	0.724
822.87	0.734
823.05	0.715
823.22	0.725
823.40	0.746
823.57	0.765
823.75	0.750
823.92	0.773
824.10	0.787
824.27	0.825
824.45	0.815
824.62	0.867
824.80	0.882
824.97	0.897
825.15	0.893
825.32	0.912
825.50	0.914
825.67	0.926
825.85	0.905
826.02	0.929
826.20	0.944
826.37	1.058
826.55	0.984
826.72	1.148
826.90	1.199
827.07	1.233
827.25	1.184
827.42	1.323
827.60	1.429
827.77	1.532
827.95	1.489
828.12	1.592
828.30	1.343
828.47	1.463
828.65	1.158
828.82	1.190
829.00	1.244
829.17	1.327
829.34	1.321
829.52	1.347
829.69	-0.000
829.87	-0.000
830.04	-0.000
830.22	-0.000
830.39	-0.000
830.57	-0.000
830.74	-0.000
830.92	-0.000
831.09	-0.000
831.26	-0.000
831.44	-0.000
831.61	-0.000
831.79	-0.000
831.96	-0.000
832.14	-0.000
832.31	-0.000
832.49	-0.000
832.66	-0.000
832.83	-0.000
833.01	-0.000
833.18	-0.000
833.36	-0.000
833.53	-0.000
833.70	-0.000
833.88	-0.000
834.05	-0.000
834.23	-0.000
834.40	-0.000
834.58	-0.000
834.75	-0.000
834.92	-0.000
835.10	-0.000
835.27	-0.000
835.45	-0.000
835.62	-0.000
835.79	-0.000
835.97	-0.000
836.14	-0.000
836.32	-0.000
836.49	-0.000
836.66	-0.000
836.84	-0.000
837.01	-0.000
837.18	-0.000
837.36	-0.000
837.53	-0.000
837.71	-0.000
837.88	-0.000
838.05	-0.000
838.23	-0.000
838.40	-0.000
838.58	-0.000
838.75	-0.000
838.92	-0.000
839.10	-0.000
839.27	-0.000
839.44	-0.000
839.62	-0.000
839.79	-0.000
839.96	-0.000
840.14	-0.000
840.31	-0.000
840.48	-0.000
840.66	-0.000
840.83	-0.000
841.01	-0.000
841.18	-0.000
841.35	-0.000
841.53	-0.000
841.70	-0.000
841.87	-0.000
842.05	-0.000
842.22	-0.000
842.39	-0.000
842.57	-0.000
842.74	-0.000
842.91	-0.000
843.09	-0.000
843.26	-0.000
843.43	-0.000
843.60	-0.000
843.78	-0.000
843.95	-0.000
844.12	-0.000
844.30	-0.000
844.47	-0.000
844.64	-0.000
844.82	-0.000
844.99	-0.000
845.16	-0.000
845.34	-0.000
845.51	-0.000
845.68	-0.000
845.85	-0.000
846.03	-0.000
846.20	-0.000
846.37	-0.000
846.55	-0.000
846.72	-0.000
846.89	-0.000
847.06	-0.000
847.24	-0.000
847.41	-0.000
847.58	-0.000
847.76	-0.000
847.93	-0.000
848.10	-0.000
848.27	-0.000
848.45	-0.000
848.62	-0.000
848.79	-0.000
848.97	-0.000
849.14	-0.000
849.31	-0.000
849.48	-0.000
849.66	-0.000
849.83	-0.000
850.00	-0.000
850.17	-0.000
850.35	-0.000
850.52	-0.000
850.69	-0.000
850.86	-0.000
851.04	-0.000
851.21	-0.000
851.38	-0.000
851.55	-0.000
851.72	-0.000
851.90	-0.000
852.07	-0.000
852.24	-0.000
852.41	-0.000
852.59	-0.000
852.76	-0.000
852.93	-0.000
853.10	-0.000
853.28	-0.000
853.45	-0.000
853.62	-0.000
853.79	-0.000
853.96	-0.000
854.14	-0.000
854.31	-0.000
854.48	-0.000
854.65	-0.000
854.82	-0.000
855.00	-0.000
855.17	-0.000
855.34	-0.000
855.51	-0.000
855.68	-0.000
855.86	-0.000
856.03	-0.000
856.20	-0.000
856.37	-0.000
856.54	-0.000
856.72	-0.000
856.89	-0.000
857.06	-0.000
857.23	-0.000
857.40	-0.000
857.57	-0.000
857.75	-0.000
857.92	-0.000
858.09	-0.000
858.26	-0.000
858.43	-0.000
858.60	-0.000
858.78	-0.000
858.95	-0.000
859.12	-0.000
859.29	-0.000
859.46	-0.000
859.63	-0.000
859.81	-0.000
859.98	-0.000
860.15	-0.000
860.32	-0.000
860.49	-0.000
860.66	-0.000
860.83	-0.000
861.01	-0.000
861.18	-0.000
861.35	-0.000
861.52	-0.000
861.69	-0.000
861.86	-0.000
862.03	-0.000
862.21	-0.000
862.38	-0.000
862.55	-0.000
862.72	-0.000
862.89	-0.000
863.06	-0.000
863.23	-0.000
863.40	-0.000
863.58	-0.000
863.75	-0.000
863.92	-0.000
864.09	-0.000
864.26	-0.000
864.43	-0.000
864.60	-0.000
864.77	-0.000
864.94	-0.000
865.11	-0.000
865.29	-0.000
865.46	-0.000
865.63	-0.000
865.80	-0.000
865.97	-0.000
866.14	-0.000
866.31	-0.000
866.48	-0.000
866.65	-0.000
866.82	-0.000
866.99	-0.000
867.16	-0.000
867.34	-0.000
867.51	-0.000
867.68	-0.000
867.85	-0.000
868.02	-0.000
868.19	-0.000
868.36	-0.000
868.53	-0.000
868.70	-0.000
868.87	-0.000
869.04	-0.000
869.21	-0.000
869.38	-0.000
869.55	-0.000
869.72	-0.000
869.89	-0.000
870.06	-0.000
870.24	-0.000
870.41	-0.000
870.58	-0.000
870.75	-0.000
870.92	-0.000
871.09	-0.000
871.26	-0.000
871.43	-0.000
871.60	-0.000
871.77	-0.000
871.94	-0.000
872.11	-0.000
872.28	-0.000
872.45	-0.000
872.62	-0.000
872.79	-0.000
872.96	-0.000
873.13	-0.000
873.30	-0.000
873.47	-0.000
873.64	-0.000
873.81	-0.000
873.98	-0.000
874.15	-0.000
874.32	-0.000
874.49	-0.000
874.66	-0.000
874.83	-0.000
875.00	-0.000
875.17	-0.000
875.34	-0.000
875.51	-0.000
875.68	-0.000
875.85	-0.000
876.02	-0.000
876.19	-0.000
876.36	-0.000
876.53	-0.000
876.70	-0.000
876.87	-0.000
877.04	-0.000
877.21	-0.000
877.38	-0.000
877.55	-0.000
877.72	-0.000
877.89	-0.000
878.06	-0.000
878.23	-0.000
878.39	-0.000
878.56	-0.000
878.73	-0.000
878.90	-0.000
879.07	-0.000
879.24	-0.000
879.41	-0.000
879.58	-0.000
879.75	-0.000
879.92	-0.000
880.09	-0.000
880.26	-0.000
880.43	-0.000
880.60	-0.000
880.77	-0.000
880.94	-0.000
881.11	-0.000
881.27	-0.000
881.44	-0.000
881.61	-0.000
881.78	-0.000
881.95	-0.000
882.12	-0.000
882.29	-0.000
882.46	-0.000
882.63	-0.000
882.80	-0.000
882.97	-0.000
883.14	-0.000
883.30	-0.000
883.47	-0.000
883.64	-0.000
883.81	-0.000
883.98	-0.000
884.15	-0.000
884.32	-0.000
884.49	-0.000
884.66	-0.000
884.82	-0.000
884.99	-0.000
885.16	-0.000
885.33	-0.000
885.50	-0.000
885.67	-0.000
885.84	-0.000
886.01	-0.000
886.17	-0.000
886.34	-0.000
886.51	-0.000
886.68	-0.000
886.85	-0.000
887.02	-0.000
887.19	-0.000
887.36	-0.000
887.52	-0.000
887.69	-0.000
887.86	-0.000
888.03	-0.000
888.20	-0.000
888.37	-0.000
888.54	-0.000
888.70	-0.000
888.87	-0.000
889.04	-0.000
889.21	-0.000
889.38	-0.000
889.55	-0.000
889.71	-0.000
889.88	-0.000
890.05	-0.000
890.22	-0.000
890.39	-0.000
>>>>>End Processed Spectral Data<<<<<
