SpectraSuite Data File
++++++++++++++++++++++++++++++++++++
Date: Fri Jun 19 15:03:28 CEST 2015
User: introlabs
Dark Spectrum Present: Yes
Reference Spectrum Present: Yes
Number of Sampled Component Spectra: 1
Spectrometers: USB4H08886
Integration Time (usec): 745692 (USB4H08886)
Spectra Averaged: 5 (USB4H08886)
Boxcar Smoothing: 5 (USB4H08886)
Correct for Electrical Dark: Yes (USB4H08886)
Strobe/Lamp Enabled: No (USB4H08886)
Correct for Detector Non-linearity: Yes (USB4H08886)
Correct for Stray Light: Yes (USB4H08886)
Number of Pixels in Processed Spectrum: 3648
>>>>>Begin Processed Spectral Data<<<<<
178.14	-0.000
178.36	-0.000
178.57	-0.000
178.79	-0.000
179.01	-0.000
179.22	-0.000
179.44	-0.000
179.65	-0.000
179.87	-0.000
180.08	-0.000
180.30	-0.000
180.52	-0.000
180.73	-0.000
180.95	-0.000
181.16	-0.000
181.38	-0.000
181.59	-0.000
181.81	-0.000
182.03	-0.000
182.24	-0.000
182.46	-0.000
182.67	-0.000
182.89	-0.000
183.10	-0.000
183.32	-0.000
183.54	-0.000
183.75	-0.000
183.97	-0.000
184.18	-0.000
184.40	-0.000
184.61	-0.000
184.83	-0.000
185.04	-0.000
185.26	-0.000
185.48	-0.000
185.69	-0.000
185.91	-0.000
186.12	-0.000
186.34	-0.000
186.55	-0.000
186.77	-0.000
186.98	-0.000
187.20	-0.000
187.42	-0.000
187.63	-0.000
187.85	-0.000
188.06	-0.000
188.28	-0.000
188.49	-0.000
188.71	-0.000
188.92	-0.000
189.14	-0.000
189.36	-0.000
189.57	-0.000
189.79	-0.000
190.00	-0.000
190.22	-0.000
190.43	-0.000
190.65	-0.000
190.86	-0.000
191.08	-0.000
191.29	-0.000
191.51	-0.000
191.72	-0.000
191.94	-0.000
192.16	-0.000
192.37	-0.000
192.59	-0.000
192.80	-0.000
193.02	-0.000
193.23	-0.000
193.45	-0.000
193.66	-0.000
193.88	-0.000
194.09	-0.000
194.31	-0.000
194.52	-0.000
194.74	-0.000
194.95	-0.000
195.17	-0.000
195.38	-0.000
195.60	-0.000
195.81	-0.000
196.03	-0.000
196.25	-0.000
196.46	-0.000
196.68	-0.000
196.89	-0.000
197.11	-0.000
197.32	-0.000
197.54	-0.000
197.75	-0.000
197.97	-0.000
198.18	-0.000
198.40	-0.000
198.61	-0.000
198.83	-0.000
199.04	-0.000
199.26	-0.000
199.47	-0.000
199.69	-0.000
199.90	-0.000
200.12	-0.000
200.33	-0.000
200.55	-0.000
200.76	-0.000
200.98	-0.000
201.19	-0.000
201.41	-0.000
201.62	-0.000
201.84	-0.000
202.05	-0.000
202.27	-0.000
202.48	-0.000
202.70	-0.000
202.91	-0.000
203.13	-0.000
203.34	-0.000
203.56	-0.000
203.77	-0.000
203.99	-0.000
204.20	-0.000
204.42	-0.000
204.63	-0.000
204.85	-0.000
205.06	-0.000
205.28	-0.000
205.49	-0.000
205.71	-0.000
205.92	-0.000
206.14	-0.000
206.35	-0.000
206.56	-0.000
206.78	-0.000
206.99	-0.000
207.21	-0.000
207.42	-0.000
207.64	-0.000
207.85	-0.000
208.07	-0.000
208.28	-0.000
208.50	-0.000
208.71	-0.000
208.93	-0.000
209.14	-0.000
209.36	-0.000
209.57	-0.000
209.79	-0.000
210.00	-0.000
210.22	-0.000
210.43	-0.000
210.64	-0.000
210.86	-0.000
211.07	-0.000
211.29	-0.000
211.50	-0.000
211.72	-0.000
211.93	-0.000
212.15	-0.000
212.36	-0.000
212.58	-0.000
212.79	-0.000
213.01	-0.000
213.22	-0.000
213.43	-0.000
213.65	-0.000
213.86	-0.000
214.08	-0.000
214.29	-0.000
214.51	-0.000
214.72	-0.000
214.94	-0.000
215.15	-0.000
215.36	-0.000
215.58	-0.000
215.79	-0.000
216.01	-0.000
216.22	-0.000
216.44	-0.000
216.65	-0.000
216.87	-0.000
217.08	-0.000
217.29	-0.000
217.51	-0.000
217.72	-0.000
217.94	-0.000
218.15	-0.000
218.37	-0.000
218.58	-0.000
218.80	-0.000
219.01	-0.000
219.22	-0.000
219.44	-0.000
219.65	-0.000
219.87	-0.000
220.08	-0.000
220.30	-0.000
220.51	-0.000
220.72	-0.000
220.94	-0.000
221.15	-0.000
221.37	-0.000
221.58	-0.000
221.79	-0.000
222.01	-0.000
222.22	-0.000
222.44	-0.000
222.65	-0.000
222.87	-0.000
223.08	-0.000
223.29	-0.000
223.51	-0.000
223.72	-0.000
223.94	-0.000
224.15	-0.000
224.36	-0.000
224.58	-0.000
224.79	-0.000
225.01	-0.000
225.22	-0.000
225.44	-0.000
225.65	-0.000
225.86	-0.000
226.08	-0.000
226.29	-0.000
226.51	-0.000
226.72	-0.000
226.93	-0.000
227.15	-0.000
227.36	-0.000
227.58	-0.000
227.79	-0.000
228.00	-0.000
228.22	-0.000
228.43	-0.000
228.65	-0.000
228.86	-0.000
229.07	-0.000
229.29	-0.000
229.50	-0.000
229.72	-0.000
229.93	-0.000
230.14	-0.000
230.36	-0.000
230.57	-0.000
230.78	-0.000
231.00	-0.000
231.21	-0.000
231.43	-0.000
231.64	-0.000
231.85	-0.000
232.07	-0.000
232.28	-0.000
232.50	-0.000
232.71	-0.000
232.92	-0.000
233.14	-0.000
233.35	-0.000
233.56	-0.000
233.78	-0.000
233.99	-0.000
234.21	-0.000
234.42	-0.000
234.63	-0.000
234.85	-0.000
235.06	-0.000
235.27	-0.000
235.49	-0.000
235.70	-0.000
235.91	-0.000
236.13	-0.000
236.34	-0.000
236.56	-0.000
236.77	-0.000
236.98	-0.000
237.20	-0.000
237.41	-0.000
237.62	-0.000
237.84	-0.000
238.05	-0.000
238.26	-0.000
238.48	-0.000
238.69	-0.000
238.91	-0.000
239.12	-0.000
239.33	-0.000
239.55	-0.000
239.76	-0.000
239.97	-0.000
240.19	-0.000
240.40	-0.000
240.61	-0.000
240.83	-0.000
241.04	-0.000
241.25	-0.000
241.47	-0.000
241.68	-0.000
241.89	-0.000
242.11	-0.000
242.32	-0.000
242.53	-0.000
242.75	-0.000
242.96	-0.000
243.17	-0.000
243.39	-0.000
243.60	-0.000
243.81	-0.000
244.03	-0.000
244.24	-0.000
244.45	-0.000
244.67	-0.000
244.88	-0.000
245.09	-0.000
245.31	-0.000
245.52	-0.000
245.73	-0.000
245.95	-0.000
246.16	-0.000
246.37	-0.000
246.59	-0.000
246.80	-0.000
247.01	-0.000
247.23	-0.000
247.44	-0.000
247.65	-0.000
247.87	-0.000
248.08	-0.000
248.29	-0.000
248.51	-0.000
248.72	-0.000
248.93	-0.000
249.15	-0.000
249.36	-0.000
249.57	-0.000
249.78	-0.000
250.00	-0.000
250.21	-0.000
250.42	-0.000
250.64	-0.000
250.85	-0.000
251.06	-0.000
251.28	-0.000
251.49	-0.000
251.70	-0.000
251.92	-0.000
252.13	-0.000
252.34	-0.000
252.55	-0.000
252.77	-0.000
252.98	-0.000
253.19	-0.000
253.41	-0.000
253.62	-0.000
253.83	-0.000
254.05	-0.000
254.26	-0.000
254.47	-0.000
254.68	-0.000
254.90	-0.000
255.11	-0.000
255.32	-0.000
255.54	-0.000
255.75	-0.000
255.96	-0.000
256.17	-0.000
256.39	-0.000
256.60	-0.000
256.81	-0.000
257.03	-0.000
257.24	-0.000
257.45	-0.000
257.66	-0.000
257.88	-0.000
258.09	-0.000
258.30	-0.000
258.51	-0.000
258.73	-0.000
258.94	-0.000
259.15	-0.000
259.37	-0.000
259.58	-0.000
259.79	-0.000
260.00	-0.000
260.22	-0.000
260.43	-0.000
260.64	-0.000
260.85	-0.000
261.07	-0.000
261.28	-0.000
261.49	-0.000
261.71	-0.000
261.92	-0.000
262.13	-0.000
262.34	-0.000
262.56	-0.000
262.77	-0.000
262.98	-0.000
263.19	-0.000
263.41	-0.000
263.62	-0.000
263.83	-0.000
264.04	-0.000
264.26	-0.000
264.47	-0.000
264.68	-0.000
264.89	-0.000
265.11	-0.000
265.32	-0.000
265.53	-0.000
265.74	-0.000
265.96	-0.000
266.17	-0.000
266.38	-0.000
266.59	-0.000
266.81	-0.000
267.02	-0.000
267.23	-0.000
267.44	-0.000
267.65	-0.000
267.87	-0.000
268.08	-0.000
268.29	-0.000
268.50	-0.000
268.72	-0.000
268.93	-0.000
269.14	-0.000
269.35	-0.000
269.57	-0.000
269.78	-0.000
269.99	-0.000
270.20	-0.000
270.41	-0.000
270.63	-0.000
270.84	-0.000
271.05	-0.000
271.26	-0.000
271.48	-0.000
271.69	-0.000
271.90	-0.000
272.11	-0.000
272.32	-0.000
272.54	-0.000
272.75	-0.000
272.96	-0.000
273.17	-0.000
273.39	-0.000
273.60	-0.000
273.81	-0.000
274.02	-0.000
274.23	-0.000
274.45	-0.000
274.66	-0.000
274.87	-0.000
275.08	-0.000
275.29	-0.000
275.51	-0.000
275.72	-0.000
275.93	-0.000
276.14	-0.000
276.35	-0.000
276.57	-0.000
276.78	-0.000
276.99	-0.000
277.20	-0.000
277.41	-0.000
277.63	-0.000
277.84	-0.000
278.05	-0.000
278.26	-0.000
278.47	-0.000
278.69	-0.000
278.90	-0.000
279.11	-0.000
279.32	-0.000
279.53	-0.000
279.74	-0.000
279.96	-0.000
280.17	-0.000
280.38	-0.000
280.59	-0.000
280.80	-0.000
281.02	-0.000
281.23	-0.000
281.44	-0.000
281.65	-0.000
281.86	-0.000
282.07	-0.000
282.29	-0.000
282.50	-0.000
282.71	-0.000
282.92	-0.000
283.13	-0.000
283.35	-0.000
283.56	-0.000
283.77	-0.000
283.98	-0.000
284.19	-0.000
284.40	-0.000
284.62	-0.000
284.83	-0.000
285.04	-0.000
285.25	-0.000
285.46	-0.000
285.67	-0.000
285.88	-0.000
286.10	-0.000
286.31	-0.000
286.52	-0.000
286.73	-0.000
286.94	-0.000
287.15	-0.000
287.37	-0.000
287.58	-0.000
287.79	-0.000
288.00	-0.000
288.21	-0.000
288.42	-0.000
288.63	-0.000
288.85	-0.000
289.06	-0.000
289.27	-0.000
289.48	-0.000
289.69	-0.000
289.90	-0.000
290.11	-0.000
290.33	-0.000
290.54	-0.000
290.75	-0.000
290.96	-0.000
291.17	-0.000
291.38	-0.000
291.59	-0.000
291.81	-0.000
292.02	-0.000
292.23	-0.000
292.44	-0.000
292.65	-0.000
292.86	-0.000
293.07	-0.000
293.28	-0.000
293.50	-0.000
293.71	-0.000
293.92	-0.000
294.13	-0.000
294.34	-0.000
294.55	-0.000
294.76	-0.000
294.97	-0.000
295.19	-0.000
295.40	-0.000
295.61	-0.000
295.82	-0.000
296.03	-0.000
296.24	-0.000
296.45	2.067
296.66	1.749
296.87	1.766
297.09	1.831
297.30	2.043
297.51	1.713
297.72	1.696
297.93	1.785
298.14	1.745
298.35	1.700
298.56	1.693
298.77	1.817
298.99	1.794
299.20	1.777
299.41	1.763
299.62	1.694
299.83	1.679
300.04	1.616
300.25	1.608
300.46	1.642
300.67	1.611
300.88	1.554
301.10	1.564
301.31	1.632
301.52	1.573
301.73	1.514
301.94	1.520
302.15	1.533
302.36	1.485
302.57	1.425
302.78	1.435
302.99	1.482
303.20	1.501
303.41	1.405
303.63	1.383
303.84	1.384
304.05	1.383
304.26	1.325
304.47	1.332
304.68	1.330
304.89	1.319
305.10	1.281
305.31	1.267
305.52	1.307
305.73	1.299
305.94	1.264
306.15	1.259
306.37	1.279
306.58	1.288
306.79	1.258
307.00	1.285
307.21	1.323
307.42	1.317
307.63	1.283
307.84	1.251
308.05	1.288
308.26	1.290
308.47	1.267
308.68	1.263
308.89	1.258
309.10	1.258
309.31	1.217
309.52	1.210
309.73	1.224
309.95	1.217
310.16	1.189
310.37	1.177
310.58	1.192
310.79	1.190
311.00	1.186
311.21	1.190
311.42	1.187
311.63	1.182
311.84	1.165
312.05	1.161
312.26	1.180
312.47	1.194
312.68	1.171
312.89	1.156
313.10	1.161
313.31	1.135
313.52	1.138
313.73	1.141
313.94	1.140
314.15	1.124
314.36	1.107
314.57	1.103
314.78	1.088
314.99	1.084
315.21	1.072
315.42	1.078
315.63	1.090
315.84	1.067
316.05	1.056
316.26	1.065
316.47	1.081
316.68	1.076
316.89	1.057
317.10	1.078
317.31	1.083
317.52	1.084
317.73	1.064
317.94	1.062
318.15	1.104
318.36	1.102
318.57	1.084
318.78	1.073
318.99	1.107
319.20	1.104
319.41	1.069
319.62	1.072
319.83	1.088
320.04	1.082
320.25	1.069
320.46	1.037
320.67	1.039
320.88	1.035
321.09	1.023
321.30	1.009
321.51	1.023
321.72	1.022
321.93	1.005
322.14	0.994
322.35	1.021
322.56	1.023
322.77	1.012
322.98	1.024
323.19	1.032
323.40	1.038
323.61	1.017
323.82	1.012
324.03	1.017
324.24	1.015
324.45	1.004
324.66	0.984
324.87	0.979
325.08	0.978
325.29	0.960
325.50	0.953
325.71	0.957
325.92	0.965
326.13	0.952
326.34	0.954
326.55	0.962
326.76	0.962
326.97	0.953
327.18	0.948
327.39	0.973
327.60	0.973
327.80	0.974
328.01	0.972
328.22	0.971
328.43	0.973
328.64	0.961
328.85	0.966
329.06	0.968
329.27	0.967
329.48	0.963
329.69	0.943
329.90	0.953
330.11	0.946
330.32	0.941
330.53	0.934
330.74	0.934
330.95	0.932
331.16	0.917
331.37	0.924
331.58	0.924
331.79	0.923
332.00	0.916
332.21	0.910
332.42	0.915
332.63	0.906
332.83	0.902
333.04	0.906
333.25	0.918
333.46	0.916
333.67	0.904
333.88	0.906
334.09	0.916
334.30	0.912
334.51	0.903
334.72	0.897
334.93	0.900
335.14	0.900
335.35	0.892
335.56	0.887
335.77	0.896
335.98	0.894
336.18	0.888
336.39	0.882
336.60	0.886
336.81	0.884
337.02	0.884
337.23	0.889
337.44	0.890
337.65	0.892
337.86	0.882
338.07	0.877
338.28	0.880
338.49	0.878
338.70	0.871
338.91	0.877
339.11	0.884
339.32	0.880
339.53	0.869
339.74	0.867
339.95	0.863
340.16	0.861
340.37	0.854
340.58	0.852
340.79	0.854
341.00	0.854
341.21	0.844
341.41	0.844
341.62	0.845
341.83	0.845
342.04	0.840
342.25	0.852
342.46	0.856
342.67	0.856
342.88	0.849
343.09	0.850
343.30	0.857
343.50	0.860
343.71	0.851
343.92	0.849
344.13	0.854
344.34	0.853
344.55	0.836
344.76	0.834
344.97	0.838
345.18	0.837
345.38	0.834
345.59	0.828
345.80	0.827
346.01	0.825
346.22	0.820
346.43	0.815
346.64	0.823
346.85	0.823
347.06	0.817
347.26	0.816
347.47	0.820
347.68	0.816
347.89	0.813
348.10	0.808
348.31	0.815
348.52	0.814
348.73	0.812
348.93	0.810
349.14	0.812
349.35	0.811
349.56	0.807
349.77	0.801
349.98	0.806
350.19	0.803
350.39	0.799
350.60	0.794
350.81	0.809
351.02	0.808
351.23	0.803
351.44	0.805
351.65	0.807
351.86	0.804
352.06	0.804
352.27	0.804
352.48	0.806
352.69	0.806
352.90	0.801
353.11	0.787
353.31	0.793
353.52	0.790
353.73	0.782
353.94	0.784
354.15	0.790
354.36	0.790
354.57	0.781
354.77	0.784
354.98	0.782
355.19	0.781
355.40	0.782
355.61	0.787
355.82	0.789
356.02	0.789
356.23	0.782
356.44	0.783
356.65	0.786
356.86	0.787
357.07	0.780
357.27	0.783
357.48	0.785
357.69	0.781
357.90	0.766
358.11	0.763
358.32	0.766
358.52	0.769
358.73	0.760
358.94	0.762
359.15	0.766
359.36	0.767
359.56	0.763
359.77	0.760
359.98	0.767
360.19	0.767
360.40	0.764
360.61	0.766
360.81	0.764
361.02	0.765
361.23	0.758
361.44	0.756
361.65	0.757
361.85	0.756
362.06	0.754
362.27	0.755
362.48	0.756
362.69	0.757
362.89	0.750
363.10	0.752
363.31	0.757
363.52	0.759
363.73	0.754
363.93	0.754
364.14	0.756
364.35	0.759
364.56	0.749
364.77	0.750
364.97	0.753
365.18	0.753
365.39	0.748
365.60	0.744
365.81	0.745
366.01	0.745
366.22	0.741
366.43	0.741
366.64	0.742
366.84	0.748
367.05	0.744
367.26	0.744
367.47	0.746
367.68	0.746
367.88	0.744
368.09	0.742
368.30	0.744
368.51	0.744
368.71	0.743
368.92	0.747
369.13	0.745
369.34	0.744
369.55	0.743
369.75	0.742
369.96	0.749
370.17	0.748
370.38	0.745
370.58	0.744
370.79	0.749
371.00	0.748
371.21	0.740
371.41	0.746
371.62	0.750
371.83	0.746
372.04	0.743
372.24	0.736
372.45	0.737
372.66	0.738
372.87	0.736
373.07	0.732
373.28	0.733
373.49	0.736
373.70	0.727
373.90	0.725
374.11	0.734
374.32	0.735
374.53	0.734
374.73	0.735
374.94	0.737
375.15	0.737
375.36	0.735
375.56	0.744
375.77	0.743
375.98	0.744
376.19	0.741
376.39	0.735
376.60	0.738
376.81	0.739
377.02	0.736
377.22	0.735
377.43	0.735
377.64	0.735
377.84	0.726
378.05	0.731
378.26	0.737
378.47	0.736
378.67	0.733
378.88	0.730
379.09	0.730
379.30	0.731
379.50	0.729
379.71	0.731
379.92	0.733
380.12	0.732
380.33	0.725
380.54	0.721
380.75	0.728
380.95	0.729
381.16	0.727
381.37	0.728
381.57	0.729
381.78	0.729
381.99	0.729
382.20	0.729
382.40	0.732
382.61	0.732
382.82	0.729
383.02	0.722
383.23	0.725
383.44	0.725
383.64	0.723
383.85	0.726
384.06	0.729
384.27	0.727
384.47	0.726
384.68	0.726
384.89	0.732
385.09	0.732
385.30	0.732
385.51	0.731
385.71	0.734
385.92	0.734
386.13	0.732
386.33	0.734
386.54	0.735
386.75	0.734
386.95	0.730
387.16	0.724
387.37	0.727
387.58	0.727
387.78	0.725
387.99	0.722
388.20	0.724
388.40	0.722
388.61	0.717
388.82	0.720
389.02	0.722
389.23	0.723
389.44	0.722
389.64	0.722
389.85	0.734
390.06	0.734
390.26	0.734
390.47	0.733
390.68	0.736
390.88	0.734
391.09	0.730
391.30	0.730
391.50	0.730
391.71	0.729
391.92	0.726
392.12	0.718
392.33	0.718
392.53	0.719
392.74	0.718
392.95	0.718
393.15	0.719
393.36	0.721
393.57	0.719
393.77	0.722
393.98	0.724
394.19	0.724
394.39	0.724
394.60	0.726
394.81	0.727
395.01	0.726
395.22	0.724
395.43	0.726
395.63	0.730
395.84	0.732
396.04	0.727
396.25	0.729
396.46	0.731
396.66	0.729
396.87	0.727
397.08	0.724
397.28	0.727
397.49	0.728
397.69	0.725
397.90	0.720
398.11	0.722
398.31	0.722
398.52	0.719
398.73	0.720
398.93	0.719
399.14	0.718
399.34	0.717
399.55	0.718
399.76	0.718
399.96	0.719
400.17	0.718
400.37	0.716
400.58	0.723
400.79	0.724
400.99	0.723
401.20	0.728
401.41	0.731
401.61	0.733
401.82	0.738
402.02	0.737
402.23	0.739
402.44	0.738
402.64	0.738
402.85	0.733
403.05	0.732
403.26	0.730
403.47	0.724
403.67	0.723
403.88	0.723
404.08	0.717
404.29	0.715
404.50	0.715
404.70	0.715
404.91	0.714
405.11	0.712
405.32	0.712
405.52	0.713
405.73	0.713
405.94	0.711
406.14	0.714
406.35	0.716
406.55	0.716
406.76	0.714
406.97	0.715
407.17	0.717
407.38	0.716
407.58	0.714
407.79	0.717
407.99	0.720
408.20	0.720
408.41	0.715
408.61	0.714
408.82	0.714
409.02	0.714
409.23	0.712
409.43	0.711
409.64	0.712
409.84	0.711
410.05	0.708
410.26	0.706
410.46	0.706
410.67	0.706
410.87	0.708
411.08	0.709
411.28	0.711
411.49	0.712
411.69	0.710
411.90	0.712
412.11	0.713
412.31	0.715
412.52	0.714
412.72	0.715
412.93	0.715
413.13	0.714
413.34	0.710
413.54	0.711
413.75	0.713
413.95	0.712
414.16	0.709
414.37	0.712
414.57	0.712
414.78	0.714
414.98	0.712
415.19	0.713
415.39	0.710
415.60	0.713
415.80	0.712
416.01	0.710
416.21	0.712
416.42	0.712
416.62	0.707
416.83	0.707
417.03	0.707
417.24	0.707
417.44	0.705
417.65	0.704
417.86	0.704
418.06	0.702
418.27	0.701
418.47	0.702
418.68	0.702
418.88	0.703
419.09	0.701
419.29	0.702
419.50	0.702
419.70	0.702
419.91	0.700
420.11	0.698
420.32	0.701
420.52	0.700
420.73	0.700
420.93	0.701
421.14	0.702
421.34	0.701
421.55	0.698
421.75	0.698
421.96	0.700
422.16	0.700
422.37	0.699
422.57	0.696
422.78	0.697
422.98	0.694
423.19	0.691
423.39	0.690
423.60	0.693
423.80	0.694
424.01	0.692
424.21	0.694
424.42	0.695
424.62	0.695
424.83	0.694
425.03	0.695
425.23	0.697
425.44	0.697
425.64	0.698
425.85	0.696
426.05	0.697
426.26	0.698
426.46	0.694
426.67	0.693
426.87	0.699
427.08	0.699
427.28	0.697
427.49	0.698
427.69	0.698
427.90	0.697
428.10	0.694
428.31	0.694
428.51	0.696
428.71	0.695
428.92	0.696
429.12	0.693
429.33	0.694
429.53	0.698
429.74	0.702
429.94	0.702
430.15	0.702
430.35	0.702
430.56	0.699
430.76	0.698
430.96	0.699
431.17	0.696
431.37	0.693
431.58	0.692
431.78	0.688
431.99	0.681
432.19	0.683
432.40	0.684
432.60	0.685
432.80	0.688
433.01	0.686
433.21	0.686
433.42	0.687
433.62	0.688
433.83	0.687
434.03	0.690
434.23	0.693
434.44	0.692
434.64	0.689
434.85	0.693
435.05	0.694
435.26	0.695
435.46	0.693
435.66	0.693
435.87	0.692
436.07	0.692
436.28	0.688
436.48	0.685
436.69	0.685
436.89	0.685
437.09	0.680
437.30	0.679
437.50	0.679
437.71	0.690
437.91	0.689
438.11	0.691
438.32	0.695
438.52	0.695
438.73	0.694
438.93	0.692
439.13	0.692
439.34	0.695
439.54	0.693
439.75	0.693
439.95	0.684
440.15	0.688
440.36	0.687
440.56	0.684
440.77	0.685
440.97	0.685
441.17	0.684
441.38	0.684
441.58	0.681
441.79	0.681
441.99	0.679
442.19	0.678
442.40	0.675
442.60	0.675
442.81	0.673
443.01	0.674
443.21	0.674
443.42	0.674
443.62	0.673
443.82	0.672
444.03	0.674
444.23	0.674
444.44	0.674
444.64	0.673
444.84	0.675
445.05	0.673
445.25	0.671
445.45	0.671
445.66	0.673
445.86	0.672
446.06	0.674
446.27	0.673
446.47	0.675
446.68	0.673
446.88	0.672
447.08	0.672
447.29	0.673
447.49	0.673
447.69	0.673
447.90	0.672
448.10	0.675
448.30	0.673
448.51	0.674
448.71	0.672
448.91	0.675
449.12	0.673
449.32	0.675
449.52	0.674
449.73	0.677
449.93	0.676
450.14	0.677
450.34	0.676
450.54	0.678
450.75	0.676
450.95	0.675
451.15	0.674
451.36	0.676
451.56	0.673
451.76	0.672
451.97	0.669
452.17	0.669
452.37	0.667
452.58	0.664
452.78	0.663
452.98	0.665
453.19	0.665
453.39	0.667
453.59	0.665
453.79	0.666
454.00	0.666
454.20	0.666
454.40	0.666
454.61	0.668
454.81	0.669
455.01	0.667
455.22	0.668
455.42	0.669
455.62	0.667
455.83	0.667
456.03	0.670
456.23	0.671
456.44	0.671
456.64	0.671
456.84	0.670
457.04	0.671
457.25	0.670
457.45	0.667
457.65	0.666
457.86	0.667
458.06	0.665
458.26	0.661
458.47	0.660
458.67	0.661
458.87	0.661
459.07	0.659
459.28	0.660
459.48	0.662
459.68	0.662
459.89	0.662
460.09	0.660
460.29	0.661
460.49	0.663
460.70	0.662
460.90	0.662
461.10	0.664
461.31	0.663
461.51	0.661
461.71	0.662
461.91	0.664
462.12	0.664
462.32	0.663
462.52	0.663
462.72	0.665
462.93	0.665
463.13	0.663
463.33	0.664
463.53	0.666
463.74	0.665
463.94	0.661
464.14	0.661
464.35	0.663
464.55	0.663
464.75	0.661
464.95	0.659
465.16	0.661
465.36	0.659
465.56	0.658
465.76	0.657
465.97	0.657
466.17	0.658
466.37	0.656
466.57	0.656
466.78	0.657
466.98	0.658
467.18	0.656
467.38	0.655
467.59	0.656
467.79	0.658
467.99	0.656
468.19	0.657
468.39	0.660
468.60	0.660
468.80	0.659
469.00	0.659
469.20	0.660
469.41	0.660
469.61	0.659
469.81	0.660
470.01	0.660
470.22	0.660
470.42	0.659
470.62	0.657
470.82	0.658
471.02	0.657
471.23	0.655
471.43	0.656
471.63	0.658
471.83	0.658
472.04	0.657
472.24	0.655
472.44	0.661
472.64	0.661
472.84	0.659
473.05	0.659
473.25	0.662
473.45	0.661
473.65	0.659
473.85	0.660
474.06	0.661
474.26	0.661
474.46	0.662
474.66	0.658
474.86	0.659
475.07	0.659
475.27	0.657
475.47	0.655
475.67	0.655
475.87	0.657
476.08	0.654
476.28	0.655
476.48	0.657
476.68	0.655
476.88	0.652
477.09	0.654
477.29	0.655
477.49	0.656
477.69	0.655
477.89	0.655
478.09	0.654
478.30	0.656
478.50	0.654
478.70	0.653
478.90	0.654
479.10	0.657
479.31	0.657
479.51	0.655
479.71	0.656
479.91	0.656
480.11	0.655
480.31	0.655
480.52	0.654
480.72	0.653
480.92	0.652
481.12	0.651
481.32	0.648
481.52	0.647
481.72	0.647
481.93	0.650
482.13	0.651
482.33	0.650
482.53	0.648
482.73	0.650
482.93	0.651
483.14	0.651
483.34	0.650
483.54	0.651
483.74	0.650
483.94	0.648
484.14	0.644
484.34	0.644
484.55	0.645
484.75	0.644
484.95	0.642
485.15	0.642
485.35	0.641
485.55	0.641
485.75	0.639
485.96	0.640
486.16	0.642
486.36	0.642
486.56	0.640
486.76	0.640
486.96	0.640
487.16	0.639
487.36	0.637
487.57	0.637
487.77	0.638
487.97	0.638
488.17	0.636
488.37	0.635
488.57	0.636
488.77	0.636
488.97	0.635
489.18	0.634
489.38	0.637
489.58	0.638
489.78	0.637
489.98	0.637
490.18	0.637
490.38	0.638
490.58	0.636
490.78	0.637
490.98	0.639
491.19	0.639
491.39	0.638
491.59	0.636
491.79	0.639
491.99	0.640
492.19	0.640
492.39	0.643
492.59	0.643
492.79	0.645
492.99	0.645
493.20	0.645
493.40	0.645
493.60	0.647
493.80	0.645
494.00	0.642
494.20	0.642
494.40	0.642
494.60	0.640
494.80	0.644
495.00	0.643
495.20	0.642
495.40	0.640
495.61	0.642
495.81	0.641
496.01	0.645
496.21	0.646
496.41	0.645
496.61	0.646
496.81	0.644
497.01	0.639
497.21	0.639
497.41	0.639
497.61	0.639
497.81	0.637
498.01	0.638
498.21	0.636
498.41	0.634
498.61	0.634
498.82	0.636
499.02	0.638
499.22	0.639
499.42	0.638
499.62	0.640
499.82	0.640
500.02	0.642
500.22	0.640
500.42	0.642
500.62	0.643
500.82	0.643
501.02	0.641
501.22	0.641
501.42	0.641
501.62	0.643
501.82	0.641
502.02	0.641
502.22	0.640
502.42	0.642
502.62	0.639
502.82	0.639
503.02	0.640
503.22	0.640
503.42	0.638
503.63	0.638
503.83	0.636
504.03	0.635
504.23	0.633
504.43	0.634
504.63	0.635
504.83	0.635
505.03	0.634
505.23	0.636
505.43	0.638
505.63	0.639
505.83	0.639
506.03	0.640
506.23	0.643
506.43	0.643
506.63	0.642
506.83	0.641
507.03	0.642
507.23	0.642
507.43	0.639
507.63	0.640
507.83	0.640
508.03	0.640
508.23	0.640
508.43	0.639
508.63	0.640
508.83	0.641
509.03	0.642
509.23	0.641
509.43	0.642
509.63	0.642
509.83	0.641
510.03	0.644
510.23	0.645
510.43	0.646
510.63	0.645
510.83	0.645
511.03	0.647
511.23	0.645
511.43	0.644
511.63	0.645
511.83	0.647
512.03	0.647
512.22	0.643
512.42	0.643
512.62	0.643
512.82	0.644
513.02	0.643
513.22	0.643
513.42	0.644
513.62	0.647
513.82	0.645
514.02	0.645
514.22	0.646
514.42	0.647
514.62	0.647
514.82	0.647
515.02	0.649
515.22	0.652
515.42	0.651
515.62	0.653
515.82	0.652
516.02	0.653
516.22	0.653
516.42	0.655
516.62	0.657
516.82	0.658
517.01	0.656
517.21	0.655
517.41	0.659
517.61	0.659
517.81	0.655
518.01	0.654
518.21	0.654
518.41	0.652
518.61	0.651
518.81	0.651
519.01	0.651
519.21	0.652
519.41	0.651
519.61	0.645
519.81	0.648
520.00	0.648
520.20	0.649
520.40	0.652
520.60	0.653
520.80	0.653
521.00	0.653
521.20	0.654
521.40	0.659
521.60	0.659
521.80	0.659
522.00	0.658
522.20	0.660
522.39	0.660
522.59	0.657
522.79	0.658
522.99	0.661
523.19	0.659
523.39	0.657
523.59	0.655
523.79	0.658
523.99	0.660
524.19	0.660
524.38	0.658
524.58	0.659
524.78	0.660
524.98	0.658
525.18	0.660
525.38	0.661
525.58	0.661
525.78	0.659
525.98	0.657
526.18	0.657
526.37	0.656
526.57	0.658
526.77	0.658
526.97	0.658
527.17	0.658
527.37	0.654
527.57	0.656
527.77	0.657
527.96	0.658
528.16	0.657
528.36	0.658
528.56	0.660
528.76	0.658
528.96	0.657
529.16	0.659
529.36	0.661
529.55	0.662
529.75	0.659
529.95	0.659
530.15	0.661
530.35	0.663
530.55	0.660
530.75	0.661
530.94	0.662
531.14	0.662
531.34	0.662
531.54	0.660
531.74	0.663
531.94	0.666
532.13	0.664
532.33	0.666
532.53	0.664
532.73	0.664
532.93	0.662
533.13	0.663
533.33	0.664
533.52	0.664
533.72	0.667
533.92	0.665
534.12	0.663
534.32	0.663
534.52	0.661
534.71	0.663
534.91	0.666
535.11	0.668
535.31	0.666
535.51	0.668
535.71	0.670
535.90	0.667
536.10	0.668
536.30	0.670
536.50	0.671
536.70	0.671
536.89	0.668
537.09	0.667
537.29	0.669
537.49	0.670
537.69	0.668
537.89	0.670
538.08	0.669
538.28	0.668
538.48	0.668
538.68	0.669
538.88	0.671
539.07	0.671
539.27	0.669
539.47	0.668
539.67	0.668
539.87	0.669
540.06	0.666
540.26	0.667
540.46	0.668
540.66	0.665
540.86	0.664
541.05	0.664
541.25	0.666
541.45	0.666
541.65	0.664
541.84	0.666
542.04	0.667
542.24	0.668
542.44	0.667
542.64	0.669
542.83	0.671
543.03	0.672
543.23	0.669
543.43	0.670
543.62	0.671
543.82	0.671
544.02	0.670
544.22	0.670
544.42	0.673
544.61	0.673
544.81	0.670
545.01	0.670
545.21	0.671
545.40	0.672
545.60	0.670
545.80	0.673
546.00	0.674
546.19	0.673
546.39	0.672
546.59	0.669
546.79	0.671
546.98	0.671
547.18	0.671
547.38	0.671
547.58	0.674
547.77	0.674
547.97	0.670
548.17	0.672
548.37	0.672
548.56	0.673
548.76	0.672
548.96	0.674
549.16	0.676
549.35	0.676
549.55	0.674
549.75	0.673
549.95	0.676
550.14	0.676
550.34	0.675
550.54	0.680
550.73	0.683
550.93	0.683
551.13	0.680
551.33	0.679
551.52	0.680
551.72	0.681
551.92	0.680
552.12	0.681
552.31	0.682
552.51	0.681
552.71	0.677
552.90	0.677
553.10	0.678
553.30	0.678
553.50	0.678
553.69	0.679
553.89	0.679
554.09	0.680
554.28	0.676
554.48	0.677
554.68	0.679
554.87	0.679
555.07	0.676
555.27	0.675
555.47	0.677
555.66	0.677
555.86	0.675
556.06	0.677
556.25	0.679
556.45	0.686
556.65	0.685
556.84	0.688
557.04	0.691
557.24	0.693
557.43	0.693
557.63	0.696
557.83	0.698
558.02	0.699
558.22	0.703
558.42	0.702
558.61	0.695
558.81	0.696
559.01	0.692
559.21	0.692
559.40	0.693
559.60	0.693
559.80	0.689
559.99	0.691
560.19	0.692
560.39	0.686
560.58	0.685
560.78	0.684
560.97	0.688
561.17	0.687
561.37	0.684
561.56	0.685
561.76	0.686
561.96	0.686
562.15	0.683
562.35	0.686
562.55	0.687
562.74	0.687
562.94	0.686
563.14	0.684
563.33	0.684
563.53	0.684
563.73	0.682
563.92	0.683
564.12	0.686
564.31	0.688
564.51	0.687
564.71	0.688
564.90	0.691
565.10	0.692
565.30	0.694
565.49	0.695
565.69	0.698
565.89	0.699
566.08	0.696
566.28	0.698
566.47	0.699
566.67	0.697
566.87	0.694
567.06	0.697
567.26	0.702
567.46	0.699
567.65	0.698
567.85	0.700
568.04	0.702
568.24	0.702
568.44	0.699
568.63	0.697
568.83	0.699
569.02	0.697
569.22	0.692
569.42	0.689
569.61	0.691
569.81	0.689
570.00	0.687
570.20	0.689
570.40	0.690
570.59	0.689
570.79	0.687
570.98	0.685
571.18	0.687
571.38	0.687
571.57	0.683
571.77	0.682
571.96	0.685
572.16	0.683
572.35	0.677
572.55	0.678
572.75	0.676
572.94	0.675
573.14	0.674
573.33	0.674
573.53	0.674
573.73	0.674
573.92	0.672
574.12	0.669
574.31	0.672
574.51	0.673
574.70	0.671
574.90	0.673
575.09	0.676
575.29	0.676
575.49	0.673
575.68	0.674
575.88	0.675
576.07	0.676
576.27	0.674
576.46	0.673
576.66	0.672
576.86	0.671
577.05	0.668
577.25	0.667
577.44	0.668
577.64	0.669
577.83	0.667
578.03	0.669
578.22	0.668
578.42	0.667
578.61	0.666
578.81	0.666
579.00	0.666
579.20	0.666
579.40	0.665
579.59	0.664
579.79	0.663
579.98	0.663
580.18	0.661
580.37	0.662
580.57	0.664
580.76	0.668
580.96	0.666
581.15	0.667
581.35	0.669
581.54	0.669
581.74	0.668
581.93	0.670
582.13	0.672
582.32	0.669
582.52	0.668
582.71	0.667
582.91	0.663
583.10	0.662
583.30	0.661
583.49	0.659
583.69	0.663
583.88	0.664
584.08	0.663
584.27	0.665
584.47	0.668
584.66	0.669
584.86	0.668
585.05	0.671
585.25	0.673
585.44	0.673
585.64	0.672
585.83	0.669
586.03	0.669
586.22	0.667
586.42	0.663
586.61	0.664
586.81	0.666
587.00	0.665
587.20	0.663
587.39	0.664
587.59	0.665
587.78	0.666
587.98	0.667
588.17	0.667
588.37	0.670
588.56	0.672
588.76	0.668
588.95	0.668
589.15	0.673
589.34	0.675
589.54	0.674
589.73	0.675
589.92	0.678
590.12	0.678
590.31	0.677
590.51	0.682
590.70	0.683
590.90	0.684
591.09	0.682
591.29	0.680
591.48	0.680
591.68	0.681
591.87	0.679
592.06	0.678
592.26	0.680
592.45	0.680
592.65	0.673
592.84	0.673
593.04	0.676
593.23	0.678
593.43	0.675
593.62	0.675
593.81	0.675
594.01	0.674
594.20	0.672
594.40	0.671
594.59	0.672
594.79	0.673
594.98	0.672
595.17	0.671
595.37	0.672
595.56	0.674
595.76	0.674
595.95	0.676
596.14	0.680
596.34	0.681
596.53	0.680
596.73	0.682
596.92	0.683
597.12	0.686
597.31	0.686
597.50	0.685
597.70	0.687
597.89	0.686
598.09	0.682
598.28	0.683
598.47	0.685
598.67	0.684
598.86	0.680
599.06	0.682
599.25	0.681
599.44	0.679
599.64	0.676
599.83	0.673
600.03	0.677
600.22	0.678
600.41	0.677
600.61	0.675
600.80	0.677
601.00	0.677
601.19	0.673
601.38	0.672
601.58	0.674
601.77	0.675
601.96	0.677
602.16	0.677
602.35	0.685
602.55	0.683
602.74	0.685
602.93	0.686
603.13	0.692
603.32	0.693
603.51	0.694
603.71	0.697
603.90	0.699
604.09	0.700
604.29	0.697
604.48	0.692
604.68	0.693
604.87	0.692
605.06	0.688
605.26	0.685
605.45	0.685
605.64	0.684
605.84	0.679
606.03	0.678
606.22	0.677
606.42	0.676
606.61	0.672
606.80	0.672
607.00	0.674
607.19	0.674
607.38	0.672
607.58	0.674
607.77	0.676
607.96	0.676
608.16	0.674
608.35	0.679
608.54	0.682
608.74	0.685
608.93	0.690
609.12	0.692
609.32	0.695
609.51	0.699
609.70	0.697
609.90	0.699
610.09	0.705
610.28	0.710
610.48	0.704
610.67	0.705
610.86	0.706
611.06	0.700
611.25	0.698
611.44	0.698
611.64	0.699
611.83	0.702
612.02	0.698
612.21	0.696
612.41	0.695
612.60	0.694
612.79	0.690
612.99	0.690
613.18	0.692
613.37	0.690
613.57	0.688
613.76	0.689
613.95	0.686
614.14	0.686
614.34	0.683
614.53	0.684
614.72	0.687
614.92	0.687
615.11	0.685
615.30	0.682
615.49	0.683
615.69	0.685
615.88	0.682
616.07	0.683
616.26	0.685
616.46	0.686
616.65	0.683
616.84	0.682
617.04	0.683
617.23	0.686
617.42	0.687
617.61	0.691
617.81	0.691
618.00	0.693
618.19	0.692
618.38	0.696
618.58	0.699
618.77	0.701
618.96	0.700
619.15	0.701
619.35	0.703
619.54	0.703
619.73	0.699
619.92	0.701
620.12	0.706
620.31	0.706
620.50	0.701
620.69	0.701
620.89	0.703
621.08	0.704
621.27	0.703
621.46	0.703
621.66	0.707
621.85	0.707
622.04	0.703
622.23	0.704
622.43	0.704
622.62	0.704
622.81	0.703
623.00	0.703
623.19	0.706
623.39	0.705
623.58	0.702
623.77	0.700
623.96	0.703
624.16	0.703
624.35	0.698
624.54	0.701
624.73	0.704
624.92	0.702
625.12	0.699
625.31	0.701
625.50	0.703
625.69	0.704
625.88	0.700
626.08	0.699
626.27	0.700
626.46	0.701
626.65	0.697
626.84	0.697
627.04	0.702
627.23	0.702
627.42	0.697
627.61	0.699
627.80	0.702
628.00	0.703
628.19	0.702
628.38	0.705
628.57	0.706
628.76	0.706
628.96	0.703
629.15	0.704
629.34	0.707
629.53	0.708
629.72	0.703
629.91	0.703
630.11	0.707
630.30	0.707
630.49	0.710
630.68	0.710
630.87	0.713
631.06	0.715
631.26	0.710
631.45	0.711
631.64	0.719
631.83	0.721
632.02	0.718
632.21	0.718
632.41	0.725
632.60	0.720
632.79	0.718
632.98	0.720
633.17	0.721
633.36	0.722
633.55	0.719
633.75	0.716
633.94	0.717
634.13	0.717
634.32	0.714
634.51	0.708
634.70	0.711
634.89	0.710
635.09	0.707
635.28	0.708
635.47	0.710
635.66	0.713
635.85	0.709
636.04	0.711
636.23	0.716
636.43	0.717
636.62	0.716
636.81	0.714
637.00	0.717
637.19	0.720
637.38	0.716
637.57	0.715
637.76	0.715
637.95	0.716
638.15	0.712
638.34	0.707
638.53	0.711
638.72	0.712
638.91	0.710
639.10	0.708
639.29	0.708
639.48	0.710
639.67	0.710
639.87	0.709
640.06	0.714
640.25	0.714
640.44	0.715
640.63	0.716
640.82	0.719
641.01	0.719
641.20	0.719
641.39	0.721
641.58	0.722
641.78	0.721
641.97	0.717
642.16	0.731
642.35	0.733
642.54	0.731
642.73	0.725
642.92	0.722
643.11	0.726
643.30	0.725
643.49	0.720
643.68	0.722
643.87	0.724
644.06	0.723
644.25	0.704
644.45	0.707
644.64	0.708
644.83	0.709
645.02	0.707
645.21	0.705
645.40	0.707
645.59	0.707
645.78	0.702
645.97	0.704
646.16	0.705
646.35	0.704
646.54	0.701
646.73	0.701
646.92	0.703
647.11	0.703
647.30	0.699
647.49	0.700
647.68	0.700
647.88	0.699
648.07	0.692
648.26	0.696
648.45	0.697
648.64	0.695
648.83	0.693
649.02	0.695
649.21	0.705
649.40	0.705
649.59	0.701
649.78	0.702
649.97	0.717
650.16	0.717
650.35	0.711
650.54	0.714
650.73	0.722
650.92	0.718
651.11	0.711
651.30	0.709
651.49	0.712
651.68	0.712
651.87	0.709
652.06	0.698
652.25	0.700
652.44	0.703
652.63	0.701
652.82	0.702
653.01	0.703
653.20	0.702
653.39	0.691
653.58	0.688
653.77	0.688
653.96	0.684
654.15	0.676
654.34	0.674
654.53	0.669
654.72	0.663
654.91	0.654
655.10	0.650
655.29	0.648
655.48	0.646
655.67	0.641
655.86	0.638
656.05	0.636
656.24	0.636
656.43	0.631
656.62	0.630
656.81	0.629
657.00	0.626
657.19	0.622
657.38	0.621
657.57	0.619
657.76	0.621
657.95	0.618
658.14	0.622
658.33	0.623
658.51	0.628
658.70	0.628
658.89	0.630
659.08	0.640
659.27	0.648
659.46	0.649
659.65	0.656
659.84	0.660
660.03	0.664
660.22	0.665
660.41	0.669
660.60	0.669
660.79	0.670
660.98	0.676
661.17	0.675
661.36	0.674
661.55	0.675
661.74	0.673
661.92	0.675
662.11	0.676
662.30	0.675
662.49	0.668
662.68	0.668
662.87	0.671
663.06	0.664
663.25	0.665
663.44	0.667
663.63	0.668
663.82	0.666
664.01	0.662
664.20	0.661
664.38	0.663
664.57	0.663
664.76	0.663
664.95	0.663
665.14	0.668
665.33	0.663
665.52	0.670
665.71	0.674
665.90	0.674
666.09	0.675
666.28	0.673
666.46	0.672
666.65	0.672
666.84	0.670
667.03	0.664
667.22	0.662
667.41	0.665
667.60	0.654
667.79	0.647
667.98	0.649
668.16	0.650
668.35	0.650
668.54	0.646
668.73	0.647
668.92	0.648
669.11	0.648
669.30	0.643
669.49	0.638
669.67	0.640
669.86	0.643
670.05	0.641
670.24	0.637
670.43	0.635
670.62	0.635
670.81	0.629
671.00	0.630
671.18	0.630
671.37	0.629
671.56	0.627
671.75	0.626
671.94	0.623
672.13	0.620
672.32	0.616
672.50	0.616
672.69	0.615
672.88	0.616
673.07	0.612
673.26	0.614
673.45	0.615
673.63	0.615
673.82	0.611
674.01	0.613
674.20	0.613
674.39	0.612
674.58	0.611
674.76	0.610
674.95	0.609
675.14	0.609
675.33	0.605
675.52	0.604
675.71	0.603
675.89	0.603
676.08	0.599
676.27	0.599
676.46	0.600
676.65	0.600
676.84	0.600
677.02	0.601
677.21	0.603
677.40	0.602
677.59	0.600
677.78	0.601
677.96	0.603
678.15	0.603
678.34	0.601
678.53	0.601
678.72	0.600
678.90	0.597
679.09	0.592
679.28	0.589
679.47	0.589
679.66	0.589
679.84	0.585
680.03	0.583
680.22	0.580
680.41	0.582
680.60	0.579
680.78	0.579
680.97	0.581
681.16	0.581
681.35	0.580
681.53	0.579
681.72	0.580
681.91	0.583
682.10	0.582
682.29	0.585
682.47	0.582
682.66	0.581
682.85	0.580
683.04	0.578
683.22	0.578
683.41	0.580
683.60	0.579
683.79	0.579
683.97	0.578
684.16	0.577
684.35	0.573
684.54	0.574
684.72	0.575
684.91	0.575
685.10	0.574
685.29	0.575
685.47	0.572
685.66	0.571
685.85	0.568
686.04	0.568
686.22	0.570
686.41	0.573
686.60	0.570
686.79	0.572
686.97	0.573
687.16	0.575
687.35	0.572
687.54	0.576
687.72	0.579
687.91	0.579
688.10	0.581
688.29	0.581
688.47	0.579
688.66	0.578
688.85	0.574
689.03	0.572
689.22	0.576
689.41	0.576
689.60	0.572
689.78	0.569
689.97	0.570
690.16	0.567
690.34	0.563
690.53	0.563
690.72	0.563
690.91	0.561
691.09	0.559
691.28	0.553
691.47	0.551
691.65	0.550
691.84	0.547
692.03	0.546
692.21	0.543
692.40	0.543
692.59	0.541
692.77	0.540
692.96	0.541
693.15	0.542
693.34	0.539
693.52	0.539
693.71	0.540
693.90	0.541
694.08	0.541
694.27	0.543
694.46	0.552
694.64	0.553
694.83	0.552
695.02	0.551
695.20	0.551
695.39	0.551
695.58	0.551
695.76	0.552
695.95	0.551
696.14	0.551
696.32	0.549
696.51	0.539
696.70	0.539
696.88	0.540
697.07	0.538
697.26	0.540
697.44	0.541
697.63	0.540
697.81	0.538
698.00	0.537
698.19	0.536
698.37	0.535
698.56	0.535
698.75	0.534
698.93	0.533
699.12	0.533
699.31	0.532
699.49	0.532
699.68	0.532
699.87	0.535
700.05	0.536
700.24	0.535
700.42	0.537
700.61	0.536
700.80	0.535
700.98	0.535
701.17	0.537
701.36	0.536
701.54	0.536
701.73	0.536
701.91	0.534
702.10	0.533
702.29	0.531
702.47	0.531
702.66	0.532
702.84	0.533
703.03	0.531
703.22	0.532
703.40	0.531
703.59	0.533
703.77	0.533
703.96	0.533
704.15	0.533
704.33	0.533
704.52	0.532
704.70	0.531
704.89	0.531
705.08	0.530
705.26	0.526
705.45	0.527
705.63	0.526
705.82	0.523
706.00	0.522
706.19	0.522
706.38	0.522
706.56	0.522
706.75	0.520
706.93	0.518
707.12	0.520
707.30	0.520
707.49	0.517
707.68	0.516
707.86	0.515
708.05	0.515
708.23	0.512
708.42	0.513
708.60	0.514
708.79	0.514
708.98	0.513
709.16	0.512
709.35	0.514
709.53	0.518
709.72	0.516
709.90	0.518
710.09	0.519
710.27	0.521
710.46	0.525
710.64	0.524
710.83	0.526
711.02	0.528
711.20	0.527
711.39	0.525
711.57	0.522
711.76	0.524
711.94	0.521
712.13	0.522
712.31	0.522
712.50	0.517
712.68	0.515
712.87	0.516
713.05	0.516
713.24	0.517
713.42	0.516
713.61	0.517
713.79	0.518
713.98	0.519
714.16	0.520
714.35	0.520
714.54	0.521
714.72	0.521
714.91	0.518
715.09	0.524
715.28	0.527
715.46	0.527
715.65	0.525
715.83	0.524
716.02	0.526
716.20	0.522
716.39	0.521
716.57	0.523
716.76	0.525
716.94	0.525
717.12	0.518
717.31	0.519
717.49	0.521
717.68	0.524
717.86	0.523
718.05	0.525
718.23	0.527
718.42	0.530
718.60	0.531
718.79	0.539
718.97	0.541
719.16	0.542
719.34	0.539
719.53	0.538
719.71	0.538
719.90	0.539
720.08	0.537
720.27	0.537
720.45	0.537
720.63	0.535
720.82	0.529
721.00	0.531
721.19	0.534
721.37	0.534
721.56	0.534
721.74	0.537
721.93	0.545
722.11	0.552
722.30	0.551
722.48	0.556
722.66	0.558
722.85	0.558
723.03	0.558
723.22	0.557
723.40	0.559
723.59	0.559
723.77	0.563
723.95	0.556
724.14	0.557
724.32	0.559
724.51	0.558
724.69	0.558
724.88	0.559
725.06	0.557
725.24	0.558
725.43	0.560
725.61	0.562
725.80	0.556
725.98	0.555
726.16	0.551
726.35	0.556
726.53	0.555
726.72	0.555
726.90	0.564
727.09	0.565
727.27	0.570
727.45	0.567
727.64	0.576
727.82	0.585
728.01	0.589
728.19	0.586
728.37	0.591
728.56	0.596
728.74	0.602
728.92	0.591
729.11	0.593
729.29	0.592
729.48	0.594
729.66	0.584
729.84	0.583
730.03	0.587
730.21	0.589
730.40	0.580
730.58	0.580
730.76	0.579
730.95	0.582
731.13	0.583
731.31	0.596
731.50	0.606
731.68	0.609
731.86	0.606
732.05	0.618
732.23	0.620
732.42	0.623
732.60	0.627
732.78	0.632
732.97	0.649
733.15	0.653
733.33	0.643
733.52	0.648
733.70	0.657
733.88	0.667
734.07	0.654
734.25	0.678
734.43	0.686
734.62	0.688
734.80	0.683
734.98	0.673
735.17	0.679
735.35	0.685
735.53	0.675
735.72	0.679
735.90	0.700
736.08	0.719
736.27	0.698
736.45	0.707
736.63	0.718
736.82	0.728
737.00	0.729
737.18	0.740
737.37	0.772
737.55	0.792
737.73	0.786
737.92	0.785
738.10	0.780
738.28	0.798
738.46	0.786
738.65	0.796
738.83	0.814
739.01	0.867
739.20	0.858
739.38	0.838
739.56	0.828
739.75	0.831
739.93	0.800
740.11	0.824
740.29	0.822
740.48	0.827
740.66	0.809
740.84	0.808
741.03	0.770
741.21	0.778
741.39	0.764
741.57	0.777
741.76	0.788
741.94	0.795
742.12	0.765
742.31	0.769
742.49	0.787
742.67	0.810
742.85	0.819
743.04	0.826
743.22	0.835
743.40	0.883
743.58	0.869
743.77	0.891
743.95	0.919
744.13	0.964
744.31	0.948
744.50	0.941
744.68	0.939
744.86	0.923
745.04	0.936
745.23	0.996
745.41	0.976
745.59	0.984
745.77	0.948
745.96	0.943
746.14	0.952
746.32	0.953
746.50	0.945
746.69	0.928
746.87	0.930
747.05	0.912
747.23	0.842
747.42	0.826
747.60	0.846
747.78	0.847
747.96	0.868
748.14	0.826
748.33	0.849
748.51	0.845
748.69	0.840
748.87	0.867
749.06	0.861
749.24	0.860
749.42	0.852
749.60	0.834
749.78	0.844
749.97	0.805
750.15	0.798
750.33	0.801
750.51	0.822
750.69	0.828
750.88	0.831
751.06	0.842
751.24	0.866
751.42	0.855
751.60	0.848
751.79	0.915
751.97	0.956
752.15	0.959
752.33	0.929
752.51	0.985
752.69	0.994
752.88	0.968
753.06	1.011
753.24	0.991
753.42	1.023
753.60	1.179
753.78	1.047
753.97	1.066
754.15	1.085
754.33	1.112
754.51	1.000
754.69	0.989
754.87	1.014
755.06	0.951
755.24	0.953
755.42	0.959
755.60	0.868
755.78	0.880
755.96	0.827
756.15	0.824
756.33	0.829
756.51	0.850
756.69	0.838
756.87	0.806
757.05	0.822
757.23	0.807
757.42	0.774
757.60	0.771
757.78	0.760
757.96	0.761
758.14	0.747
758.32	0.733
758.50	0.742
758.69	0.739
758.87	0.732
759.05	0.734
759.23	0.742
759.41	0.747
759.59	0.738
759.77	0.757
759.95	0.780
760.13	0.824
760.32	0.822
760.50	0.817
760.68	0.840
760.86	0.842
761.04	0.818
761.22	0.824
761.40	0.867
761.58	0.871
761.76	0.844
761.95	0.825
762.13	0.784
762.31	0.787
762.49	0.759
762.67	0.772
762.85	0.783
763.03	0.779
763.21	0.762
763.39	0.742
763.57	0.744
763.75	0.742
763.94	0.729
764.12	0.732
764.30	0.754
764.48	0.757
764.66	0.725
764.84	0.723
765.02	0.758
765.20	0.766
765.38	0.750
765.56	0.755
765.74	0.792
765.92	0.794
766.10	0.800
766.28	0.792
766.46	0.819
766.65	0.822
766.83	0.813
767.01	0.795
767.19	0.797
767.37	0.796
767.55	0.784
767.73	0.766
767.91	0.768
768.09	0.757
768.27	0.748
768.45	0.739
768.63	0.740
768.81	0.741
768.99	0.717
769.17	0.739
769.35	0.751
769.53	0.751
769.71	0.734
769.89	0.743
770.07	0.750
770.25	0.734
770.43	0.717
770.61	0.741
770.79	0.744
770.97	0.756
771.15	0.727
771.33	0.731
771.51	0.732
771.69	0.740
771.87	0.748
772.05	0.751
772.24	0.758
772.42	0.763
772.60	0.744
772.78	0.804
772.96	0.830
773.14	0.827
773.32	0.808
773.49	0.815
773.67	0.813
773.85	0.794
774.03	0.785
774.21	0.813
774.39	0.825
774.57	0.844
774.75	0.775
774.93	0.769
775.11	0.789
775.29	0.796
775.47	0.795
775.65	0.805
775.83	0.818
776.01	0.838
776.19	0.796
776.37	0.795
776.55	0.795
776.73	0.790
776.91	0.786
777.09	0.772
777.27	0.766
777.45	0.757
777.63	0.735
777.81	0.732
777.99	0.718
778.17	0.716
778.35	0.698
778.53	0.685
778.71	0.693
778.89	0.680
779.07	0.670
779.24	0.676
779.42	0.677
779.60	0.693
779.78	0.689
779.96	0.694
780.14	0.700
780.32	0.721
780.50	0.708
780.68	0.705
780.86	0.697
781.04	0.712
781.22	0.715
781.40	0.723
781.58	0.715
781.75	0.708
781.93	0.694
782.11	0.695
782.29	0.681
782.47	0.679
782.65	0.668
782.83	0.692
783.01	0.684
783.19	0.679
783.37	0.667
783.55	0.671
783.72	0.688
783.90	0.699
784.08	0.692
784.26	0.702
784.44	0.720
784.62	0.724
784.80	0.697
784.98	0.705
785.16	0.710
785.33	0.725
785.51	0.710
785.69	0.696
785.87	0.693
786.05	0.703
786.23	0.701
786.41	0.696
786.59	0.702
786.77	0.701
786.94	0.691
787.12	0.693
787.30	0.694
787.48	0.693
787.66	0.685
787.84	0.687
788.02	0.679
788.19	0.679
788.37	0.666
788.55	0.668
788.73	0.668
788.91	0.663
789.09	0.649
789.27	0.637
789.44	0.646
789.62	0.651
789.80	0.657
789.98	0.680
790.16	0.666
790.34	0.666
790.51	0.651
790.69	0.671
790.87	0.674
791.05	0.672
791.23	0.668
791.41	0.672
791.58	0.678
791.76	0.660
791.94	0.632
792.12	0.641
792.30	0.642
792.48	0.641
792.65	0.633
792.83	0.641
793.01	0.648
793.19	0.647
793.37	0.631
793.54	0.627
793.72	0.637
793.90	0.636
794.08	0.626
794.26	0.625
794.43	0.633
794.61	0.617
794.79	0.606
794.97	0.605
795.15	0.609
795.32	0.613
795.50	0.605
795.68	0.599
795.86	0.602
796.04	0.604
796.21	0.600
796.39	0.600
796.57	0.613
796.75	0.620
796.92	0.622
797.10	0.625
797.28	0.626
797.46	0.629
797.64	0.630
797.81	0.638
797.99	0.639
798.17	0.643
798.35	0.637
798.52	0.641
798.70	0.637
798.88	0.644
799.06	0.644
799.23	0.647
799.41	0.655
799.59	0.650
799.77	0.640
799.94	0.649
800.12	0.655
800.30	0.673
800.48	0.671
800.65	0.672
800.83	0.663
801.01	0.655
801.19	0.655
801.36	0.650
801.54	0.652
801.72	0.661
801.90	0.649
802.07	0.647
802.25	0.633
802.43	0.618
802.60	0.614
802.78	0.622
802.96	0.626
803.14	0.621
803.31	0.621
803.49	0.621
803.67	0.618
803.84	0.620
804.02	0.611
804.20	0.615
804.38	0.620
804.55	0.620
804.73	0.605
804.91	0.605
805.08	0.615
805.26	0.611
805.44	0.672
805.61	0.673
805.79	0.674
805.97	0.677
806.15	0.669
806.32	0.663
806.50	0.666
806.68	0.666
806.85	0.659
807.03	0.651
807.21	0.667
807.38	0.604
807.56	0.596
807.74	0.604
807.91	0.608
808.09	0.611
808.27	0.629
808.44	0.656
808.62	0.663
808.80	0.665
808.97	0.660
809.15	0.654
809.33	0.668
809.50	0.674
809.68	0.662
809.86	0.670
810.03	0.698
810.21	0.677
810.39	0.658
810.56	0.665
810.74	0.686
810.91	0.754
811.09	0.744
811.27	0.765
811.44	0.770
811.62	0.771
811.80	0.754
811.97	0.726
812.15	0.730
812.33	0.726
812.50	0.711
812.68	0.702
812.85	0.648
813.03	0.650
813.21	0.620
813.38	0.614
813.56	0.615
813.74	0.627
813.91	0.633
814.09	0.657
814.26	0.650
814.44	0.656
814.62	0.645
814.79	0.650
814.97	0.653
815.14	0.658
815.32	0.666
815.50	0.682
815.67	0.685
815.85	0.678
816.02	0.670
816.20	0.679
816.38	0.690
816.55	0.698
816.73	0.695
816.90	0.707
817.08	0.735
817.26	0.735
817.43	0.717
817.61	0.740
817.78	0.759
817.96	0.739
818.13	0.727
818.31	0.730
818.49	0.739
818.66	0.731
818.84	0.715
819.01	0.696
819.19	0.701
819.36	0.703
819.54	0.674
819.71	0.711
819.89	0.720
820.07	0.732
820.24	0.725
820.42	0.727
820.59	0.742
820.77	0.764
820.94	0.754
821.12	0.770
821.29	0.784
821.47	0.786
821.64	0.730
821.82	0.744
822.00	0.742
822.17	0.738
822.35	0.730
822.52	0.734
822.70	0.723
822.87	0.731
823.05	0.712
823.22	0.721
823.40	0.744
823.57	0.765
823.75	0.748
823.92	0.768
824.10	0.788
824.27	0.825
824.45	0.818
824.62	0.873
824.80	0.890
824.97	0.902
825.15	0.893
825.32	0.905
825.50	0.903
825.67	0.914
825.85	0.889
826.02	0.902
826.20	0.916
826.37	1.021
826.55	0.951
826.72	1.105
826.90	1.175
827.07	1.225
827.25	1.176
827.42	1.304
827.60	1.409
827.77	1.554
827.95	1.537
828.12	1.628
828.30	1.334
828.47	1.440
828.65	1.146
828.82	1.177
829.00	1.211
829.17	1.262
829.34	1.245
829.52	1.282
829.69	-0.000
829.87	-0.000
830.04	-0.000
830.22	-0.000
830.39	-0.000
830.57	-0.000
830.74	-0.000
830.92	-0.000
831.09	-0.000
831.26	-0.000
831.44	-0.000
831.61	-0.000
831.79	-0.000
831.96	-0.000
832.14	-0.000
832.31	-0.000
832.49	-0.000
832.66	-0.000
832.83	-0.000
833.01	-0.000
833.18	-0.000
833.36	-0.000
833.53	-0.000
833.70	-0.000
833.88	-0.000
834.05	-0.000
834.23	-0.000
834.40	-0.000
834.58	-0.000
834.75	-0.000
834.92	-0.000
835.10	-0.000
835.27	-0.000
835.45	-0.000
835.62	-0.000
835.79	-0.000
835.97	-0.000
836.14	-0.000
836.32	-0.000
836.49	-0.000
836.66	-0.000
836.84	-0.000
837.01	-0.000
837.18	-0.000
837.36	-0.000
837.53	-0.000
837.71	-0.000
837.88	-0.000
838.05	-0.000
838.23	-0.000
838.40	-0.000
838.58	-0.000
838.75	-0.000
838.92	-0.000
839.10	-0.000
839.27	-0.000
839.44	-0.000
839.62	-0.000
839.79	-0.000
839.96	-0.000
840.14	-0.000
840.31	-0.000
840.48	-0.000
840.66	-0.000
840.83	-0.000
841.01	-0.000
841.18	-0.000
841.35	-0.000
841.53	-0.000
841.70	-0.000
841.87	-0.000
842.05	-0.000
842.22	-0.000
842.39	-0.000
842.57	-0.000
842.74	-0.000
842.91	-0.000
843.09	-0.000
843.26	-0.000
843.43	-0.000
843.60	-0.000
843.78	-0.000
843.95	-0.000
844.12	-0.000
844.30	-0.000
844.47	-0.000
844.64	-0.000
844.82	-0.000
844.99	-0.000
845.16	-0.000
845.34	-0.000
845.51	-0.000
845.68	-0.000
845.85	-0.000
846.03	-0.000
846.20	-0.000
846.37	-0.000
846.55	-0.000
846.72	-0.000
846.89	-0.000
847.06	-0.000
847.24	-0.000
847.41	-0.000
847.58	-0.000
847.76	-0.000
847.93	-0.000
848.10	-0.000
848.27	-0.000
848.45	-0.000
848.62	-0.000
848.79	-0.000
848.97	-0.000
849.14	-0.000
849.31	-0.000
849.48	-0.000
849.66	-0.000
849.83	-0.000
850.00	-0.000
850.17	-0.000
850.35	-0.000
850.52	-0.000
850.69	-0.000
850.86	-0.000
851.04	-0.000
851.21	-0.000
851.38	-0.000
851.55	-0.000
851.72	-0.000
851.90	-0.000
852.07	-0.000
852.24	-0.000
852.41	-0.000
852.59	-0.000
852.76	-0.000
852.93	-0.000
853.10	-0.000
853.28	-0.000
853.45	-0.000
853.62	-0.000
853.79	-0.000
853.96	-0.000
854.14	-0.000
854.31	-0.000
854.48	-0.000
854.65	-0.000
854.82	-0.000
855.00	-0.000
855.17	-0.000
855.34	-0.000
855.51	-0.000
855.68	-0.000
855.86	-0.000
856.03	-0.000
856.20	-0.000
856.37	-0.000
856.54	-0.000
856.72	-0.000
856.89	-0.000
857.06	-0.000
857.23	-0.000
857.40	-0.000
857.57	-0.000
857.75	-0.000
857.92	-0.000
858.09	-0.000
858.26	-0.000
858.43	-0.000
858.60	-0.000
858.78	-0.000
858.95	-0.000
859.12	-0.000
859.29	-0.000
859.46	-0.000
859.63	-0.000
859.81	-0.000
859.98	-0.000
860.15	-0.000
860.32	-0.000
860.49	-0.000
860.66	-0.000
860.83	-0.000
861.01	-0.000
861.18	-0.000
861.35	-0.000
861.52	-0.000
861.69	-0.000
861.86	-0.000
862.03	-0.000
862.21	-0.000
862.38	-0.000
862.55	-0.000
862.72	-0.000
862.89	-0.000
863.06	-0.000
863.23	-0.000
863.40	-0.000
863.58	-0.000
863.75	-0.000
863.92	-0.000
864.09	-0.000
864.26	-0.000
864.43	-0.000
864.60	-0.000
864.77	-0.000
864.94	-0.000
865.11	-0.000
865.29	-0.000
865.46	-0.000
865.63	-0.000
865.80	-0.000
865.97	-0.000
866.14	-0.000
866.31	-0.000
866.48	-0.000
866.65	-0.000
866.82	-0.000
866.99	-0.000
867.16	-0.000
867.34	-0.000
867.51	-0.000
867.68	-0.000
867.85	-0.000
868.02	-0.000
868.19	-0.000
868.36	-0.000
868.53	-0.000
868.70	-0.000
868.87	-0.000
869.04	-0.000
869.21	-0.000
869.38	-0.000
869.55	-0.000
869.72	-0.000
869.89	-0.000
870.06	-0.000
870.24	-0.000
870.41	-0.000
870.58	-0.000
870.75	-0.000
870.92	-0.000
871.09	-0.000
871.26	-0.000
871.43	-0.000
871.60	-0.000
871.77	-0.000
871.94	-0.000
872.11	-0.000
872.28	-0.000
872.45	-0.000
872.62	-0.000
872.79	-0.000
872.96	-0.000
873.13	-0.000
873.30	-0.000
873.47	-0.000
873.64	-0.000
873.81	-0.000
873.98	-0.000
874.15	-0.000
874.32	-0.000
874.49	-0.000
874.66	-0.000
874.83	-0.000
875.00	-0.000
875.17	-0.000
875.34	-0.000
875.51	-0.000
875.68	-0.000
875.85	-0.000
876.02	-0.000
876.19	-0.000
876.36	-0.000
876.53	-0.000
876.70	-0.000
876.87	-0.000
877.04	-0.000
877.21	-0.000
877.38	-0.000
877.55	-0.000
877.72	-0.000
877.89	-0.000
878.06	-0.000
878.23	-0.000
878.39	-0.000
878.56	-0.000
878.73	-0.000
878.90	-0.000
879.07	-0.000
879.24	-0.000
879.41	-0.000
879.58	-0.000
879.75	-0.000
879.92	-0.000
880.09	-0.000
880.26	-0.000
880.43	-0.000
880.60	-0.000
880.77	-0.000
880.94	-0.000
881.11	-0.000
881.27	-0.000
881.44	-0.000
881.61	-0.000
881.78	-0.000
881.95	-0.000
882.12	-0.000
882.29	-0.000
882.46	-0.000
882.63	-0.000
882.80	-0.000
882.97	-0.000
883.14	-0.000
883.30	-0.000
883.47	-0.000
883.64	-0.000
883.81	-0.000
883.98	-0.000
884.15	-0.000
884.32	-0.000
884.49	-0.000
884.66	-0.000
884.82	-0.000
884.99	-0.000
885.16	-0.000
885.33	-0.000
885.50	-0.000
885.67	-0.000
885.84	-0.000
886.01	-0.000
886.17	-0.000
886.34	-0.000
886.51	-0.000
886.68	-0.000
886.85	-0.000
887.02	-0.000
887.19	-0.000
887.36	-0.000
887.52	-0.000
887.69	-0.000
887.86	-0.000
888.03	-0.000
888.20	-0.000
888.37	-0.000
888.54	-0.000
888.70	-0.000
888.87	-0.000
889.04	-0.000
889.21	-0.000
889.38	-0.000
889.55	-0.000
889.71	-0.000
889.88	-0.000
890.05	-0.000
890.22	-0.000
890.39	-0.000
>>>>>End Processed Spectral Data<<<<<
