SpectraSuite Data File
++++++++++++++++++++++++++++++++++++
Date: Fri Jun 19 15:20:31 CEST 2015
User: introlabs
Dark Spectrum Present: Yes
Reference Spectrum Present: Yes
Number of Sampled Component Spectra: 1
Spectrometers: USB4H08886
Integration Time (usec): 745692 (USB4H08886)
Spectra Averaged: 5 (USB4H08886)
Boxcar Smoothing: 5 (USB4H08886)
Correct for Electrical Dark: Yes (USB4H08886)
Strobe/Lamp Enabled: No (USB4H08886)
Correct for Detector Non-linearity: Yes (USB4H08886)
Correct for Stray Light: Yes (USB4H08886)
Number of Pixels in Processed Spectrum: 3648
>>>>>Begin Processed Spectral Data<<<<<
178.14	-0.000
178.36	-0.000
178.57	-0.000
178.79	-0.000
179.01	-0.000
179.22	-0.000
179.44	-0.000
179.65	-0.000
179.87	-0.000
180.08	-0.000
180.30	-0.000
180.52	-0.000
180.73	-0.000
180.95	-0.000
181.16	-0.000
181.38	-0.000
181.59	-0.000
181.81	-0.000
182.03	-0.000
182.24	-0.000
182.46	-0.000
182.67	-0.000
182.89	-0.000
183.10	-0.000
183.32	-0.000
183.54	-0.000
183.75	-0.000
183.97	-0.000
184.18	-0.000
184.40	-0.000
184.61	-0.000
184.83	-0.000
185.04	-0.000
185.26	-0.000
185.48	-0.000
185.69	-0.000
185.91	-0.000
186.12	-0.000
186.34	-0.000
186.55	-0.000
186.77	-0.000
186.98	-0.000
187.20	-0.000
187.42	-0.000
187.63	-0.000
187.85	-0.000
188.06	-0.000
188.28	-0.000
188.49	-0.000
188.71	-0.000
188.92	-0.000
189.14	-0.000
189.36	-0.000
189.57	-0.000
189.79	-0.000
190.00	-0.000
190.22	-0.000
190.43	-0.000
190.65	-0.000
190.86	-0.000
191.08	-0.000
191.29	-0.000
191.51	-0.000
191.72	-0.000
191.94	-0.000
192.16	-0.000
192.37	-0.000
192.59	-0.000
192.80	-0.000
193.02	-0.000
193.23	-0.000
193.45	-0.000
193.66	-0.000
193.88	-0.000
194.09	-0.000
194.31	-0.000
194.52	-0.000
194.74	-0.000
194.95	-0.000
195.17	-0.000
195.38	-0.000
195.60	-0.000
195.81	-0.000
196.03	-0.000
196.25	-0.000
196.46	-0.000
196.68	-0.000
196.89	-0.000
197.11	-0.000
197.32	-0.000
197.54	-0.000
197.75	-0.000
197.97	-0.000
198.18	-0.000
198.40	-0.000
198.61	-0.000
198.83	-0.000
199.04	-0.000
199.26	-0.000
199.47	-0.000
199.69	-0.000
199.90	-0.000
200.12	-0.000
200.33	-0.000
200.55	-0.000
200.76	-0.000
200.98	-0.000
201.19	-0.000
201.41	-0.000
201.62	-0.000
201.84	-0.000
202.05	-0.000
202.27	-0.000
202.48	-0.000
202.70	-0.000
202.91	-0.000
203.13	-0.000
203.34	-0.000
203.56	-0.000
203.77	-0.000
203.99	-0.000
204.20	-0.000
204.42	-0.000
204.63	-0.000
204.85	-0.000
205.06	-0.000
205.28	-0.000
205.49	-0.000
205.71	-0.000
205.92	-0.000
206.14	-0.000
206.35	-0.000
206.56	-0.000
206.78	-0.000
206.99	-0.000
207.21	-0.000
207.42	-0.000
207.64	-0.000
207.85	-0.000
208.07	-0.000
208.28	-0.000
208.50	-0.000
208.71	-0.000
208.93	-0.000
209.14	-0.000
209.36	-0.000
209.57	-0.000
209.79	-0.000
210.00	-0.000
210.22	-0.000
210.43	-0.000
210.64	-0.000
210.86	-0.000
211.07	-0.000
211.29	-0.000
211.50	-0.000
211.72	-0.000
211.93	-0.000
212.15	-0.000
212.36	-0.000
212.58	-0.000
212.79	-0.000
213.01	-0.000
213.22	-0.000
213.43	-0.000
213.65	-0.000
213.86	-0.000
214.08	-0.000
214.29	-0.000
214.51	-0.000
214.72	-0.000
214.94	-0.000
215.15	-0.000
215.36	-0.000
215.58	-0.000
215.79	-0.000
216.01	-0.000
216.22	-0.000
216.44	-0.000
216.65	-0.000
216.87	-0.000
217.08	-0.000
217.29	-0.000
217.51	-0.000
217.72	-0.000
217.94	-0.000
218.15	-0.000
218.37	-0.000
218.58	-0.000
218.80	-0.000
219.01	-0.000
219.22	-0.000
219.44	-0.000
219.65	-0.000
219.87	-0.000
220.08	-0.000
220.30	-0.000
220.51	-0.000
220.72	-0.000
220.94	-0.000
221.15	-0.000
221.37	-0.000
221.58	-0.000
221.79	-0.000
222.01	-0.000
222.22	-0.000
222.44	-0.000
222.65	-0.000
222.87	-0.000
223.08	-0.000
223.29	-0.000
223.51	-0.000
223.72	-0.000
223.94	-0.000
224.15	-0.000
224.36	-0.000
224.58	-0.000
224.79	-0.000
225.01	-0.000
225.22	-0.000
225.44	-0.000
225.65	-0.000
225.86	-0.000
226.08	-0.000
226.29	-0.000
226.51	-0.000
226.72	-0.000
226.93	-0.000
227.15	-0.000
227.36	-0.000
227.58	-0.000
227.79	-0.000
228.00	-0.000
228.22	-0.000
228.43	-0.000
228.65	-0.000
228.86	-0.000
229.07	-0.000
229.29	-0.000
229.50	-0.000
229.72	-0.000
229.93	-0.000
230.14	-0.000
230.36	-0.000
230.57	-0.000
230.78	-0.000
231.00	-0.000
231.21	-0.000
231.43	-0.000
231.64	-0.000
231.85	-0.000
232.07	-0.000
232.28	-0.000
232.50	-0.000
232.71	-0.000
232.92	-0.000
233.14	-0.000
233.35	-0.000
233.56	-0.000
233.78	-0.000
233.99	-0.000
234.21	-0.000
234.42	-0.000
234.63	-0.000
234.85	-0.000
235.06	-0.000
235.27	-0.000
235.49	-0.000
235.70	-0.000
235.91	-0.000
236.13	-0.000
236.34	-0.000
236.56	-0.000
236.77	-0.000
236.98	-0.000
237.20	-0.000
237.41	-0.000
237.62	-0.000
237.84	-0.000
238.05	-0.000
238.26	-0.000
238.48	-0.000
238.69	-0.000
238.91	-0.000
239.12	-0.000
239.33	-0.000
239.55	-0.000
239.76	-0.000
239.97	-0.000
240.19	-0.000
240.40	-0.000
240.61	-0.000
240.83	-0.000
241.04	-0.000
241.25	-0.000
241.47	-0.000
241.68	-0.000
241.89	-0.000
242.11	-0.000
242.32	-0.000
242.53	-0.000
242.75	-0.000
242.96	-0.000
243.17	-0.000
243.39	-0.000
243.60	-0.000
243.81	-0.000
244.03	-0.000
244.24	-0.000
244.45	-0.000
244.67	-0.000
244.88	-0.000
245.09	-0.000
245.31	-0.000
245.52	-0.000
245.73	-0.000
245.95	-0.000
246.16	-0.000
246.37	-0.000
246.59	-0.000
246.80	-0.000
247.01	-0.000
247.23	-0.000
247.44	-0.000
247.65	-0.000
247.87	-0.000
248.08	-0.000
248.29	-0.000
248.51	-0.000
248.72	-0.000
248.93	-0.000
249.15	-0.000
249.36	-0.000
249.57	-0.000
249.78	-0.000
250.00	-0.000
250.21	-0.000
250.42	-0.000
250.64	-0.000
250.85	-0.000
251.06	-0.000
251.28	-0.000
251.49	-0.000
251.70	-0.000
251.92	-0.000
252.13	-0.000
252.34	-0.000
252.55	-0.000
252.77	-0.000
252.98	-0.000
253.19	-0.000
253.41	-0.000
253.62	-0.000
253.83	-0.000
254.05	-0.000
254.26	-0.000
254.47	-0.000
254.68	-0.000
254.90	-0.000
255.11	-0.000
255.32	-0.000
255.54	-0.000
255.75	-0.000
255.96	-0.000
256.17	-0.000
256.39	-0.000
256.60	-0.000
256.81	-0.000
257.03	-0.000
257.24	-0.000
257.45	-0.000
257.66	-0.000
257.88	-0.000
258.09	-0.000
258.30	-0.000
258.51	-0.000
258.73	-0.000
258.94	-0.000
259.15	-0.000
259.37	-0.000
259.58	-0.000
259.79	-0.000
260.00	-0.000
260.22	-0.000
260.43	-0.000
260.64	-0.000
260.85	-0.000
261.07	-0.000
261.28	-0.000
261.49	-0.000
261.71	-0.000
261.92	-0.000
262.13	-0.000
262.34	-0.000
262.56	-0.000
262.77	-0.000
262.98	-0.000
263.19	-0.000
263.41	-0.000
263.62	-0.000
263.83	-0.000
264.04	-0.000
264.26	-0.000
264.47	-0.000
264.68	-0.000
264.89	-0.000
265.11	-0.000
265.32	-0.000
265.53	-0.000
265.74	-0.000
265.96	-0.000
266.17	-0.000
266.38	-0.000
266.59	-0.000
266.81	-0.000
267.02	-0.000
267.23	-0.000
267.44	-0.000
267.65	-0.000
267.87	-0.000
268.08	-0.000
268.29	-0.000
268.50	-0.000
268.72	-0.000
268.93	-0.000
269.14	-0.000
269.35	-0.000
269.57	-0.000
269.78	-0.000
269.99	-0.000
270.20	-0.000
270.41	-0.000
270.63	-0.000
270.84	-0.000
271.05	-0.000
271.26	-0.000
271.48	-0.000
271.69	-0.000
271.90	-0.000
272.11	-0.000
272.32	-0.000
272.54	-0.000
272.75	-0.000
272.96	-0.000
273.17	-0.000
273.39	-0.000
273.60	-0.000
273.81	-0.000
274.02	-0.000
274.23	-0.000
274.45	-0.000
274.66	-0.000
274.87	-0.000
275.08	-0.000
275.29	-0.000
275.51	-0.000
275.72	-0.000
275.93	-0.000
276.14	-0.000
276.35	-0.000
276.57	-0.000
276.78	-0.000
276.99	-0.000
277.20	-0.000
277.41	-0.000
277.63	-0.000
277.84	-0.000
278.05	-0.000
278.26	-0.000
278.47	-0.000
278.69	-0.000
278.90	-0.000
279.11	-0.000
279.32	-0.000
279.53	-0.000
279.74	-0.000
279.96	-0.000
280.17	-0.000
280.38	-0.000
280.59	-0.000
280.80	-0.000
281.02	-0.000
281.23	-0.000
281.44	-0.000
281.65	-0.000
281.86	-0.000
282.07	-0.000
282.29	-0.000
282.50	-0.000
282.71	-0.000
282.92	-0.000
283.13	-0.000
283.35	-0.000
283.56	-0.000
283.77	-0.000
283.98	-0.000
284.19	-0.000
284.40	-0.000
284.62	-0.000
284.83	-0.000
285.04	-0.000
285.25	-0.000
285.46	-0.000
285.67	-0.000
285.88	-0.000
286.10	-0.000
286.31	-0.000
286.52	-0.000
286.73	-0.000
286.94	-0.000
287.15	-0.000
287.37	-0.000
287.58	-0.000
287.79	-0.000
288.00	-0.000
288.21	-0.000
288.42	-0.000
288.63	-0.000
288.85	-0.000
289.06	-0.000
289.27	-0.000
289.48	-0.000
289.69	-0.000
289.90	-0.000
290.11	-0.000
290.33	-0.000
290.54	-0.000
290.75	-0.000
290.96	-0.000
291.17	-0.000
291.38	-0.000
291.59	-0.000
291.81	-0.000
292.02	-0.000
292.23	-0.000
292.44	-0.000
292.65	-0.000
292.86	-0.000
293.07	-0.000
293.28	-0.000
293.50	-0.000
293.71	-0.000
293.92	-0.000
294.13	-0.000
294.34	-0.000
294.55	-0.000
294.76	-0.000
294.97	-0.000
295.19	-0.000
295.40	-0.000
295.61	-0.000
295.82	-0.000
296.03	2.908
296.24	3.526
296.45	1.984
296.66	1.710
296.87	1.729
297.09	1.784
297.30	1.956
297.51	1.668
297.72	1.635
297.93	1.699
298.14	1.672
298.35	1.633
298.56	1.612
298.77	1.698
298.99	1.677
299.20	1.676
299.41	1.657
299.62	1.610
299.83	1.592
300.04	1.545
300.25	1.537
300.46	1.572
300.67	1.552
300.88	1.503
301.10	1.514
301.31	1.575
301.52	1.505
301.73	1.455
301.94	1.458
302.15	1.474
302.36	1.434
302.57	1.387
302.78	1.391
302.99	1.427
303.20	1.445
303.41	1.360
303.63	1.340
303.84	1.354
304.05	1.348
304.26	1.298
304.47	1.303
304.68	1.304
304.89	1.291
305.10	1.259
305.31	1.248
305.52	1.287
305.73	1.283
305.94	1.249
306.15	1.238
306.37	1.260
306.58	1.269
306.79	1.241
307.00	1.264
307.21	1.302
307.42	1.293
307.63	1.259
307.84	1.230
308.05	1.266
308.26	1.272
308.47	1.251
308.68	1.246
308.89	1.237
309.10	1.236
309.31	1.198
309.52	1.187
309.73	1.199
309.95	1.194
310.16	1.165
310.37	1.153
310.58	1.167
310.79	1.165
311.00	1.163
311.21	1.167
311.42	1.169
311.63	1.164
311.84	1.151
312.05	1.150
312.26	1.169
312.47	1.182
312.68	1.161
312.89	1.144
313.10	1.147
313.31	1.122
313.52	1.129
313.73	1.128
313.94	1.128
314.15	1.111
314.36	1.092
314.57	1.088
314.78	1.075
314.99	1.069
315.21	1.060
315.42	1.068
315.63	1.079
315.84	1.057
316.05	1.045
316.26	1.052
316.47	1.068
316.68	1.067
316.89	1.046
317.10	1.067
317.31	1.071
317.52	1.073
317.73	1.053
317.94	1.051
318.15	1.089
318.36	1.089
318.57	1.074
318.78	1.064
318.99	1.095
319.20	1.094
319.41	1.062
319.62	1.065
319.83	1.078
320.04	1.072
320.25	1.060
320.46	1.027
320.67	1.029
320.88	1.024
321.09	1.012
321.30	0.999
321.51	1.012
321.72	1.010
321.93	0.993
322.14	0.985
322.35	1.010
322.56	1.014
322.77	1.003
322.98	1.015
323.19	1.023
323.40	1.029
323.61	1.011
323.82	1.005
324.03	1.009
324.24	1.007
324.45	0.996
324.66	0.977
324.87	0.972
325.08	0.972
325.29	0.954
325.50	0.947
325.71	0.951
325.92	0.957
326.13	0.945
326.34	0.945
326.55	0.953
326.76	0.951
326.97	0.943
327.18	0.937
327.39	0.960
327.60	0.962
327.80	0.964
328.01	0.963
328.22	0.962
328.43	0.966
328.64	0.956
328.85	0.961
329.06	0.963
329.27	0.962
329.48	0.959
329.69	0.939
329.90	0.949
330.11	0.941
330.32	0.935
330.53	0.929
330.74	0.927
330.95	0.926
331.16	0.911
331.37	0.919
331.58	0.917
331.79	0.916
332.00	0.909
332.21	0.901
332.42	0.902
332.63	0.894
332.83	0.891
333.04	0.893
333.25	0.904
333.46	0.902
333.67	0.889
333.88	0.893
334.09	0.902
334.30	0.899
334.51	0.893
334.72	0.889
334.93	0.891
335.14	0.889
335.35	0.882
335.56	0.878
335.77	0.885
335.98	0.884
336.18	0.879
336.39	0.872
336.60	0.875
336.81	0.873
337.02	0.873
337.23	0.877
337.44	0.880
337.65	0.882
337.86	0.874
338.07	0.870
338.28	0.874
338.49	0.871
338.70	0.864
338.91	0.870
339.11	0.876
339.32	0.872
339.53	0.862
339.74	0.859
339.95	0.854
340.16	0.851
340.37	0.844
340.58	0.843
340.79	0.846
341.00	0.846
341.21	0.836
341.41	0.835
341.62	0.837
341.83	0.838
342.04	0.834
342.25	0.845
342.46	0.848
342.67	0.847
342.88	0.841
343.09	0.841
343.30	0.847
343.50	0.851
343.71	0.841
343.92	0.840
344.13	0.844
344.34	0.844
344.55	0.828
344.76	0.827
344.97	0.830
345.18	0.828
345.38	0.826
345.59	0.820
345.80	0.819
346.01	0.818
346.22	0.814
346.43	0.808
346.64	0.816
346.85	0.815
347.06	0.809
347.26	0.809
347.47	0.813
347.68	0.809
347.89	0.805
348.10	0.800
348.31	0.805
348.52	0.804
348.73	0.803
348.93	0.800
349.14	0.802
349.35	0.801
349.56	0.795
349.77	0.791
349.98	0.796
350.19	0.794
350.39	0.791
350.60	0.788
350.81	0.802
351.02	0.801
351.23	0.796
351.44	0.798
351.65	0.800
351.86	0.798
352.06	0.796
352.27	0.796
352.48	0.797
352.69	0.795
352.90	0.790
353.11	0.777
353.31	0.783
353.52	0.780
353.73	0.774
353.94	0.776
354.15	0.780
354.36	0.780
354.57	0.772
354.77	0.775
354.98	0.774
355.19	0.774
355.40	0.774
355.61	0.779
355.82	0.783
356.02	0.782
356.23	0.775
356.44	0.777
356.65	0.779
356.86	0.780
357.07	0.774
357.27	0.778
357.48	0.780
357.69	0.775
357.90	0.760
358.11	0.757
358.32	0.761
358.52	0.764
358.73	0.755
358.94	0.757
359.15	0.762
359.36	0.762
359.56	0.757
359.77	0.754
359.98	0.760
360.19	0.760
360.40	0.758
360.61	0.758
360.81	0.757
361.02	0.757
361.23	0.750
361.44	0.748
361.65	0.749
361.85	0.748
362.06	0.747
362.27	0.749
362.48	0.749
362.69	0.752
362.89	0.746
363.10	0.747
363.31	0.752
363.52	0.755
363.73	0.750
363.93	0.749
364.14	0.751
364.35	0.751
364.56	0.741
364.77	0.743
364.97	0.744
365.18	0.744
365.39	0.739
365.60	0.736
365.81	0.737
366.01	0.737
366.22	0.734
366.43	0.733
366.64	0.735
366.84	0.741
367.05	0.738
367.26	0.738
367.47	0.739
367.68	0.739
367.88	0.736
368.09	0.734
368.30	0.737
368.51	0.737
368.71	0.737
368.92	0.741
369.13	0.738
369.34	0.738
369.55	0.737
369.75	0.737
369.96	0.744
370.17	0.744
370.38	0.741
370.58	0.741
370.79	0.745
371.00	0.744
371.21	0.735
371.41	0.741
371.62	0.745
371.83	0.740
372.04	0.738
372.24	0.731
372.45	0.732
372.66	0.733
372.87	0.729
373.07	0.726
373.28	0.726
373.49	0.730
373.70	0.721
373.90	0.719
374.11	0.728
374.32	0.728
374.53	0.727
374.73	0.727
374.94	0.728
375.15	0.729
375.36	0.727
375.56	0.736
375.77	0.735
375.98	0.736
376.19	0.734
376.39	0.728
376.60	0.730
376.81	0.732
377.02	0.730
377.22	0.729
377.43	0.729
377.64	0.729
377.84	0.720
378.05	0.725
378.26	0.730
378.47	0.729
378.67	0.727
378.88	0.724
379.09	0.724
379.30	0.724
379.50	0.723
379.71	0.725
379.92	0.726
380.12	0.726
380.33	0.718
380.54	0.715
380.75	0.721
380.95	0.722
381.16	0.721
381.37	0.721
381.57	0.723
381.78	0.723
381.99	0.722
382.20	0.722
382.40	0.725
382.61	0.725
382.82	0.722
383.02	0.716
383.23	0.718
383.44	0.718
383.64	0.718
383.85	0.720
384.06	0.722
384.27	0.720
384.47	0.719
384.68	0.719
384.89	0.724
385.09	0.724
385.30	0.724
385.51	0.723
385.71	0.726
385.92	0.726
386.13	0.725
386.33	0.728
386.54	0.730
386.75	0.729
386.95	0.726
387.16	0.722
387.37	0.724
387.58	0.723
387.78	0.721
387.99	0.718
388.20	0.720
388.40	0.717
388.61	0.713
388.82	0.716
389.02	0.718
389.23	0.718
389.44	0.717
389.64	0.717
389.85	0.729
390.06	0.729
390.26	0.730
390.47	0.730
390.68	0.732
390.88	0.730
391.09	0.726
391.30	0.726
391.50	0.725
391.71	0.725
391.92	0.722
392.12	0.714
392.33	0.715
392.53	0.715
392.74	0.715
392.95	0.715
393.15	0.718
393.36	0.719
393.57	0.718
393.77	0.721
393.98	0.722
394.19	0.722
394.39	0.722
394.60	0.723
394.81	0.725
395.01	0.724
395.22	0.722
395.43	0.723
395.63	0.727
395.84	0.729
396.04	0.725
396.25	0.728
396.46	0.729
396.66	0.728
396.87	0.725
397.08	0.722
397.28	0.724
397.49	0.726
397.69	0.722
397.90	0.717
398.11	0.718
398.31	0.719
398.52	0.716
398.73	0.718
398.93	0.716
399.14	0.716
399.34	0.715
399.55	0.716
399.76	0.716
399.96	0.717
400.17	0.715
400.37	0.714
400.58	0.720
400.79	0.723
400.99	0.720
401.20	0.725
401.41	0.727
401.61	0.729
401.82	0.734
402.02	0.735
402.23	0.736
402.44	0.735
402.64	0.735
402.85	0.730
403.05	0.728
403.26	0.727
403.47	0.722
403.67	0.721
403.88	0.721
404.08	0.715
404.29	0.712
404.50	0.712
404.70	0.712
404.91	0.712
405.11	0.709
405.32	0.709
405.52	0.709
405.73	0.709
405.94	0.708
406.14	0.711
406.35	0.712
406.55	0.712
406.76	0.709
406.97	0.710
407.17	0.712
407.38	0.712
407.58	0.711
407.79	0.714
407.99	0.715
408.20	0.716
408.41	0.711
408.61	0.710
408.82	0.710
409.02	0.711
409.23	0.708
409.43	0.707
409.64	0.708
409.84	0.708
410.05	0.705
410.26	0.704
410.46	0.703
410.67	0.704
410.87	0.705
411.08	0.707
411.28	0.708
411.49	0.710
411.69	0.708
411.90	0.710
412.11	0.711
412.31	0.712
412.52	0.711
412.72	0.712
412.93	0.712
413.13	0.712
413.34	0.708
413.54	0.711
413.75	0.712
413.95	0.712
414.16	0.709
414.37	0.712
414.57	0.712
414.78	0.714
414.98	0.712
415.19	0.713
415.39	0.710
415.60	0.712
415.80	0.710
416.01	0.708
416.21	0.710
416.42	0.709
416.62	0.704
416.83	0.705
417.03	0.704
417.24	0.704
417.44	0.702
417.65	0.701
417.86	0.702
418.06	0.700
418.27	0.698
418.47	0.700
418.68	0.701
418.88	0.701
419.09	0.699
419.29	0.700
419.50	0.701
419.70	0.701
419.91	0.699
420.11	0.697
420.32	0.699
420.52	0.698
420.73	0.697
420.93	0.698
421.14	0.700
421.34	0.699
421.55	0.696
421.75	0.696
421.96	0.697
422.16	0.697
422.37	0.696
422.57	0.694
422.78	0.695
422.98	0.692
423.19	0.689
423.39	0.688
423.60	0.691
423.80	0.692
424.01	0.690
424.21	0.693
424.42	0.693
424.62	0.693
424.83	0.692
425.03	0.692
425.23	0.694
425.44	0.694
425.64	0.694
425.85	0.693
426.05	0.694
426.26	0.694
426.46	0.690
426.67	0.690
426.87	0.695
427.08	0.695
427.28	0.694
427.49	0.695
427.69	0.696
427.90	0.695
428.10	0.693
428.31	0.692
428.51	0.694
428.71	0.694
428.92	0.695
429.12	0.692
429.33	0.692
429.53	0.696
429.74	0.701
429.94	0.700
430.15	0.700
430.35	0.698
430.56	0.696
430.76	0.694
430.96	0.695
431.17	0.692
431.37	0.689
431.58	0.687
431.78	0.684
431.99	0.677
432.19	0.679
432.40	0.680
432.60	0.681
432.80	0.684
433.01	0.682
433.21	0.682
433.42	0.684
433.62	0.684
433.83	0.684
434.03	0.687
434.23	0.689
434.44	0.688
434.64	0.686
434.85	0.691
435.05	0.693
435.26	0.693
435.46	0.692
435.66	0.692
435.87	0.692
436.07	0.691
436.28	0.687
436.48	0.684
436.69	0.683
436.89	0.684
437.09	0.677
437.30	0.676
437.50	0.676
437.71	0.687
437.91	0.686
438.11	0.687
438.32	0.692
438.52	0.692
438.73	0.691
438.93	0.689
439.13	0.689
439.34	0.692
439.54	0.690
439.75	0.690
439.95	0.680
440.15	0.685
440.36	0.683
440.56	0.680
440.77	0.681
440.97	0.681
441.17	0.680
441.38	0.680
441.58	0.678
441.79	0.678
441.99	0.676
442.19	0.675
442.40	0.672
442.60	0.672
442.81	0.670
443.01	0.670
443.21	0.671
443.42	0.671
443.62	0.669
443.82	0.669
444.03	0.670
444.23	0.670
444.44	0.670
444.64	0.669
444.84	0.670
445.05	0.670
445.25	0.669
445.45	0.669
445.66	0.671
445.86	0.670
446.06	0.671
446.27	0.670
446.47	0.673
446.68	0.671
446.88	0.670
447.08	0.669
447.29	0.670
447.49	0.670
447.69	0.669
447.90	0.668
448.10	0.672
448.30	0.669
448.51	0.670
448.71	0.668
448.91	0.670
449.12	0.669
449.32	0.670
449.52	0.669
449.73	0.672
449.93	0.671
450.14	0.672
450.34	0.671
450.54	0.673
450.75	0.671
450.95	0.670
451.15	0.669
451.36	0.671
451.56	0.669
451.76	0.667
451.97	0.665
452.17	0.665
452.37	0.663
452.58	0.660
452.78	0.659
452.98	0.661
453.19	0.661
453.39	0.662
453.59	0.661
453.79	0.661
454.00	0.661
454.20	0.660
454.40	0.661
454.61	0.663
454.81	0.664
455.01	0.663
455.22	0.664
455.42	0.665
455.62	0.663
455.83	0.664
456.03	0.667
456.23	0.668
456.44	0.669
456.64	0.668
456.84	0.668
457.04	0.669
457.25	0.668
457.45	0.665
457.65	0.664
457.86	0.665
458.06	0.663
458.26	0.659
458.47	0.658
458.67	0.659
458.87	0.659
459.07	0.656
459.28	0.658
459.48	0.660
459.68	0.659
459.89	0.658
460.09	0.657
460.29	0.657
460.49	0.659
460.70	0.658
460.90	0.658
461.10	0.658
461.31	0.658
461.51	0.655
461.71	0.657
461.91	0.658
462.12	0.659
462.32	0.658
462.52	0.659
462.72	0.662
462.93	0.662
463.13	0.661
463.33	0.662
463.53	0.664
463.74	0.663
463.94	0.659
464.14	0.660
464.35	0.661
464.55	0.661
464.75	0.659
464.95	0.657
465.16	0.658
465.36	0.657
465.56	0.656
465.76	0.655
465.97	0.656
466.17	0.656
466.37	0.654
466.57	0.655
466.78	0.655
466.98	0.656
467.18	0.653
467.38	0.652
467.59	0.653
467.79	0.654
467.99	0.654
468.19	0.655
468.39	0.657
468.60	0.658
468.80	0.656
469.00	0.657
469.20	0.658
469.41	0.658
469.61	0.658
469.81	0.658
470.01	0.658
470.22	0.658
470.42	0.656
470.62	0.654
470.82	0.656
471.02	0.655
471.23	0.654
471.43	0.654
471.63	0.656
471.83	0.656
472.04	0.654
472.24	0.653
472.44	0.658
472.64	0.658
472.84	0.656
473.05	0.656
473.25	0.659
473.45	0.658
473.65	0.657
473.85	0.657
474.06	0.658
474.26	0.658
474.46	0.660
474.66	0.656
474.86	0.656
475.07	0.656
475.27	0.655
475.47	0.652
475.67	0.652
475.87	0.653
476.08	0.650
476.28	0.651
476.48	0.652
476.68	0.650
476.88	0.648
477.09	0.650
477.29	0.651
477.49	0.652
477.69	0.651
477.89	0.651
478.09	0.650
478.30	0.653
478.50	0.650
478.70	0.649
478.90	0.650
479.10	0.652
479.31	0.653
479.51	0.651
479.71	0.651
479.91	0.652
480.11	0.651
480.31	0.652
480.52	0.651
480.72	0.651
480.92	0.650
481.12	0.648
481.32	0.646
481.52	0.644
481.72	0.644
481.93	0.648
482.13	0.648
482.33	0.647
482.53	0.645
482.73	0.646
482.93	0.647
483.14	0.647
483.34	0.646
483.54	0.647
483.74	0.647
483.94	0.646
484.14	0.642
484.34	0.642
484.55	0.643
484.75	0.643
484.95	0.641
485.15	0.641
485.35	0.641
485.55	0.640
485.75	0.638
485.96	0.638
486.16	0.639
486.36	0.638
486.56	0.636
486.76	0.636
486.96	0.636
487.16	0.635
487.36	0.634
487.57	0.633
487.77	0.634
487.97	0.634
488.17	0.632
488.37	0.631
488.57	0.632
488.77	0.633
488.97	0.632
489.18	0.631
489.38	0.634
489.58	0.634
489.78	0.634
489.98	0.634
490.18	0.633
490.38	0.635
490.58	0.634
490.78	0.634
490.98	0.635
491.19	0.635
491.39	0.635
491.59	0.634
491.79	0.637
491.99	0.637
492.19	0.637
492.39	0.639
492.59	0.639
492.79	0.641
492.99	0.641
493.20	0.641
493.40	0.641
493.60	0.643
493.80	0.641
494.00	0.639
494.20	0.639
494.40	0.639
494.60	0.637
494.80	0.641
495.00	0.640
495.20	0.638
495.40	0.637
495.61	0.639
495.81	0.638
496.01	0.642
496.21	0.643
496.41	0.643
496.61	0.643
496.81	0.642
497.01	0.637
497.21	0.636
497.41	0.636
497.61	0.636
497.81	0.633
498.01	0.633
498.21	0.631
498.41	0.629
498.61	0.629
498.82	0.630
499.02	0.632
499.22	0.633
499.42	0.632
499.62	0.634
499.82	0.635
500.02	0.636
500.22	0.635
500.42	0.637
500.62	0.637
500.82	0.638
501.02	0.636
501.22	0.636
501.42	0.636
501.62	0.638
501.82	0.638
502.02	0.637
502.22	0.637
502.42	0.639
502.62	0.636
502.82	0.636
503.02	0.637
503.22	0.636
503.42	0.634
503.63	0.634
503.83	0.632
504.03	0.631
504.23	0.630
504.43	0.631
504.63	0.631
504.83	0.631
505.03	0.630
505.23	0.632
505.43	0.634
505.63	0.635
505.83	0.634
506.03	0.636
506.23	0.638
506.43	0.638
506.63	0.636
506.83	0.635
507.03	0.637
507.23	0.637
507.43	0.634
507.63	0.634
507.83	0.635
508.03	0.635
508.23	0.634
508.43	0.633
508.63	0.635
508.83	0.636
509.03	0.637
509.23	0.635
509.43	0.637
509.63	0.637
509.83	0.636
510.03	0.638
510.23	0.640
510.43	0.640
510.63	0.641
510.83	0.641
511.03	0.642
511.23	0.640
511.43	0.640
511.63	0.641
511.83	0.643
512.03	0.643
512.22	0.640
512.42	0.640
512.62	0.641
512.82	0.640
513.02	0.640
513.22	0.640
513.42	0.641
513.62	0.644
513.82	0.642
514.02	0.641
514.22	0.642
514.42	0.642
514.62	0.642
514.82	0.642
515.02	0.644
515.22	0.647
515.42	0.646
515.62	0.648
515.82	0.648
516.02	0.650
516.22	0.650
516.42	0.651
516.62	0.653
516.82	0.654
517.01	0.652
517.21	0.651
517.41	0.655
517.61	0.656
517.81	0.652
518.01	0.651
518.21	0.650
518.41	0.648
518.61	0.648
518.81	0.648
519.01	0.649
519.21	0.649
519.41	0.648
519.61	0.643
519.81	0.645
520.00	0.646
520.20	0.646
520.40	0.649
520.60	0.650
520.80	0.648
521.00	0.648
521.20	0.649
521.40	0.654
521.60	0.654
521.80	0.654
522.00	0.654
522.20	0.656
522.39	0.655
522.59	0.652
522.79	0.654
522.99	0.657
523.19	0.656
523.39	0.654
523.59	0.651
523.79	0.654
523.99	0.656
524.19	0.656
524.38	0.654
524.58	0.656
524.78	0.657
524.98	0.655
525.18	0.656
525.38	0.657
525.58	0.658
525.78	0.656
525.98	0.654
526.18	0.654
526.37	0.653
526.57	0.655
526.77	0.655
526.97	0.656
527.17	0.656
527.37	0.652
527.57	0.655
527.77	0.656
527.96	0.657
528.16	0.655
528.36	0.656
528.56	0.658
528.76	0.656
528.96	0.655
529.16	0.656
529.36	0.658
529.55	0.658
529.75	0.655
529.95	0.655
530.15	0.656
530.35	0.659
530.55	0.657
530.75	0.657
530.94	0.658
531.14	0.659
531.34	0.657
531.54	0.655
531.74	0.658
531.94	0.661
532.13	0.659
532.33	0.661
532.53	0.659
532.73	0.659
532.93	0.658
533.13	0.659
533.33	0.660
533.52	0.660
533.72	0.663
533.92	0.661
534.12	0.659
534.32	0.659
534.52	0.658
534.71	0.661
534.91	0.663
535.11	0.665
535.31	0.662
535.51	0.664
535.71	0.666
535.90	0.662
536.10	0.664
536.30	0.666
536.50	0.667
536.70	0.667
536.89	0.664
537.09	0.663
537.29	0.665
537.49	0.666
537.69	0.664
537.89	0.665
538.08	0.665
538.28	0.663
538.48	0.664
538.68	0.664
538.88	0.666
539.07	0.666
539.27	0.665
539.47	0.664
539.67	0.664
539.87	0.666
540.06	0.663
540.26	0.664
540.46	0.666
540.66	0.664
540.86	0.662
541.05	0.662
541.25	0.663
541.45	0.663
541.65	0.661
541.84	0.663
542.04	0.663
542.24	0.664
542.44	0.663
542.64	0.664
542.83	0.667
543.03	0.667
543.23	0.665
543.43	0.666
543.62	0.668
543.82	0.668
544.02	0.667
544.22	0.667
544.42	0.669
544.61	0.670
544.81	0.667
545.01	0.666
545.21	0.667
545.40	0.668
545.60	0.666
545.80	0.669
546.00	0.669
546.19	0.667
546.39	0.667
546.59	0.665
546.79	0.666
546.98	0.666
547.18	0.665
547.38	0.666
547.58	0.669
547.77	0.669
547.97	0.666
548.17	0.668
548.37	0.668
548.56	0.668
548.76	0.668
548.96	0.670
549.16	0.672
549.35	0.672
549.55	0.670
549.75	0.671
549.95	0.674
550.14	0.674
550.34	0.672
550.54	0.677
550.73	0.681
550.93	0.681
551.13	0.678
551.33	0.677
551.52	0.677
551.72	0.677
551.92	0.675
552.12	0.675
552.31	0.676
552.51	0.676
552.71	0.672
552.90	0.672
553.10	0.674
553.30	0.674
553.50	0.674
553.69	0.675
553.89	0.676
554.09	0.676
554.28	0.673
554.48	0.674
554.68	0.675
554.87	0.676
555.07	0.672
555.27	0.671
555.47	0.672
555.66	0.673
555.86	0.671
556.06	0.673
556.25	0.674
556.45	0.682
556.65	0.680
556.84	0.683
557.04	0.687
557.24	0.689
557.43	0.689
557.63	0.691
557.83	0.693
558.02	0.694
558.22	0.698
558.42	0.699
558.61	0.693
558.81	0.693
559.01	0.690
559.21	0.689
559.40	0.690
559.60	0.691
559.80	0.687
559.99	0.688
560.19	0.690
560.39	0.684
560.58	0.682
560.78	0.682
560.97	0.685
561.17	0.684
561.37	0.682
561.56	0.683
561.76	0.683
561.96	0.683
562.15	0.680
562.35	0.682
562.55	0.684
562.74	0.683
562.94	0.682
563.14	0.680
563.33	0.680
563.53	0.680
563.73	0.678
563.92	0.680
564.12	0.682
564.31	0.684
564.51	0.682
564.71	0.682
564.90	0.685
565.10	0.686
565.30	0.688
565.49	0.689
565.69	0.691
565.89	0.692
566.08	0.689
566.28	0.691
566.47	0.692
566.67	0.691
566.87	0.690
567.06	0.692
567.26	0.699
567.46	0.695
567.65	0.695
567.85	0.696
568.04	0.699
568.24	0.698
568.44	0.695
568.63	0.694
568.83	0.695
569.02	0.693
569.22	0.689
569.42	0.685
569.61	0.687
569.81	0.685
570.00	0.683
570.20	0.684
570.40	0.685
570.59	0.685
570.79	0.683
570.98	0.681
571.18	0.683
571.38	0.682
571.57	0.680
571.77	0.678
571.96	0.681
572.16	0.679
572.35	0.674
572.55	0.675
572.75	0.673
572.94	0.672
573.14	0.671
573.33	0.671
573.53	0.672
573.73	0.671
573.92	0.669
574.12	0.667
574.31	0.670
574.51	0.671
574.70	0.668
574.90	0.670
575.09	0.672
575.29	0.672
575.49	0.670
575.68	0.671
575.88	0.671
576.07	0.673
576.27	0.671
576.46	0.669
576.66	0.668
576.86	0.667
577.05	0.665
577.25	0.663
577.44	0.665
577.64	0.664
577.83	0.663
578.03	0.664
578.22	0.664
578.42	0.663
578.61	0.661
578.81	0.662
579.00	0.662
579.20	0.662
579.40	0.661
579.59	0.659
579.79	0.660
579.98	0.659
580.18	0.658
580.37	0.658
580.57	0.660
580.76	0.664
580.96	0.663
581.15	0.664
581.35	0.666
581.54	0.665
581.74	0.665
581.93	0.667
582.13	0.668
582.32	0.666
582.52	0.664
582.71	0.663
582.91	0.659
583.10	0.659
583.30	0.657
583.49	0.656
583.69	0.660
583.88	0.661
584.08	0.660
584.27	0.662
584.47	0.665
584.66	0.667
584.86	0.666
585.05	0.668
585.25	0.670
585.44	0.670
585.64	0.669
585.83	0.666
586.03	0.666
586.22	0.664
586.42	0.660
586.61	0.661
586.81	0.663
587.00	0.662
587.20	0.660
587.39	0.660
587.59	0.662
587.78	0.663
587.98	0.663
588.17	0.665
588.37	0.667
588.56	0.669
588.76	0.665
588.95	0.665
589.15	0.669
589.34	0.671
589.54	0.670
589.73	0.672
589.92	0.675
590.12	0.675
590.31	0.673
590.51	0.678
590.70	0.679
590.90	0.681
591.09	0.679
591.29	0.678
591.48	0.678
591.68	0.679
591.87	0.677
592.06	0.677
592.26	0.679
592.45	0.678
592.65	0.672
592.84	0.672
593.04	0.674
593.23	0.675
593.43	0.673
593.62	0.672
593.81	0.672
594.01	0.671
594.20	0.669
594.40	0.668
594.59	0.669
594.79	0.670
594.98	0.668
595.17	0.667
595.37	0.668
595.56	0.670
595.76	0.670
595.95	0.672
596.14	0.675
596.34	0.677
596.53	0.675
596.73	0.678
596.92	0.679
597.12	0.682
597.31	0.683
597.50	0.682
597.70	0.685
597.89	0.684
598.09	0.680
598.28	0.681
598.47	0.684
598.67	0.682
598.86	0.678
599.06	0.680
599.25	0.680
599.44	0.678
599.64	0.675
599.83	0.672
600.03	0.675
600.22	0.675
600.41	0.675
600.61	0.673
600.80	0.675
601.00	0.675
601.19	0.671
601.38	0.669
601.58	0.671
601.77	0.672
601.96	0.674
602.16	0.674
602.35	0.683
602.55	0.680
602.74	0.682
602.93	0.683
603.13	0.689
603.32	0.690
603.51	0.690
603.71	0.694
603.90	0.695
604.09	0.696
604.29	0.693
604.48	0.688
604.68	0.689
604.87	0.687
605.06	0.684
605.26	0.680
605.45	0.681
605.64	0.680
605.84	0.675
606.03	0.675
606.22	0.674
606.42	0.673
606.61	0.670
606.80	0.669
607.00	0.671
607.19	0.672
607.38	0.670
607.58	0.672
607.77	0.673
607.96	0.672
608.16	0.671
608.35	0.675
608.54	0.678
608.74	0.681
608.93	0.686
609.12	0.689
609.32	0.691
609.51	0.694
609.70	0.693
609.90	0.696
610.09	0.701
610.28	0.706
610.48	0.701
610.67	0.702
610.86	0.703
611.06	0.698
611.25	0.696
611.44	0.697
611.64	0.697
611.83	0.699
612.02	0.696
612.21	0.695
612.41	0.693
612.60	0.692
612.79	0.688
612.99	0.688
613.18	0.690
613.37	0.687
613.57	0.684
613.76	0.686
613.95	0.683
614.14	0.682
614.34	0.679
614.53	0.680
614.72	0.682
614.92	0.682
615.11	0.680
615.30	0.676
615.49	0.677
615.69	0.679
615.88	0.676
616.07	0.678
616.26	0.680
616.46	0.681
616.65	0.678
616.84	0.677
617.04	0.678
617.23	0.682
617.42	0.682
617.61	0.686
617.81	0.686
618.00	0.688
618.19	0.686
618.38	0.691
618.58	0.694
618.77	0.696
618.96	0.695
619.15	0.697
619.35	0.699
619.54	0.700
619.73	0.696
619.92	0.698
620.12	0.703
620.31	0.704
620.50	0.698
620.69	0.698
620.89	0.700
621.08	0.701
621.27	0.701
621.46	0.699
621.66	0.703
621.85	0.703
622.04	0.699
622.23	0.699
622.43	0.699
622.62	0.700
622.81	0.699
623.00	0.699
623.19	0.702
623.39	0.700
623.58	0.698
623.77	0.696
623.96	0.699
624.16	0.699
624.35	0.694
624.54	0.697
624.73	0.700
624.92	0.698
625.12	0.694
625.31	0.696
625.50	0.698
625.69	0.700
625.88	0.696
626.08	0.695
626.27	0.696
626.46	0.697
626.65	0.694
626.84	0.694
627.04	0.699
627.23	0.700
627.42	0.696
627.61	0.698
627.80	0.700
628.00	0.700
628.19	0.700
628.38	0.703
628.57	0.704
628.76	0.704
628.96	0.701
629.15	0.701
629.34	0.704
629.53	0.705
629.72	0.700
629.91	0.701
630.11	0.705
630.30	0.705
630.49	0.708
630.68	0.710
630.87	0.712
631.06	0.714
631.26	0.708
631.45	0.709
631.64	0.716
631.83	0.718
632.02	0.715
632.21	0.714
632.41	0.720
632.60	0.714
632.79	0.713
632.98	0.714
633.17	0.715
633.36	0.717
633.55	0.715
633.75	0.712
633.94	0.713
634.13	0.713
634.32	0.710
634.51	0.704
634.70	0.706
634.89	0.705
635.09	0.701
635.28	0.702
635.47	0.703
635.66	0.705
635.85	0.701
636.04	0.702
636.23	0.706
636.43	0.708
636.62	0.708
636.81	0.707
637.00	0.710
637.19	0.713
637.38	0.710
637.57	0.710
637.76	0.711
637.95	0.712
638.15	0.709
638.34	0.706
638.53	0.708
638.72	0.709
638.91	0.707
639.10	0.705
639.29	0.704
639.48	0.706
639.67	0.705
639.87	0.704
640.06	0.709
640.25	0.709
640.44	0.711
640.63	0.713
640.82	0.715
641.01	0.715
641.20	0.716
641.39	0.718
641.58	0.719
641.78	0.717
641.97	0.713
642.16	0.726
642.35	0.726
642.54	0.724
642.73	0.719
642.92	0.718
643.11	0.721
643.30	0.721
643.49	0.716
643.68	0.719
643.87	0.721
644.06	0.722
644.25	0.702
644.45	0.705
644.64	0.706
644.83	0.706
645.02	0.703
645.21	0.702
645.40	0.703
645.59	0.704
645.78	0.699
645.97	0.701
646.16	0.701
646.35	0.701
646.54	0.699
646.73	0.700
646.92	0.702
647.11	0.701
647.30	0.698
647.49	0.700
647.68	0.699
647.88	0.697
648.07	0.689
648.26	0.693
648.45	0.694
648.64	0.690
648.83	0.688
649.02	0.690
649.21	0.700
649.40	0.699
649.59	0.694
649.78	0.695
649.97	0.709
650.16	0.708
650.35	0.703
650.54	0.705
650.73	0.713
650.92	0.710
651.11	0.703
651.30	0.700
651.49	0.704
651.68	0.704
651.87	0.702
652.06	0.691
652.25	0.695
652.44	0.699
652.63	0.698
652.82	0.700
653.01	0.701
653.20	0.700
653.39	0.690
653.58	0.687
653.77	0.686
653.96	0.682
654.15	0.674
654.34	0.672
654.53	0.667
654.72	0.660
654.91	0.650
655.10	0.646
655.29	0.644
655.48	0.642
655.67	0.637
655.86	0.635
656.05	0.633
656.24	0.633
656.43	0.628
656.62	0.626
656.81	0.625
657.00	0.622
657.19	0.618
657.38	0.617
657.57	0.615
657.76	0.616
657.95	0.614
658.14	0.616
658.33	0.618
658.51	0.623
658.70	0.623
658.89	0.625
659.08	0.635
659.27	0.644
659.46	0.645
659.65	0.652
659.84	0.656
660.03	0.660
660.22	0.661
660.41	0.664
660.60	0.663
660.79	0.665
660.98	0.670
661.17	0.668
661.36	0.668
661.55	0.669
661.74	0.667
661.92	0.670
662.11	0.672
662.30	0.671
662.49	0.666
662.68	0.666
662.87	0.669
663.06	0.663
663.25	0.665
663.44	0.665
663.63	0.664
663.82	0.663
664.01	0.658
664.20	0.657
664.38	0.657
664.57	0.658
664.76	0.658
664.95	0.658
665.14	0.662
665.33	0.658
665.52	0.665
665.71	0.669
665.90	0.668
666.09	0.669
666.28	0.667
666.46	0.666
666.65	0.667
666.84	0.665
667.03	0.660
667.22	0.658
667.41	0.660
667.60	0.650
667.79	0.644
667.98	0.645
668.16	0.646
668.35	0.646
668.54	0.643
668.73	0.642
668.92	0.643
669.11	0.643
669.30	0.637
669.49	0.634
669.67	0.635
669.86	0.636
670.05	0.634
670.24	0.632
670.43	0.630
670.62	0.629
670.81	0.625
671.00	0.626
671.18	0.626
671.37	0.625
671.56	0.623
671.75	0.622
671.94	0.619
672.13	0.617
672.32	0.613
672.50	0.612
672.69	0.612
672.88	0.612
673.07	0.608
673.26	0.609
673.45	0.610
673.63	0.611
673.82	0.608
674.01	0.609
674.20	0.609
674.39	0.608
674.58	0.608
674.76	0.608
674.95	0.606
675.14	0.606
675.33	0.602
675.52	0.600
675.71	0.600
675.89	0.600
676.08	0.596
676.27	0.596
676.46	0.597
676.65	0.596
676.84	0.597
677.02	0.598
677.21	0.600
677.40	0.599
677.59	0.597
677.78	0.597
677.96	0.599
678.15	0.599
678.34	0.597
678.53	0.598
678.72	0.597
678.90	0.593
679.09	0.589
679.28	0.586
679.47	0.587
679.66	0.586
679.84	0.583
680.03	0.580
680.22	0.579
680.41	0.580
680.60	0.577
680.78	0.576
680.97	0.578
681.16	0.579
681.35	0.577
681.53	0.576
681.72	0.577
681.91	0.578
682.10	0.577
682.29	0.579
682.47	0.577
682.66	0.575
682.85	0.574
683.04	0.572
683.22	0.573
683.41	0.575
683.60	0.574
683.79	0.574
683.97	0.573
684.16	0.572
684.35	0.569
684.54	0.571
684.72	0.572
684.91	0.573
685.10	0.571
685.29	0.572
685.47	0.569
685.66	0.568
685.85	0.565
686.04	0.564
686.22	0.567
686.41	0.569
686.60	0.566
686.79	0.569
686.97	0.569
687.16	0.571
687.35	0.568
687.54	0.572
687.72	0.575
687.91	0.575
688.10	0.577
688.29	0.576
688.47	0.574
688.66	0.574
688.85	0.570
689.03	0.568
689.22	0.573
689.41	0.573
689.60	0.569
689.78	0.567
689.97	0.567
690.16	0.565
690.34	0.562
690.53	0.561
690.72	0.562
690.91	0.560
691.09	0.558
691.28	0.552
691.47	0.550
691.65	0.549
691.84	0.546
692.03	0.545
692.21	0.542
692.40	0.542
692.59	0.540
692.77	0.538
692.96	0.539
693.15	0.539
693.34	0.537
693.52	0.536
693.71	0.537
693.90	0.538
694.08	0.539
694.27	0.540
694.46	0.549
694.64	0.549
694.83	0.549
695.02	0.549
695.20	0.548
695.39	0.548
695.58	0.548
695.76	0.549
695.95	0.548
696.14	0.547
696.32	0.544
696.51	0.535
696.70	0.535
696.88	0.536
697.07	0.535
697.26	0.536
697.44	0.538
697.63	0.536
697.81	0.534
698.00	0.534
698.19	0.533
698.37	0.533
698.56	0.533
698.75	0.533
698.93	0.533
699.12	0.532
699.31	0.531
699.49	0.531
699.68	0.532
699.87	0.534
700.05	0.534
700.24	0.534
700.42	0.535
700.61	0.534
700.80	0.533
700.98	0.533
701.17	0.534
701.36	0.532
701.54	0.532
701.73	0.532
701.91	0.531
702.10	0.530
702.29	0.528
702.47	0.526
702.66	0.527
702.84	0.529
703.03	0.527
703.22	0.529
703.40	0.528
703.59	0.530
703.77	0.530
703.96	0.530
704.15	0.531
704.33	0.532
704.52	0.532
704.70	0.531
704.89	0.530
705.08	0.529
705.26	0.525
705.45	0.526
705.63	0.526
705.82	0.523
706.00	0.521
706.19	0.520
706.38	0.520
706.56	0.520
706.75	0.518
706.93	0.517
707.12	0.518
707.30	0.519
707.49	0.515
707.68	0.513
707.86	0.512
708.05	0.512
708.23	0.509
708.42	0.509
708.60	0.511
708.79	0.511
708.98	0.509
709.16	0.509
709.35	0.510
709.53	0.514
709.72	0.512
709.90	0.514
710.09	0.516
710.27	0.518
710.46	0.521
710.64	0.520
710.83	0.522
711.02	0.523
711.20	0.523
711.39	0.521
711.57	0.519
711.76	0.520
711.94	0.519
712.13	0.520
712.31	0.520
712.50	0.516
712.68	0.513
712.87	0.514
713.05	0.514
713.24	0.514
713.42	0.514
713.61	0.514
713.79	0.515
713.98	0.515
714.16	0.515
714.35	0.515
714.54	0.516
714.72	0.516
714.91	0.515
715.09	0.521
715.28	0.523
715.46	0.523
715.65	0.521
715.83	0.520
716.02	0.522
716.20	0.519
716.39	0.517
716.57	0.519
716.76	0.521
716.94	0.521
717.12	0.513
717.31	0.515
717.49	0.518
717.68	0.520
717.86	0.520
718.05	0.522
718.23	0.524
718.42	0.527
718.60	0.527
718.79	0.534
718.97	0.536
719.16	0.537
719.34	0.534
719.53	0.534
719.71	0.534
719.90	0.535
720.08	0.532
720.27	0.533
720.45	0.533
720.63	0.532
720.82	0.527
721.00	0.530
721.19	0.533
721.37	0.532
721.56	0.532
721.74	0.535
721.93	0.543
722.11	0.548
722.30	0.548
722.48	0.553
722.66	0.554
722.85	0.553
723.03	0.554
723.22	0.553
723.40	0.555
723.59	0.555
723.77	0.559
723.95	0.552
724.14	0.556
724.32	0.556
724.51	0.555
724.69	0.556
724.88	0.556
725.06	0.555
725.24	0.556
725.43	0.558
725.61	0.561
725.80	0.555
725.98	0.554
726.16	0.550
726.35	0.555
726.53	0.554
726.72	0.554
726.90	0.564
727.09	0.563
727.27	0.569
727.45	0.566
727.64	0.575
727.82	0.584
728.01	0.588
728.19	0.585
728.37	0.591
728.56	0.595
728.74	0.601
728.92	0.589
729.11	0.591
729.29	0.590
729.48	0.592
729.66	0.583
729.84	0.581
730.03	0.584
730.21	0.587
730.40	0.577
730.58	0.578
730.76	0.578
730.95	0.579
731.13	0.579
731.31	0.594
731.50	0.601
731.68	0.604
731.86	0.601
732.05	0.615
732.23	0.617
732.42	0.620
732.60	0.624
732.78	0.629
732.97	0.647
733.15	0.654
733.33	0.641
733.52	0.648
733.70	0.658
733.88	0.667
734.07	0.654
734.25	0.678
734.43	0.686
734.62	0.689
734.80	0.685
734.98	0.675
735.17	0.680
735.35	0.687
735.53	0.676
735.72	0.679
735.90	0.696
736.08	0.713
736.27	0.693
736.45	0.699
736.63	0.708
736.82	0.716
737.00	0.718
737.18	0.728
737.37	0.756
737.55	0.776
737.73	0.771
737.92	0.775
738.10	0.771
738.28	0.789
738.46	0.783
738.65	0.796
738.83	0.814
739.01	0.862
739.20	0.852
739.38	0.834
739.56	0.825
739.75	0.830
739.93	0.800
740.11	0.824
740.29	0.825
740.48	0.828
740.66	0.810
740.84	0.806
741.03	0.773
741.21	0.783
741.39	0.769
741.57	0.781
741.76	0.795
741.94	0.799
742.12	0.768
742.31	0.769
742.49	0.783
742.67	0.805
742.85	0.821
743.04	0.828
743.22	0.834
743.40	0.881
743.58	0.868
743.77	0.886
743.95	0.912
744.13	0.957
744.31	0.945
744.50	0.941
744.68	0.936
744.86	0.906
745.04	0.918
745.23	0.981
745.41	0.960
745.59	0.965
745.77	0.933
745.96	0.926
746.14	0.930
746.32	0.928
746.50	0.923
746.69	0.907
746.87	0.916
747.05	0.901
747.23	0.832
747.42	0.817
747.60	0.837
747.78	0.840
747.96	0.865
748.14	0.830
748.33	0.850
748.51	0.842
748.69	0.839
748.87	0.860
749.06	0.856
749.24	0.857
749.42	0.851
749.60	0.834
749.78	0.843
749.97	0.805
750.15	0.800
750.33	0.805
750.51	0.827
750.69	0.831
750.88	0.841
751.06	0.846
751.24	0.871
751.42	0.860
751.60	0.858
751.79	0.919
751.97	0.961
752.15	0.956
752.33	0.924
752.51	0.981
752.69	0.996
752.88	0.966
753.06	1.014
753.24	0.990
753.42	1.022
753.60	1.166
753.78	1.044
753.97	1.058
754.15	1.073
754.33	1.102
754.51	0.999
754.69	0.981
754.87	1.004
755.06	0.941
755.24	0.942
755.42	0.954
755.60	0.860
755.78	0.872
755.96	0.821
756.15	0.824
756.33	0.827
756.51	0.843
756.69	0.834
756.87	0.804
757.05	0.820
757.23	0.804
757.42	0.773
757.60	0.774
757.78	0.761
757.96	0.759
758.14	0.744
758.32	0.730
758.50	0.737
758.69	0.732
758.87	0.727
759.05	0.728
759.23	0.737
759.41	0.737
759.59	0.730
759.77	0.751
759.95	0.776
760.13	0.819
760.32	0.820
760.50	0.816
760.68	0.836
760.86	0.839
761.04	0.818
761.22	0.826
761.40	0.866
761.58	0.871
761.76	0.847
761.95	0.830
762.13	0.789
762.31	0.790
762.49	0.764
762.67	0.779
762.85	0.788
763.03	0.784
763.21	0.763
763.39	0.747
763.57	0.748
763.75	0.742
763.94	0.729
764.12	0.730
764.30	0.750
764.48	0.754
764.66	0.723
764.84	0.720
765.02	0.751
765.20	0.757
765.38	0.740
765.56	0.746
765.74	0.781
765.92	0.783
766.10	0.787
766.28	0.781
766.46	0.808
766.65	0.809
766.83	0.800
767.01	0.786
767.19	0.791
767.37	0.792
767.55	0.779
767.73	0.760
767.91	0.759
768.09	0.749
768.27	0.740
768.45	0.729
768.63	0.735
768.81	0.736
768.99	0.712
769.17	0.732
769.35	0.742
769.53	0.741
769.71	0.724
769.89	0.733
770.07	0.737
770.25	0.720
770.43	0.701
770.61	0.721
770.79	0.726
770.97	0.736
771.15	0.710
771.33	0.712
771.51	0.713
771.69	0.722
771.87	0.730
772.05	0.735
772.24	0.741
772.42	0.749
772.60	0.732
772.78	0.785
772.96	0.808
773.14	0.806
773.32	0.790
773.49	0.796
773.67	0.794
773.85	0.775
774.03	0.766
774.21	0.798
774.39	0.808
774.57	0.827
774.75	0.763
774.93	0.753
775.11	0.773
775.29	0.777
775.47	0.779
775.65	0.786
775.83	0.797
776.01	0.819
776.19	0.778
776.37	0.781
776.55	0.780
776.73	0.777
776.91	0.780
777.09	0.762
777.27	0.762
777.45	0.751
777.63	0.731
777.81	0.728
777.99	0.714
778.17	0.713
778.35	0.692
778.53	0.681
778.71	0.685
778.89	0.672
779.07	0.663
779.24	0.665
779.42	0.665
779.60	0.685
779.78	0.684
779.96	0.686
780.14	0.693
780.32	0.713
780.50	0.699
780.68	0.698
780.86	0.692
781.04	0.709
781.22	0.718
781.40	0.728
781.58	0.716
781.75	0.709
781.93	0.696
782.11	0.694
782.29	0.678
782.47	0.676
782.65	0.668
782.83	0.692
783.01	0.682
783.19	0.674
783.37	0.663
783.55	0.667
783.72	0.684
783.90	0.695
784.08	0.689
784.26	0.701
784.44	0.720
784.62	0.722
784.80	0.694
784.98	0.702
785.16	0.707
785.33	0.719
785.51	0.706
785.69	0.694
785.87	0.690
786.05	0.701
786.23	0.697
786.41	0.693
786.59	0.699
786.77	0.701
786.94	0.691
787.12	0.693
787.30	0.694
787.48	0.692
787.66	0.681
787.84	0.684
788.02	0.674
788.19	0.673
788.37	0.661
788.55	0.660
788.73	0.657
788.91	0.651
789.09	0.637
789.27	0.627
789.44	0.638
789.62	0.643
789.80	0.653
789.98	0.677
790.16	0.663
790.34	0.660
790.51	0.650
790.69	0.669
790.87	0.673
791.05	0.669
791.23	0.663
791.41	0.664
791.58	0.669
791.76	0.647
791.94	0.619
792.12	0.629
792.30	0.631
792.48	0.628
792.65	0.624
792.83	0.629
793.01	0.635
793.19	0.635
793.37	0.621
793.54	0.618
793.72	0.628
793.90	0.627
794.08	0.617
794.26	0.617
794.43	0.626
794.61	0.609
794.79	0.600
794.97	0.598
795.15	0.601
795.32	0.605
795.50	0.597
795.68	0.591
795.86	0.594
796.04	0.595
796.21	0.590
796.39	0.589
796.57	0.602
796.75	0.610
796.92	0.613
797.10	0.616
797.28	0.618
797.46	0.620
797.64	0.625
797.81	0.633
797.99	0.638
798.17	0.641
798.35	0.636
798.52	0.637
798.70	0.632
798.88	0.641
799.06	0.641
799.23	0.642
799.41	0.649
799.59	0.642
799.77	0.632
799.94	0.638
800.12	0.646
800.30	0.664
800.48	0.665
800.65	0.665
800.83	0.654
801.01	0.648
801.19	0.650
801.36	0.646
801.54	0.648
801.72	0.658
801.90	0.645
802.07	0.641
802.25	0.626
802.43	0.612
802.60	0.608
802.78	0.614
802.96	0.616
803.14	0.610
803.31	0.609
803.49	0.609
803.67	0.603
803.84	0.608
804.02	0.601
804.20	0.605
804.38	0.609
804.55	0.610
804.73	0.598
804.91	0.600
805.08	0.610
805.26	0.606
805.44	0.669
805.61	0.674
805.79	0.673
805.97	0.670
806.15	0.663
806.32	0.658
806.50	0.661
806.68	0.661
806.85	0.653
807.03	0.645
807.21	0.658
807.38	0.595
807.56	0.585
807.74	0.595
807.91	0.601
808.09	0.602
808.27	0.620
808.44	0.643
808.62	0.650
808.80	0.652
808.97	0.648
809.15	0.643
809.33	0.658
809.50	0.667
809.68	0.653
809.86	0.661
810.03	0.690
810.21	0.671
810.39	0.657
810.56	0.663
810.74	0.683
810.91	0.752
811.09	0.742
811.27	0.761
811.44	0.763
811.62	0.766
811.80	0.751
811.97	0.725
812.15	0.726
812.33	0.721
812.50	0.707
812.68	0.695
812.85	0.641
813.03	0.644
813.21	0.614
813.38	0.610
813.56	0.612
813.74	0.623
813.91	0.629
814.09	0.655
814.26	0.648
814.44	0.652
814.62	0.645
814.79	0.647
814.97	0.651
815.14	0.656
815.32	0.663
815.50	0.678
815.67	0.677
815.85	0.670
816.02	0.660
816.20	0.666
816.38	0.680
816.55	0.683
816.73	0.686
816.90	0.695
817.08	0.722
817.26	0.724
817.43	0.708
817.61	0.731
817.78	0.746
817.96	0.728
818.13	0.722
818.31	0.721
818.49	0.733
818.66	0.724
818.84	0.709
819.01	0.687
819.19	0.689
819.36	0.692
819.54	0.665
819.71	0.700
819.89	0.711
820.07	0.721
820.24	0.715
820.42	0.713
820.59	0.728
820.77	0.751
820.94	0.746
821.12	0.766
821.29	0.777
821.47	0.780
821.64	0.725
821.82	0.738
822.00	0.735
822.17	0.736
822.35	0.732
822.52	0.735
822.70	0.725
822.87	0.732
823.05	0.712
823.22	0.722
823.40	0.744
823.57	0.766
823.75	0.749
823.92	0.771
824.10	0.784
824.27	0.823
824.45	0.813
824.62	0.870
824.80	0.884
824.97	0.897
825.15	0.887
825.32	0.898
825.50	0.900
825.67	0.909
825.85	0.890
826.02	0.904
826.20	0.916
826.37	1.020
826.55	0.950
826.72	1.098
826.90	1.150
827.07	1.196
827.25	1.149
827.42	1.255
827.60	1.352
827.77	1.458
827.95	1.444
828.12	1.499
828.30	1.268
828.47	1.344
828.65	1.103
828.82	1.130
829.00	1.158
829.17	1.233
829.34	1.235
829.52	1.260
829.69	-0.000
829.87	-0.000
830.04	-0.000
830.22	-0.000
830.39	-0.000
830.57	-0.000
830.74	-0.000
830.92	-0.000
831.09	-0.000
831.26	-0.000
831.44	-0.000
831.61	-0.000
831.79	-0.000
831.96	-0.000
832.14	-0.000
832.31	-0.000
832.49	-0.000
832.66	-0.000
832.83	-0.000
833.01	-0.000
833.18	-0.000
833.36	-0.000
833.53	-0.000
833.70	-0.000
833.88	-0.000
834.05	-0.000
834.23	-0.000
834.40	-0.000
834.58	-0.000
834.75	-0.000
834.92	-0.000
835.10	-0.000
835.27	-0.000
835.45	-0.000
835.62	-0.000
835.79	-0.000
835.97	-0.000
836.14	-0.000
836.32	-0.000
836.49	-0.000
836.66	-0.000
836.84	-0.000
837.01	-0.000
837.18	-0.000
837.36	-0.000
837.53	-0.000
837.71	-0.000
837.88	-0.000
838.05	-0.000
838.23	-0.000
838.40	-0.000
838.58	-0.000
838.75	-0.000
838.92	-0.000
839.10	-0.000
839.27	-0.000
839.44	-0.000
839.62	-0.000
839.79	-0.000
839.96	-0.000
840.14	-0.000
840.31	-0.000
840.48	-0.000
840.66	-0.000
840.83	-0.000
841.01	-0.000
841.18	-0.000
841.35	-0.000
841.53	-0.000
841.70	-0.000
841.87	-0.000
842.05	-0.000
842.22	-0.000
842.39	-0.000
842.57	-0.000
842.74	-0.000
842.91	-0.000
843.09	-0.000
843.26	-0.000
843.43	-0.000
843.60	-0.000
843.78	-0.000
843.95	-0.000
844.12	-0.000
844.30	-0.000
844.47	-0.000
844.64	-0.000
844.82	-0.000
844.99	-0.000
845.16	-0.000
845.34	-0.000
845.51	-0.000
845.68	-0.000
845.85	-0.000
846.03	-0.000
846.20	-0.000
846.37	-0.000
846.55	-0.000
846.72	-0.000
846.89	-0.000
847.06	-0.000
847.24	-0.000
847.41	-0.000
847.58	-0.000
847.76	-0.000
847.93	-0.000
848.10	-0.000
848.27	-0.000
848.45	-0.000
848.62	-0.000
848.79	-0.000
848.97	-0.000
849.14	-0.000
849.31	-0.000
849.48	-0.000
849.66	-0.000
849.83	-0.000
850.00	-0.000
850.17	-0.000
850.35	-0.000
850.52	-0.000
850.69	-0.000
850.86	-0.000
851.04	-0.000
851.21	-0.000
851.38	-0.000
851.55	-0.000
851.72	-0.000
851.90	-0.000
852.07	-0.000
852.24	-0.000
852.41	-0.000
852.59	-0.000
852.76	-0.000
852.93	-0.000
853.10	-0.000
853.28	-0.000
853.45	-0.000
853.62	-0.000
853.79	-0.000
853.96	-0.000
854.14	-0.000
854.31	-0.000
854.48	-0.000
854.65	-0.000
854.82	-0.000
855.00	-0.000
855.17	-0.000
855.34	-0.000
855.51	-0.000
855.68	-0.000
855.86	-0.000
856.03	-0.000
856.20	-0.000
856.37	-0.000
856.54	-0.000
856.72	-0.000
856.89	-0.000
857.06	-0.000
857.23	-0.000
857.40	-0.000
857.57	-0.000
857.75	-0.000
857.92	-0.000
858.09	-0.000
858.26	-0.000
858.43	-0.000
858.60	-0.000
858.78	-0.000
858.95	-0.000
859.12	-0.000
859.29	-0.000
859.46	-0.000
859.63	-0.000
859.81	-0.000
859.98	-0.000
860.15	-0.000
860.32	-0.000
860.49	-0.000
860.66	-0.000
860.83	-0.000
861.01	-0.000
861.18	-0.000
861.35	-0.000
861.52	-0.000
861.69	-0.000
861.86	-0.000
862.03	-0.000
862.21	-0.000
862.38	-0.000
862.55	-0.000
862.72	-0.000
862.89	-0.000
863.06	-0.000
863.23	-0.000
863.40	-0.000
863.58	-0.000
863.75	-0.000
863.92	-0.000
864.09	-0.000
864.26	-0.000
864.43	-0.000
864.60	-0.000
864.77	-0.000
864.94	-0.000
865.11	-0.000
865.29	-0.000
865.46	-0.000
865.63	-0.000
865.80	-0.000
865.97	-0.000
866.14	-0.000
866.31	-0.000
866.48	-0.000
866.65	-0.000
866.82	-0.000
866.99	-0.000
867.16	-0.000
867.34	-0.000
867.51	-0.000
867.68	-0.000
867.85	-0.000
868.02	-0.000
868.19	-0.000
868.36	-0.000
868.53	-0.000
868.70	-0.000
868.87	-0.000
869.04	-0.000
869.21	-0.000
869.38	-0.000
869.55	-0.000
869.72	-0.000
869.89	-0.000
870.06	-0.000
870.24	-0.000
870.41	-0.000
870.58	-0.000
870.75	-0.000
870.92	-0.000
871.09	-0.000
871.26	-0.000
871.43	-0.000
871.60	-0.000
871.77	-0.000
871.94	-0.000
872.11	-0.000
872.28	-0.000
872.45	-0.000
872.62	-0.000
872.79	-0.000
872.96	-0.000
873.13	-0.000
873.30	-0.000
873.47	-0.000
873.64	-0.000
873.81	-0.000
873.98	-0.000
874.15	-0.000
874.32	-0.000
874.49	-0.000
874.66	-0.000
874.83	-0.000
875.00	-0.000
875.17	-0.000
875.34	-0.000
875.51	-0.000
875.68	-0.000
875.85	-0.000
876.02	-0.000
876.19	-0.000
876.36	-0.000
876.53	-0.000
876.70	-0.000
876.87	-0.000
877.04	-0.000
877.21	-0.000
877.38	-0.000
877.55	-0.000
877.72	-0.000
877.89	-0.000
878.06	-0.000
878.23	-0.000
878.39	-0.000
878.56	-0.000
878.73	-0.000
878.90	-0.000
879.07	-0.000
879.24	-0.000
879.41	-0.000
879.58	-0.000
879.75	-0.000
879.92	-0.000
880.09	-0.000
880.26	-0.000
880.43	-0.000
880.60	-0.000
880.77	-0.000
880.94	-0.000
881.11	-0.000
881.27	-0.000
881.44	-0.000
881.61	-0.000
881.78	-0.000
881.95	-0.000
882.12	-0.000
882.29	-0.000
882.46	-0.000
882.63	-0.000
882.80	-0.000
882.97	-0.000
883.14	-0.000
883.30	-0.000
883.47	-0.000
883.64	-0.000
883.81	-0.000
883.98	-0.000
884.15	-0.000
884.32	-0.000
884.49	-0.000
884.66	-0.000
884.82	-0.000
884.99	-0.000
885.16	-0.000
885.33	-0.000
885.50	-0.000
885.67	-0.000
885.84	-0.000
886.01	-0.000
886.17	-0.000
886.34	-0.000
886.51	-0.000
886.68	-0.000
886.85	-0.000
887.02	-0.000
887.19	-0.000
887.36	-0.000
887.52	-0.000
887.69	-0.000
887.86	-0.000
888.03	-0.000
888.20	-0.000
888.37	-0.000
888.54	-0.000
888.70	-0.000
888.87	-0.000
889.04	-0.000
889.21	-0.000
889.38	-0.000
889.55	-0.000
889.71	-0.000
889.88	-0.000
890.05	-0.000
890.22	-0.000
890.39	-0.000
>>>>>End Processed Spectral Data<<<<<
