SpectraSuite Data File
++++++++++++++++++++++++++++++++++++
Date: Fri Jun 19 15:16:27 CEST 2015
User: introlabs
Dark Spectrum Present: Yes
Reference Spectrum Present: Yes
Number of Sampled Component Spectra: 1
Spectrometers: USB4H08886
Integration Time (usec): 745692 (USB4H08886)
Spectra Averaged: 5 (USB4H08886)
Boxcar Smoothing: 5 (USB4H08886)
Correct for Electrical Dark: Yes (USB4H08886)
Strobe/Lamp Enabled: No (USB4H08886)
Correct for Detector Non-linearity: Yes (USB4H08886)
Correct for Stray Light: Yes (USB4H08886)
Number of Pixels in Processed Spectrum: 3648
>>>>>Begin Processed Spectral Data<<<<<
178.14	-0.000
178.36	-0.000
178.57	-0.000
178.79	-0.000
179.01	-0.000
179.22	-0.000
179.44	-0.000
179.65	-0.000
179.87	-0.000
180.08	-0.000
180.30	-0.000
180.52	-0.000
180.73	-0.000
180.95	-0.000
181.16	-0.000
181.38	-0.000
181.59	-0.000
181.81	-0.000
182.03	-0.000
182.24	-0.000
182.46	-0.000
182.67	-0.000
182.89	-0.000
183.10	-0.000
183.32	-0.000
183.54	-0.000
183.75	-0.000
183.97	-0.000
184.18	-0.000
184.40	-0.000
184.61	-0.000
184.83	-0.000
185.04	-0.000
185.26	-0.000
185.48	-0.000
185.69	-0.000
185.91	-0.000
186.12	-0.000
186.34	-0.000
186.55	-0.000
186.77	-0.000
186.98	-0.000
187.20	-0.000
187.42	-0.000
187.63	-0.000
187.85	-0.000
188.06	-0.000
188.28	-0.000
188.49	-0.000
188.71	-0.000
188.92	-0.000
189.14	-0.000
189.36	-0.000
189.57	-0.000
189.79	-0.000
190.00	-0.000
190.22	-0.000
190.43	-0.000
190.65	-0.000
190.86	-0.000
191.08	-0.000
191.29	-0.000
191.51	-0.000
191.72	-0.000
191.94	-0.000
192.16	-0.000
192.37	-0.000
192.59	-0.000
192.80	-0.000
193.02	-0.000
193.23	-0.000
193.45	-0.000
193.66	-0.000
193.88	-0.000
194.09	-0.000
194.31	-0.000
194.52	-0.000
194.74	-0.000
194.95	-0.000
195.17	-0.000
195.38	-0.000
195.60	-0.000
195.81	-0.000
196.03	-0.000
196.25	-0.000
196.46	-0.000
196.68	-0.000
196.89	-0.000
197.11	-0.000
197.32	-0.000
197.54	-0.000
197.75	-0.000
197.97	-0.000
198.18	-0.000
198.40	-0.000
198.61	-0.000
198.83	-0.000
199.04	-0.000
199.26	-0.000
199.47	-0.000
199.69	-0.000
199.90	-0.000
200.12	-0.000
200.33	-0.000
200.55	-0.000
200.76	-0.000
200.98	-0.000
201.19	-0.000
201.41	-0.000
201.62	-0.000
201.84	-0.000
202.05	-0.000
202.27	-0.000
202.48	-0.000
202.70	-0.000
202.91	-0.000
203.13	-0.000
203.34	-0.000
203.56	-0.000
203.77	-0.000
203.99	-0.000
204.20	-0.000
204.42	-0.000
204.63	-0.000
204.85	-0.000
205.06	-0.000
205.28	-0.000
205.49	-0.000
205.71	-0.000
205.92	-0.000
206.14	-0.000
206.35	-0.000
206.56	-0.000
206.78	-0.000
206.99	-0.000
207.21	-0.000
207.42	-0.000
207.64	-0.000
207.85	-0.000
208.07	-0.000
208.28	-0.000
208.50	-0.000
208.71	-0.000
208.93	-0.000
209.14	-0.000
209.36	-0.000
209.57	-0.000
209.79	-0.000
210.00	-0.000
210.22	-0.000
210.43	-0.000
210.64	-0.000
210.86	-0.000
211.07	-0.000
211.29	-0.000
211.50	-0.000
211.72	-0.000
211.93	-0.000
212.15	-0.000
212.36	-0.000
212.58	-0.000
212.79	-0.000
213.01	-0.000
213.22	-0.000
213.43	-0.000
213.65	-0.000
213.86	-0.000
214.08	-0.000
214.29	-0.000
214.51	-0.000
214.72	-0.000
214.94	-0.000
215.15	-0.000
215.36	-0.000
215.58	-0.000
215.79	-0.000
216.01	-0.000
216.22	-0.000
216.44	-0.000
216.65	-0.000
216.87	-0.000
217.08	-0.000
217.29	-0.000
217.51	-0.000
217.72	-0.000
217.94	-0.000
218.15	-0.000
218.37	-0.000
218.58	-0.000
218.80	-0.000
219.01	-0.000
219.22	-0.000
219.44	-0.000
219.65	-0.000
219.87	-0.000
220.08	-0.000
220.30	-0.000
220.51	-0.000
220.72	-0.000
220.94	-0.000
221.15	-0.000
221.37	-0.000
221.58	-0.000
221.79	-0.000
222.01	-0.000
222.22	-0.000
222.44	-0.000
222.65	-0.000
222.87	-0.000
223.08	-0.000
223.29	-0.000
223.51	-0.000
223.72	-0.000
223.94	-0.000
224.15	-0.000
224.36	-0.000
224.58	-0.000
224.79	-0.000
225.01	-0.000
225.22	-0.000
225.44	-0.000
225.65	-0.000
225.86	-0.000
226.08	-0.000
226.29	-0.000
226.51	-0.000
226.72	-0.000
226.93	-0.000
227.15	-0.000
227.36	-0.000
227.58	-0.000
227.79	-0.000
228.00	-0.000
228.22	-0.000
228.43	-0.000
228.65	-0.000
228.86	-0.000
229.07	-0.000
229.29	-0.000
229.50	-0.000
229.72	-0.000
229.93	-0.000
230.14	-0.000
230.36	-0.000
230.57	-0.000
230.78	-0.000
231.00	-0.000
231.21	-0.000
231.43	-0.000
231.64	-0.000
231.85	-0.000
232.07	-0.000
232.28	-0.000
232.50	-0.000
232.71	-0.000
232.92	-0.000
233.14	-0.000
233.35	-0.000
233.56	-0.000
233.78	-0.000
233.99	-0.000
234.21	-0.000
234.42	-0.000
234.63	-0.000
234.85	-0.000
235.06	-0.000
235.27	-0.000
235.49	-0.000
235.70	-0.000
235.91	-0.000
236.13	-0.000
236.34	-0.000
236.56	-0.000
236.77	-0.000
236.98	-0.000
237.20	-0.000
237.41	-0.000
237.62	-0.000
237.84	-0.000
238.05	-0.000
238.26	-0.000
238.48	-0.000
238.69	-0.000
238.91	-0.000
239.12	-0.000
239.33	-0.000
239.55	-0.000
239.76	-0.000
239.97	-0.000
240.19	-0.000
240.40	-0.000
240.61	-0.000
240.83	-0.000
241.04	-0.000
241.25	-0.000
241.47	-0.000
241.68	-0.000
241.89	-0.000
242.11	-0.000
242.32	-0.000
242.53	-0.000
242.75	-0.000
242.96	-0.000
243.17	-0.000
243.39	-0.000
243.60	-0.000
243.81	-0.000
244.03	-0.000
244.24	-0.000
244.45	-0.000
244.67	-0.000
244.88	-0.000
245.09	-0.000
245.31	-0.000
245.52	-0.000
245.73	-0.000
245.95	-0.000
246.16	-0.000
246.37	-0.000
246.59	-0.000
246.80	-0.000
247.01	-0.000
247.23	-0.000
247.44	-0.000
247.65	-0.000
247.87	-0.000
248.08	-0.000
248.29	-0.000
248.51	-0.000
248.72	-0.000
248.93	-0.000
249.15	-0.000
249.36	-0.000
249.57	-0.000
249.78	-0.000
250.00	-0.000
250.21	-0.000
250.42	-0.000
250.64	-0.000
250.85	-0.000
251.06	-0.000
251.28	-0.000
251.49	-0.000
251.70	-0.000
251.92	-0.000
252.13	-0.000
252.34	-0.000
252.55	-0.000
252.77	-0.000
252.98	-0.000
253.19	-0.000
253.41	-0.000
253.62	-0.000
253.83	-0.000
254.05	-0.000
254.26	-0.000
254.47	-0.000
254.68	-0.000
254.90	-0.000
255.11	-0.000
255.32	-0.000
255.54	-0.000
255.75	-0.000
255.96	-0.000
256.17	-0.000
256.39	-0.000
256.60	-0.000
256.81	-0.000
257.03	-0.000
257.24	-0.000
257.45	-0.000
257.66	-0.000
257.88	-0.000
258.09	-0.000
258.30	-0.000
258.51	-0.000
258.73	-0.000
258.94	-0.000
259.15	-0.000
259.37	-0.000
259.58	-0.000
259.79	-0.000
260.00	-0.000
260.22	-0.000
260.43	-0.000
260.64	-0.000
260.85	-0.000
261.07	-0.000
261.28	-0.000
261.49	-0.000
261.71	-0.000
261.92	-0.000
262.13	-0.000
262.34	-0.000
262.56	-0.000
262.77	-0.000
262.98	-0.000
263.19	-0.000
263.41	-0.000
263.62	-0.000
263.83	-0.000
264.04	-0.000
264.26	-0.000
264.47	-0.000
264.68	-0.000
264.89	-0.000
265.11	-0.000
265.32	-0.000
265.53	-0.000
265.74	-0.000
265.96	-0.000
266.17	-0.000
266.38	-0.000
266.59	-0.000
266.81	-0.000
267.02	-0.000
267.23	-0.000
267.44	-0.000
267.65	-0.000
267.87	-0.000
268.08	-0.000
268.29	-0.000
268.50	-0.000
268.72	-0.000
268.93	-0.000
269.14	-0.000
269.35	-0.000
269.57	-0.000
269.78	-0.000
269.99	-0.000
270.20	-0.000
270.41	-0.000
270.63	-0.000
270.84	-0.000
271.05	-0.000
271.26	-0.000
271.48	-0.000
271.69	-0.000
271.90	-0.000
272.11	-0.000
272.32	-0.000
272.54	-0.000
272.75	-0.000
272.96	-0.000
273.17	-0.000
273.39	-0.000
273.60	-0.000
273.81	-0.000
274.02	-0.000
274.23	-0.000
274.45	-0.000
274.66	-0.000
274.87	-0.000
275.08	-0.000
275.29	-0.000
275.51	-0.000
275.72	-0.000
275.93	-0.000
276.14	-0.000
276.35	-0.000
276.57	-0.000
276.78	-0.000
276.99	-0.000
277.20	-0.000
277.41	-0.000
277.63	-0.000
277.84	-0.000
278.05	-0.000
278.26	-0.000
278.47	-0.000
278.69	-0.000
278.90	-0.000
279.11	-0.000
279.32	-0.000
279.53	-0.000
279.74	-0.000
279.96	-0.000
280.17	-0.000
280.38	-0.000
280.59	-0.000
280.80	-0.000
281.02	-0.000
281.23	-0.000
281.44	-0.000
281.65	-0.000
281.86	-0.000
282.07	-0.000
282.29	-0.000
282.50	-0.000
282.71	-0.000
282.92	-0.000
283.13	-0.000
283.35	-0.000
283.56	-0.000
283.77	-0.000
283.98	-0.000
284.19	-0.000
284.40	-0.000
284.62	-0.000
284.83	-0.000
285.04	-0.000
285.25	-0.000
285.46	-0.000
285.67	-0.000
285.88	-0.000
286.10	-0.000
286.31	-0.000
286.52	-0.000
286.73	-0.000
286.94	-0.000
287.15	-0.000
287.37	-0.000
287.58	-0.000
287.79	-0.000
288.00	-0.000
288.21	-0.000
288.42	-0.000
288.63	-0.000
288.85	-0.000
289.06	-0.000
289.27	-0.000
289.48	-0.000
289.69	-0.000
289.90	-0.000
290.11	-0.000
290.33	-0.000
290.54	-0.000
290.75	-0.000
290.96	-0.000
291.17	-0.000
291.38	-0.000
291.59	-0.000
291.81	-0.000
292.02	-0.000
292.23	-0.000
292.44	-0.000
292.65	-0.000
292.86	-0.000
293.07	-0.000
293.28	-0.000
293.50	-0.000
293.71	-0.000
293.92	-0.000
294.13	-0.000
294.34	-0.000
294.55	-0.000
294.76	-0.000
294.97	-0.000
295.19	-0.000
295.40	-0.000
295.61	-0.000
295.82	-0.000
296.03	-0.000
296.24	-0.000
296.45	2.094
296.66	1.785
296.87	1.808
297.09	1.871
297.30	2.043
297.51	1.713
297.72	1.684
297.93	1.756
298.14	1.709
298.35	1.679
298.56	1.659
298.77	1.763
298.99	1.741
299.20	1.722
299.41	1.701
299.62	1.656
299.83	1.647
300.04	1.585
300.25	1.585
300.46	1.623
300.67	1.590
300.88	1.539
301.10	1.546
301.31	1.609
301.52	1.544
301.73	1.496
301.94	1.502
302.15	1.516
302.36	1.475
302.57	1.412
302.78	1.419
302.99	1.455
303.20	1.478
303.41	1.391
303.63	1.374
303.84	1.382
304.05	1.379
304.26	1.321
304.47	1.319
304.68	1.317
304.89	1.310
305.10	1.273
305.31	1.262
305.52	1.304
305.73	1.298
305.94	1.261
306.15	1.254
306.37	1.271
306.58	1.278
306.79	1.257
307.00	1.280
307.21	1.319
307.42	1.315
307.63	1.276
307.84	1.242
308.05	1.276
308.26	1.278
308.47	1.258
308.68	1.255
308.89	1.256
309.10	1.250
309.31	1.213
309.52	1.204
309.73	1.216
309.95	1.215
310.16	1.189
310.37	1.179
310.58	1.191
310.79	1.188
311.00	1.184
311.21	1.185
311.42	1.185
311.63	1.181
311.84	1.163
312.05	1.163
312.26	1.182
312.47	1.193
312.68	1.172
312.89	1.158
313.10	1.163
313.31	1.138
313.52	1.140
313.73	1.141
313.94	1.138
314.15	1.123
314.36	1.101
314.57	1.094
314.78	1.081
314.99	1.073
315.21	1.065
315.42	1.070
315.63	1.081
315.84	1.061
316.05	1.049
316.26	1.057
316.47	1.073
316.68	1.072
316.89	1.055
317.10	1.075
317.31	1.079
317.52	1.080
317.73	1.062
317.94	1.061
318.15	1.100
318.36	1.100
318.57	1.086
318.78	1.076
318.99	1.107
319.20	1.105
319.41	1.071
319.62	1.072
319.83	1.083
320.04	1.077
320.25	1.067
320.46	1.036
320.67	1.038
320.88	1.035
321.09	1.022
321.30	1.008
321.51	1.021
321.72	1.018
321.93	1.005
322.14	0.996
322.35	1.021
322.56	1.022
322.77	1.010
322.98	1.020
323.19	1.026
323.40	1.032
323.61	1.012
323.82	1.007
324.03	1.014
324.24	1.012
324.45	1.001
324.66	0.983
324.87	0.978
325.08	0.978
325.29	0.960
325.50	0.953
325.71	0.958
325.92	0.966
326.13	0.953
326.34	0.952
326.55	0.959
326.76	0.958
326.97	0.950
327.18	0.945
327.39	0.967
327.60	0.969
327.80	0.969
328.01	0.967
328.22	0.966
328.43	0.969
328.64	0.958
328.85	0.962
329.06	0.963
329.27	0.961
329.48	0.957
329.69	0.939
329.90	0.949
330.11	0.944
330.32	0.938
330.53	0.931
330.74	0.931
330.95	0.929
331.16	0.916
331.37	0.924
331.58	0.924
331.79	0.924
332.00	0.917
332.21	0.909
332.42	0.911
332.63	0.902
332.83	0.901
333.04	0.904
333.25	0.915
333.46	0.914
333.67	0.900
333.88	0.902
334.09	0.911
334.30	0.908
334.51	0.900
334.72	0.896
334.93	0.899
335.14	0.898
335.35	0.892
335.56	0.888
335.77	0.895
335.98	0.895
336.18	0.891
336.39	0.882
336.60	0.884
336.81	0.882
337.02	0.882
337.23	0.887
337.44	0.888
337.65	0.889
337.86	0.879
338.07	0.875
338.28	0.878
338.49	0.875
338.70	0.869
338.91	0.876
339.11	0.884
339.32	0.879
339.53	0.868
339.74	0.865
339.95	0.862
340.16	0.860
340.37	0.853
340.58	0.851
340.79	0.853
341.00	0.853
341.21	0.843
341.41	0.844
341.62	0.845
341.83	0.844
342.04	0.840
342.25	0.850
342.46	0.854
342.67	0.853
342.88	0.847
343.09	0.847
343.30	0.853
343.50	0.856
343.71	0.846
343.92	0.845
344.13	0.849
344.34	0.848
344.55	0.833
344.76	0.832
344.97	0.835
345.18	0.834
345.38	0.832
345.59	0.826
345.80	0.825
346.01	0.824
346.22	0.821
346.43	0.816
346.64	0.824
346.85	0.824
347.06	0.817
347.26	0.816
347.47	0.818
347.68	0.814
347.89	0.810
348.10	0.805
348.31	0.811
348.52	0.810
348.73	0.807
348.93	0.805
349.14	0.807
349.35	0.807
349.56	0.803
349.77	0.800
349.98	0.806
350.19	0.803
350.39	0.798
350.60	0.794
350.81	0.809
351.02	0.808
351.23	0.802
351.44	0.804
351.65	0.806
351.86	0.803
352.06	0.801
352.27	0.800
352.48	0.801
352.69	0.802
352.90	0.796
353.11	0.782
353.31	0.790
353.52	0.786
353.73	0.778
353.94	0.779
354.15	0.784
354.36	0.784
354.57	0.777
354.77	0.780
354.98	0.779
355.19	0.779
355.40	0.779
355.61	0.783
355.82	0.788
356.02	0.788
356.23	0.782
356.44	0.782
356.65	0.785
356.86	0.785
357.07	0.778
357.27	0.781
357.48	0.784
357.69	0.780
357.90	0.765
358.11	0.761
358.32	0.764
358.52	0.767
358.73	0.758
358.94	0.760
359.15	0.764
359.36	0.764
359.56	0.759
359.77	0.757
359.98	0.763
360.19	0.763
360.40	0.761
360.61	0.762
360.81	0.761
361.02	0.761
361.23	0.754
361.44	0.752
361.65	0.753
361.85	0.753
362.06	0.752
362.27	0.754
362.48	0.754
362.69	0.755
362.89	0.749
363.10	0.751
363.31	0.755
363.52	0.757
363.73	0.753
363.93	0.753
364.14	0.755
364.35	0.757
364.56	0.747
364.77	0.747
364.97	0.750
365.18	0.750
365.39	0.745
365.60	0.741
365.81	0.742
366.01	0.742
366.22	0.739
366.43	0.738
366.64	0.739
366.84	0.744
367.05	0.741
367.26	0.741
367.47	0.743
367.68	0.743
367.88	0.741
368.09	0.739
368.30	0.741
368.51	0.741
368.71	0.740
368.92	0.745
369.13	0.742
369.34	0.742
369.55	0.741
369.75	0.741
369.96	0.747
370.17	0.746
370.38	0.744
370.58	0.743
370.79	0.748
371.00	0.746
371.21	0.738
371.41	0.743
371.62	0.747
371.83	0.743
372.04	0.741
372.24	0.735
372.45	0.735
372.66	0.736
372.87	0.734
373.07	0.730
373.28	0.731
373.49	0.735
373.70	0.726
373.90	0.725
374.11	0.734
374.32	0.733
374.53	0.732
374.73	0.733
374.94	0.735
375.15	0.736
375.36	0.734
375.56	0.742
375.77	0.742
375.98	0.742
376.19	0.739
376.39	0.733
376.60	0.736
376.81	0.737
377.02	0.735
377.22	0.733
377.43	0.732
377.64	0.732
377.84	0.724
378.05	0.728
378.26	0.733
378.47	0.733
378.67	0.730
378.88	0.728
379.09	0.728
379.30	0.728
379.50	0.726
379.71	0.728
379.92	0.730
380.12	0.729
380.33	0.722
380.54	0.718
380.75	0.725
380.95	0.725
381.16	0.723
381.37	0.723
381.57	0.724
381.78	0.724
381.99	0.724
382.20	0.725
382.40	0.728
382.61	0.728
382.82	0.725
383.02	0.719
383.23	0.721
383.44	0.722
383.64	0.721
383.85	0.723
384.06	0.726
384.27	0.724
384.47	0.723
384.68	0.723
384.89	0.728
385.09	0.729
385.30	0.728
385.51	0.727
385.71	0.730
385.92	0.731
386.13	0.730
386.33	0.732
386.54	0.733
386.75	0.731
386.95	0.728
387.16	0.723
387.37	0.724
387.58	0.724
387.78	0.722
387.99	0.720
388.20	0.721
388.40	0.718
388.61	0.714
388.82	0.717
389.02	0.719
389.23	0.720
389.44	0.719
389.64	0.719
389.85	0.730
390.06	0.730
390.26	0.732
390.47	0.732
390.68	0.734
390.88	0.732
391.09	0.728
391.30	0.727
391.50	0.727
391.71	0.726
391.92	0.724
392.12	0.717
392.33	0.717
392.53	0.716
392.74	0.717
392.95	0.717
393.15	0.719
393.36	0.721
393.57	0.719
393.77	0.722
393.98	0.724
394.19	0.724
394.39	0.723
394.60	0.725
394.81	0.727
395.01	0.725
395.22	0.723
395.43	0.724
395.63	0.729
395.84	0.730
396.04	0.727
396.25	0.729
396.46	0.730
396.66	0.728
396.87	0.726
397.08	0.723
397.28	0.726
397.49	0.727
397.69	0.724
397.90	0.718
398.11	0.719
398.31	0.720
398.52	0.717
398.73	0.719
398.93	0.718
399.14	0.717
399.34	0.716
399.55	0.717
399.76	0.717
399.96	0.718
400.17	0.718
400.37	0.716
400.58	0.722
400.79	0.723
400.99	0.721
401.20	0.726
401.41	0.729
401.61	0.730
401.82	0.735
402.02	0.734
402.23	0.735
402.44	0.734
402.64	0.735
402.85	0.730
403.05	0.730
403.26	0.729
403.47	0.723
403.67	0.722
403.88	0.722
404.08	0.716
404.29	0.715
404.50	0.714
404.70	0.714
404.91	0.714
405.11	0.710
405.32	0.711
405.52	0.711
405.73	0.710
405.94	0.709
406.14	0.712
406.35	0.714
406.55	0.714
406.76	0.711
406.97	0.712
407.17	0.714
407.38	0.714
407.58	0.712
407.79	0.715
407.99	0.717
408.20	0.718
408.41	0.714
408.61	0.712
408.82	0.714
409.02	0.714
409.23	0.712
409.43	0.710
409.64	0.711
409.84	0.711
410.05	0.708
410.26	0.706
410.46	0.705
410.67	0.705
410.87	0.707
411.08	0.708
411.28	0.709
411.49	0.711
411.69	0.709
411.90	0.710
412.11	0.711
412.31	0.712
412.52	0.711
412.72	0.713
412.93	0.713
413.13	0.713
413.34	0.710
413.54	0.712
413.75	0.713
413.95	0.713
414.16	0.710
414.37	0.713
414.57	0.714
414.78	0.716
414.98	0.714
415.19	0.715
415.39	0.712
415.60	0.713
415.80	0.712
416.01	0.710
416.21	0.712
416.42	0.712
416.62	0.707
416.83	0.707
417.03	0.706
417.24	0.706
417.44	0.704
417.65	0.703
417.86	0.704
418.06	0.702
418.27	0.699
418.47	0.701
418.68	0.702
418.88	0.703
419.09	0.701
419.29	0.702
419.50	0.702
419.70	0.702
419.91	0.701
420.11	0.699
420.32	0.702
420.52	0.702
420.73	0.701
420.93	0.702
421.14	0.704
421.34	0.703
421.55	0.699
421.75	0.699
421.96	0.700
422.16	0.700
422.37	0.698
422.57	0.695
422.78	0.696
422.98	0.693
423.19	0.691
423.39	0.689
423.60	0.692
423.80	0.693
424.01	0.692
424.21	0.694
424.42	0.695
424.62	0.695
424.83	0.694
425.03	0.694
425.23	0.696
425.44	0.696
425.64	0.697
425.85	0.695
426.05	0.696
426.26	0.696
426.46	0.693
426.67	0.692
426.87	0.697
427.08	0.698
427.28	0.696
427.49	0.696
427.69	0.697
427.90	0.696
428.10	0.693
428.31	0.693
428.51	0.694
428.71	0.694
428.92	0.695
429.12	0.692
429.33	0.693
429.53	0.697
429.74	0.701
429.94	0.701
430.15	0.700
430.35	0.700
430.56	0.697
430.76	0.696
430.96	0.697
431.17	0.694
431.37	0.691
431.58	0.689
431.78	0.685
431.99	0.678
432.19	0.680
432.40	0.682
432.60	0.683
432.80	0.685
433.01	0.684
433.21	0.684
433.42	0.686
433.62	0.686
433.83	0.686
434.03	0.688
434.23	0.691
434.44	0.689
434.64	0.686
434.85	0.691
435.05	0.692
435.26	0.692
435.46	0.690
435.66	0.690
435.87	0.690
436.07	0.690
436.28	0.686
436.48	0.683
436.69	0.683
436.89	0.683
437.09	0.677
437.30	0.676
437.50	0.676
437.71	0.687
437.91	0.686
438.11	0.687
438.32	0.691
438.52	0.691
438.73	0.691
438.93	0.690
439.13	0.689
439.34	0.693
439.54	0.691
439.75	0.691
439.95	0.682
440.15	0.686
440.36	0.685
440.56	0.682
440.77	0.683
440.97	0.682
441.17	0.682
441.38	0.683
441.58	0.680
441.79	0.679
441.99	0.678
442.19	0.676
442.40	0.673
442.60	0.673
442.81	0.672
443.01	0.672
443.21	0.673
443.42	0.673
443.62	0.671
443.82	0.671
444.03	0.672
444.23	0.671
444.44	0.672
444.64	0.671
444.84	0.672
445.05	0.671
445.25	0.669
445.45	0.669
445.66	0.670
445.86	0.670
446.06	0.672
446.27	0.671
446.47	0.674
446.68	0.673
446.88	0.671
447.08	0.671
447.29	0.672
447.49	0.671
447.69	0.671
447.90	0.669
448.10	0.673
448.30	0.669
448.51	0.671
448.71	0.668
448.91	0.670
449.12	0.669
449.32	0.670
449.52	0.669
449.73	0.673
449.93	0.673
450.14	0.673
450.34	0.673
450.54	0.675
450.75	0.672
450.95	0.671
451.15	0.671
451.36	0.674
451.56	0.670
451.76	0.670
451.97	0.667
452.17	0.666
452.37	0.665
452.58	0.662
452.78	0.662
452.98	0.664
453.19	0.663
453.39	0.664
453.59	0.663
453.79	0.664
454.00	0.663
454.20	0.662
454.40	0.663
454.61	0.665
454.81	0.666
455.01	0.664
455.22	0.665
455.42	0.666
455.62	0.664
455.83	0.664
456.03	0.667
456.23	0.668
456.44	0.669
456.64	0.669
456.84	0.669
457.04	0.669
457.25	0.668
457.45	0.665
457.65	0.664
457.86	0.665
458.06	0.664
458.26	0.660
458.47	0.659
458.67	0.660
458.87	0.659
459.07	0.657
459.28	0.659
459.48	0.661
459.68	0.661
459.89	0.660
460.09	0.659
460.29	0.660
460.49	0.661
460.70	0.660
460.90	0.659
461.10	0.660
461.31	0.660
461.51	0.657
461.71	0.659
461.91	0.660
462.12	0.660
462.32	0.659
462.52	0.660
462.72	0.662
462.93	0.663
463.13	0.662
463.33	0.662
463.53	0.664
463.74	0.663
463.94	0.658
464.14	0.659
464.35	0.660
464.55	0.660
464.75	0.658
464.95	0.656
465.16	0.657
465.36	0.656
465.56	0.655
465.76	0.655
465.97	0.655
466.17	0.656
466.37	0.654
466.57	0.655
466.78	0.656
466.98	0.655
467.18	0.654
467.38	0.653
467.59	0.654
467.79	0.656
467.99	0.655
468.19	0.655
468.39	0.658
468.60	0.658
468.80	0.656
469.00	0.658
469.20	0.658
469.41	0.658
469.61	0.658
469.81	0.659
470.01	0.658
470.22	0.658
470.42	0.657
470.62	0.655
470.82	0.656
471.02	0.655
471.23	0.653
471.43	0.655
471.63	0.657
471.83	0.657
472.04	0.655
472.24	0.654
472.44	0.659
472.64	0.660
472.84	0.658
473.05	0.658
473.25	0.660
473.45	0.659
473.65	0.656
473.85	0.657
474.06	0.658
474.26	0.657
474.46	0.659
474.66	0.656
474.86	0.656
475.07	0.656
475.27	0.654
475.47	0.652
475.67	0.654
475.87	0.655
476.08	0.652
476.28	0.653
476.48	0.655
476.68	0.653
476.88	0.651
477.09	0.652
477.29	0.654
477.49	0.654
477.69	0.653
477.89	0.653
478.09	0.652
478.30	0.655
478.50	0.652
478.70	0.651
478.90	0.651
479.10	0.654
479.31	0.655
479.51	0.653
479.71	0.653
479.91	0.653
480.11	0.652
480.31	0.652
480.52	0.651
480.72	0.651
480.92	0.650
481.12	0.649
481.32	0.646
481.52	0.645
481.72	0.645
481.93	0.649
482.13	0.649
482.33	0.649
482.53	0.647
482.73	0.648
482.93	0.649
483.14	0.649
483.34	0.649
483.54	0.650
483.74	0.649
483.94	0.648
484.14	0.644
484.34	0.644
484.55	0.644
484.75	0.644
484.95	0.641
485.15	0.641
485.35	0.641
485.55	0.641
485.75	0.639
485.96	0.639
486.16	0.640
486.36	0.640
486.56	0.638
486.76	0.638
486.96	0.639
487.16	0.638
487.36	0.636
487.57	0.636
487.77	0.636
487.97	0.637
488.17	0.634
488.37	0.634
488.57	0.634
488.77	0.634
488.97	0.633
489.18	0.632
489.38	0.635
489.58	0.636
489.78	0.635
489.98	0.635
490.18	0.635
490.38	0.636
490.58	0.635
490.78	0.636
490.98	0.638
491.19	0.638
491.39	0.638
491.59	0.636
491.79	0.639
491.99	0.639
492.19	0.638
492.39	0.641
492.59	0.641
492.79	0.643
492.99	0.642
493.20	0.642
493.40	0.642
493.60	0.643
493.80	0.642
494.00	0.640
494.20	0.640
494.40	0.640
494.60	0.637
494.80	0.641
495.00	0.640
495.20	0.638
495.40	0.637
495.61	0.639
495.81	0.639
496.01	0.642
496.21	0.643
496.41	0.642
496.61	0.643
496.81	0.642
497.01	0.638
497.21	0.637
497.41	0.638
497.61	0.638
497.81	0.636
498.01	0.636
498.21	0.634
498.41	0.631
498.61	0.632
498.82	0.632
499.02	0.634
499.22	0.635
499.42	0.634
499.62	0.636
499.82	0.637
500.02	0.638
500.22	0.637
500.42	0.638
500.62	0.639
500.82	0.639
501.02	0.637
501.22	0.637
501.42	0.637
501.62	0.639
501.82	0.638
502.02	0.638
502.22	0.638
502.42	0.639
502.62	0.637
502.82	0.637
503.02	0.638
503.22	0.638
503.42	0.636
503.63	0.636
503.83	0.634
504.03	0.633
504.23	0.632
504.43	0.632
504.63	0.633
504.83	0.633
505.03	0.632
505.23	0.633
505.43	0.635
505.63	0.635
505.83	0.635
506.03	0.637
506.23	0.639
506.43	0.639
506.63	0.638
506.83	0.637
507.03	0.639
507.23	0.639
507.43	0.637
507.63	0.637
507.83	0.637
508.03	0.637
508.23	0.636
508.43	0.635
508.63	0.637
508.83	0.637
509.03	0.638
509.23	0.637
509.43	0.637
509.63	0.638
509.83	0.637
510.03	0.640
510.23	0.641
510.43	0.642
510.63	0.642
510.83	0.642
511.03	0.643
511.23	0.641
511.43	0.641
511.63	0.644
511.83	0.646
512.03	0.645
512.22	0.642
512.42	0.641
512.62	0.642
512.82	0.642
513.02	0.641
513.22	0.641
513.42	0.643
513.62	0.645
513.82	0.642
514.02	0.642
514.22	0.644
514.42	0.644
514.62	0.644
514.82	0.644
515.02	0.646
515.22	0.649
515.42	0.648
515.62	0.650
515.82	0.649
516.02	0.650
516.22	0.649
516.42	0.650
516.62	0.652
516.82	0.653
517.01	0.651
517.21	0.650
517.41	0.654
517.61	0.654
517.81	0.651
518.01	0.651
518.21	0.650
518.41	0.649
518.61	0.649
518.81	0.649
519.01	0.650
519.21	0.650
519.41	0.649
519.61	0.644
519.81	0.647
520.00	0.647
520.20	0.648
520.40	0.651
520.60	0.651
520.80	0.650
521.00	0.651
521.20	0.651
521.40	0.655
521.60	0.656
521.80	0.655
522.00	0.655
522.20	0.657
522.39	0.656
522.59	0.653
522.79	0.655
522.99	0.658
523.19	0.656
523.39	0.654
523.59	0.653
523.79	0.655
523.99	0.658
524.19	0.657
524.38	0.656
524.58	0.657
524.78	0.658
524.98	0.656
525.18	0.658
525.38	0.658
525.58	0.659
525.78	0.657
525.98	0.655
526.18	0.655
526.37	0.654
526.57	0.657
526.77	0.656
526.97	0.656
527.17	0.656
527.37	0.652
527.57	0.654
527.77	0.656
527.96	0.656
528.16	0.655
528.36	0.656
528.56	0.658
528.76	0.656
528.96	0.655
529.16	0.657
529.36	0.660
529.55	0.660
529.75	0.658
529.95	0.658
530.15	0.658
530.35	0.660
530.55	0.658
530.75	0.658
530.94	0.659
531.14	0.660
531.34	0.658
531.54	0.656
531.74	0.659
531.94	0.661
532.13	0.660
532.33	0.662
532.53	0.661
532.73	0.660
532.93	0.659
533.13	0.659
533.33	0.660
533.52	0.660
533.72	0.663
533.92	0.662
534.12	0.660
534.32	0.660
534.52	0.659
534.71	0.661
534.91	0.664
535.11	0.665
535.31	0.664
535.51	0.666
535.71	0.667
535.90	0.664
536.10	0.665
536.30	0.667
536.50	0.667
536.70	0.667
536.89	0.665
537.09	0.664
537.29	0.665
537.49	0.666
537.69	0.664
537.89	0.665
538.08	0.665
538.28	0.664
538.48	0.665
538.68	0.667
538.88	0.668
539.07	0.669
539.27	0.667
539.47	0.666
539.67	0.666
539.87	0.668
540.06	0.665
540.26	0.666
540.46	0.668
540.66	0.665
540.86	0.663
541.05	0.663
541.25	0.664
541.45	0.664
541.65	0.663
541.84	0.665
542.04	0.666
542.24	0.667
542.44	0.665
542.64	0.666
542.83	0.669
543.03	0.669
543.23	0.667
543.43	0.668
543.62	0.669
543.82	0.669
544.02	0.668
544.22	0.667
544.42	0.671
544.61	0.671
544.81	0.668
545.01	0.667
545.21	0.670
545.40	0.670
545.60	0.667
545.80	0.670
546.00	0.670
546.19	0.669
546.39	0.669
546.59	0.666
546.79	0.668
546.98	0.668
547.18	0.668
547.38	0.668
547.58	0.670
547.77	0.671
547.97	0.667
548.17	0.669
548.37	0.669
548.56	0.670
548.76	0.669
548.96	0.670
549.16	0.672
549.35	0.672
549.55	0.670
549.75	0.670
549.95	0.674
550.14	0.674
550.34	0.673
550.54	0.678
550.73	0.681
550.93	0.682
551.13	0.679
551.33	0.678
551.52	0.679
551.72	0.679
551.92	0.677
552.12	0.678
552.31	0.678
552.51	0.678
552.71	0.673
552.90	0.673
553.10	0.674
553.30	0.674
553.50	0.673
553.69	0.674
553.89	0.675
554.09	0.676
554.28	0.672
554.48	0.673
554.68	0.675
554.87	0.675
555.07	0.672
555.27	0.672
555.47	0.674
555.66	0.674
555.86	0.672
556.06	0.675
556.25	0.676
556.45	0.684
556.65	0.682
556.84	0.685
557.04	0.688
557.24	0.690
557.43	0.690
557.63	0.693
557.83	0.695
558.02	0.696
558.22	0.700
558.42	0.700
558.61	0.694
558.81	0.695
559.01	0.692
559.21	0.692
559.40	0.692
559.60	0.692
559.80	0.688
559.99	0.690
560.19	0.691
560.39	0.685
560.58	0.683
560.78	0.682
560.97	0.685
561.17	0.684
561.37	0.682
561.56	0.682
561.76	0.684
561.96	0.684
562.15	0.681
562.35	0.683
562.55	0.685
562.74	0.684
562.94	0.684
563.14	0.682
563.33	0.682
563.53	0.681
563.73	0.679
563.92	0.681
564.12	0.682
564.31	0.684
564.51	0.683
564.71	0.684
564.90	0.687
565.10	0.688
565.30	0.692
565.49	0.693
565.69	0.695
565.89	0.696
566.08	0.693
566.28	0.695
566.47	0.696
566.67	0.694
566.87	0.692
567.06	0.694
567.26	0.701
567.46	0.696
567.65	0.696
567.85	0.697
568.04	0.699
568.24	0.699
568.44	0.696
568.63	0.694
568.83	0.696
569.02	0.695
569.22	0.690
569.42	0.686
569.61	0.687
569.81	0.686
570.00	0.685
570.20	0.686
570.40	0.687
570.59	0.687
570.79	0.685
570.98	0.683
571.18	0.684
571.38	0.684
571.57	0.681
571.77	0.679
571.96	0.682
572.16	0.679
572.35	0.675
572.55	0.676
572.75	0.674
572.94	0.673
573.14	0.672
573.33	0.672
573.53	0.673
573.73	0.672
573.92	0.670
574.12	0.669
574.31	0.671
574.51	0.672
574.70	0.669
574.90	0.671
575.09	0.673
575.29	0.672
575.49	0.670
575.68	0.671
575.88	0.672
576.07	0.673
576.27	0.671
576.46	0.669
576.66	0.668
576.86	0.667
577.05	0.665
577.25	0.664
577.44	0.666
577.64	0.665
577.83	0.663
578.03	0.665
578.22	0.664
578.42	0.664
578.61	0.662
578.81	0.663
579.00	0.663
579.20	0.663
579.40	0.662
579.59	0.660
579.79	0.661
579.98	0.661
580.18	0.660
580.37	0.660
580.57	0.661
580.76	0.665
580.96	0.664
581.15	0.665
581.35	0.666
581.54	0.666
581.74	0.666
581.93	0.668
582.13	0.668
582.32	0.666
582.52	0.664
582.71	0.664
582.91	0.660
583.10	0.659
583.30	0.658
583.49	0.657
583.69	0.661
583.88	0.662
584.08	0.661
584.27	0.664
584.47	0.667
584.66	0.668
584.86	0.667
585.05	0.669
585.25	0.671
585.44	0.671
585.64	0.669
585.83	0.666
586.03	0.666
586.22	0.665
586.42	0.660
586.61	0.661
586.81	0.663
587.00	0.662
587.20	0.660
587.39	0.660
587.59	0.662
587.78	0.663
587.98	0.664
588.17	0.665
588.37	0.667
588.56	0.669
588.76	0.664
588.95	0.664
589.15	0.669
589.34	0.671
589.54	0.670
589.73	0.671
589.92	0.675
590.12	0.675
590.31	0.673
590.51	0.678
590.70	0.680
590.90	0.681
591.09	0.680
591.29	0.678
591.48	0.677
591.68	0.679
591.87	0.677
592.06	0.676
592.26	0.678
592.45	0.677
592.65	0.672
592.84	0.672
593.04	0.673
593.23	0.675
593.43	0.673
593.62	0.672
593.81	0.672
594.01	0.672
594.20	0.669
594.40	0.667
594.59	0.669
594.79	0.670
594.98	0.668
595.17	0.668
595.37	0.669
595.56	0.671
595.76	0.670
595.95	0.672
596.14	0.675
596.34	0.676
596.53	0.676
596.73	0.678
596.92	0.679
597.12	0.682
597.31	0.682
597.50	0.682
597.70	0.684
597.89	0.684
598.09	0.680
598.28	0.681
598.47	0.684
598.67	0.682
598.86	0.679
599.06	0.680
599.25	0.680
599.44	0.677
599.64	0.675
599.83	0.671
600.03	0.674
600.22	0.674
600.41	0.674
600.61	0.672
600.80	0.674
601.00	0.675
601.19	0.670
601.38	0.670
601.58	0.672
601.77	0.673
601.96	0.676
602.16	0.676
602.35	0.685
602.55	0.683
602.74	0.684
602.93	0.686
603.13	0.691
603.32	0.692
603.51	0.692
603.71	0.696
603.90	0.697
604.09	0.698
604.29	0.695
604.48	0.690
604.68	0.691
604.87	0.689
605.06	0.685
605.26	0.682
605.45	0.682
605.64	0.681
605.84	0.676
606.03	0.675
606.22	0.674
606.42	0.673
606.61	0.670
606.80	0.669
607.00	0.671
607.19	0.671
607.38	0.670
607.58	0.671
607.77	0.673
607.96	0.673
608.16	0.672
608.35	0.676
608.54	0.679
608.74	0.682
608.93	0.687
609.12	0.690
609.32	0.692
609.51	0.695
609.70	0.694
609.90	0.696
610.09	0.700
610.28	0.705
610.48	0.700
610.67	0.701
610.86	0.701
611.06	0.695
611.25	0.694
611.44	0.694
611.64	0.694
611.83	0.697
612.02	0.694
612.21	0.692
612.41	0.691
612.60	0.690
612.79	0.686
612.99	0.686
613.18	0.689
613.37	0.686
613.57	0.684
613.76	0.686
613.95	0.683
614.14	0.683
614.34	0.680
614.53	0.681
614.72	0.684
614.92	0.685
615.11	0.682
615.30	0.679
615.49	0.679
615.69	0.682
615.88	0.679
616.07	0.679
616.26	0.681
616.46	0.682
616.65	0.680
616.84	0.678
617.04	0.679
617.23	0.682
617.42	0.682
617.61	0.687
617.81	0.687
618.00	0.689
618.19	0.688
618.38	0.692
618.58	0.695
618.77	0.697
618.96	0.697
619.15	0.699
619.35	0.700
619.54	0.701
619.73	0.697
619.92	0.700
620.12	0.704
620.31	0.705
620.50	0.700
620.69	0.698
620.89	0.701
621.08	0.701
621.27	0.701
621.46	0.700
621.66	0.703
621.85	0.703
622.04	0.700
622.23	0.701
622.43	0.700
622.62	0.700
622.81	0.700
623.00	0.698
623.19	0.701
623.39	0.700
623.58	0.698
623.77	0.697
623.96	0.699
624.16	0.698
624.35	0.693
624.54	0.697
624.73	0.700
624.92	0.697
625.12	0.695
625.31	0.696
625.50	0.699
625.69	0.699
625.88	0.696
626.08	0.696
626.27	0.698
626.46	0.698
626.65	0.695
626.84	0.695
627.04	0.700
627.23	0.701
627.42	0.698
627.61	0.699
627.80	0.702
628.00	0.702
628.19	0.700
628.38	0.703
628.57	0.705
628.76	0.705
628.96	0.702
629.15	0.703
629.34	0.705
629.53	0.704
629.72	0.699
629.91	0.700
630.11	0.704
630.30	0.704
630.49	0.707
630.68	0.707
630.87	0.711
631.06	0.714
631.26	0.709
631.45	0.711
631.64	0.719
631.83	0.721
632.02	0.719
632.21	0.718
632.41	0.725
632.60	0.719
632.79	0.718
632.98	0.717
633.17	0.718
633.36	0.720
633.55	0.717
633.75	0.712
633.94	0.714
634.13	0.715
634.32	0.712
634.51	0.706
634.70	0.708
634.89	0.707
635.09	0.704
635.28	0.704
635.47	0.705
635.66	0.708
635.85	0.704
636.04	0.705
636.23	0.708
636.43	0.710
636.62	0.709
636.81	0.708
637.00	0.710
637.19	0.713
637.38	0.709
637.57	0.708
637.76	0.709
637.95	0.710
638.15	0.707
638.34	0.705
638.53	0.707
638.72	0.709
638.91	0.706
639.10	0.705
639.29	0.704
639.48	0.706
639.67	0.706
639.87	0.705
640.06	0.711
640.25	0.710
640.44	0.711
640.63	0.712
640.82	0.714
641.01	0.715
641.20	0.716
641.39	0.718
641.58	0.719
641.78	0.718
641.97	0.716
642.16	0.730
642.35	0.731
642.54	0.729
642.73	0.724
642.92	0.721
643.11	0.724
643.30	0.723
643.49	0.718
643.68	0.721
643.87	0.722
644.06	0.721
644.25	0.701
644.45	0.703
644.64	0.705
644.83	0.705
645.02	0.702
645.21	0.703
645.40	0.704
645.59	0.704
645.78	0.699
645.97	0.702
646.16	0.703
646.35	0.703
646.54	0.701
646.73	0.702
646.92	0.703
647.11	0.703
647.30	0.699
647.49	0.701
647.68	0.701
647.88	0.699
648.07	0.693
648.26	0.696
648.45	0.698
648.64	0.694
648.83	0.691
649.02	0.694
649.21	0.702
649.40	0.701
649.59	0.695
649.78	0.696
649.97	0.710
650.16	0.709
650.35	0.703
650.54	0.705
650.73	0.712
650.92	0.709
651.11	0.703
651.30	0.701
651.49	0.705
651.68	0.706
651.87	0.704
652.06	0.694
652.25	0.697
652.44	0.700
652.63	0.700
652.82	0.701
653.01	0.703
653.20	0.702
653.39	0.691
653.58	0.689
653.77	0.688
653.96	0.683
654.15	0.675
654.34	0.673
654.53	0.668
654.72	0.661
654.91	0.652
655.10	0.647
655.29	0.644
655.48	0.642
655.67	0.637
655.86	0.635
656.05	0.633
656.24	0.632
656.43	0.628
656.62	0.626
656.81	0.626
657.00	0.623
657.19	0.620
657.38	0.619
657.57	0.617
657.76	0.618
657.95	0.616
658.14	0.618
658.33	0.621
658.51	0.625
658.70	0.625
658.89	0.626
659.08	0.635
659.27	0.643
659.46	0.644
659.65	0.650
659.84	0.654
660.03	0.658
660.22	0.660
660.41	0.664
660.60	0.664
660.79	0.665
660.98	0.670
661.17	0.669
661.36	0.668
661.55	0.669
661.74	0.667
661.92	0.670
662.11	0.672
662.30	0.671
662.49	0.665
662.68	0.664
662.87	0.667
663.06	0.662
663.25	0.664
663.44	0.664
663.63	0.665
663.82	0.664
664.01	0.658
664.20	0.658
664.38	0.658
664.57	0.659
664.76	0.659
664.95	0.659
665.14	0.662
665.33	0.657
665.52	0.665
665.71	0.669
665.90	0.669
666.09	0.670
666.28	0.668
666.46	0.667
666.65	0.667
666.84	0.665
667.03	0.659
667.22	0.658
667.41	0.661
667.60	0.650
667.79	0.643
667.98	0.644
668.16	0.645
668.35	0.644
668.54	0.642
668.73	0.643
668.92	0.643
669.11	0.643
669.30	0.638
669.49	0.634
669.67	0.637
669.86	0.639
670.05	0.637
670.24	0.635
670.43	0.632
670.62	0.632
670.81	0.627
671.00	0.628
671.18	0.627
671.37	0.627
671.56	0.624
671.75	0.623
671.94	0.620
672.13	0.617
672.32	0.613
672.50	0.612
672.69	0.611
672.88	0.612
673.07	0.608
673.26	0.610
673.45	0.611
673.63	0.611
673.82	0.607
674.01	0.609
674.20	0.608
674.39	0.608
674.58	0.608
674.76	0.609
674.95	0.607
675.14	0.607
675.33	0.602
675.52	0.601
675.71	0.601
675.89	0.601
676.08	0.598
676.27	0.598
676.46	0.598
676.65	0.597
676.84	0.596
677.02	0.598
677.21	0.600
677.40	0.598
677.59	0.596
677.78	0.597
677.96	0.599
678.15	0.598
678.34	0.596
678.53	0.596
678.72	0.597
678.90	0.594
679.09	0.590
679.28	0.587
679.47	0.588
679.66	0.587
679.84	0.584
680.03	0.581
680.22	0.581
680.41	0.581
680.60	0.578
680.78	0.577
680.97	0.579
681.16	0.579
681.35	0.577
681.53	0.575
681.72	0.576
681.91	0.578
682.10	0.577
682.29	0.579
682.47	0.577
682.66	0.576
682.85	0.575
683.04	0.573
683.22	0.573
683.41	0.575
683.60	0.574
683.79	0.575
683.97	0.575
684.16	0.573
684.35	0.570
684.54	0.572
684.72	0.573
684.91	0.573
685.10	0.572
685.29	0.573
685.47	0.570
685.66	0.570
685.85	0.566
686.04	0.565
686.22	0.567
686.41	0.569
686.60	0.566
686.79	0.569
686.97	0.569
687.16	0.570
687.35	0.568
687.54	0.572
687.72	0.575
687.91	0.574
688.10	0.576
688.29	0.576
688.47	0.574
688.66	0.574
688.85	0.571
689.03	0.569
689.22	0.573
689.41	0.574
689.60	0.569
689.78	0.567
689.97	0.568
690.16	0.566
690.34	0.562
690.53	0.562
690.72	0.562
690.91	0.560
691.09	0.558
691.28	0.552
691.47	0.550
691.65	0.549
691.84	0.547
692.03	0.545
692.21	0.543
692.40	0.543
692.59	0.540
692.77	0.538
692.96	0.539
693.15	0.540
693.34	0.538
693.52	0.538
693.71	0.538
693.90	0.540
694.08	0.541
694.27	0.542
694.46	0.551
694.64	0.552
694.83	0.551
695.02	0.550
695.20	0.549
695.39	0.550
695.58	0.549
695.76	0.550
695.95	0.548
696.14	0.547
696.32	0.545
696.51	0.535
696.70	0.535
696.88	0.536
697.07	0.535
697.26	0.537
697.44	0.538
697.63	0.537
697.81	0.535
698.00	0.535
698.19	0.534
698.37	0.534
698.56	0.534
698.75	0.533
698.93	0.533
699.12	0.532
699.31	0.532
699.49	0.531
699.68	0.532
699.87	0.534
700.05	0.534
700.24	0.534
700.42	0.535
700.61	0.534
700.80	0.532
700.98	0.533
701.17	0.534
701.36	0.533
701.54	0.533
701.73	0.535
701.91	0.532
702.10	0.531
702.29	0.529
702.47	0.528
702.66	0.530
702.84	0.532
703.03	0.530
703.22	0.531
703.40	0.531
703.59	0.532
703.77	0.531
703.96	0.531
704.15	0.532
704.33	0.532
704.52	0.531
704.70	0.530
704.89	0.530
705.08	0.527
705.26	0.524
705.45	0.524
705.63	0.524
705.82	0.520
706.00	0.519
706.19	0.518
706.38	0.519
706.56	0.518
706.75	0.517
706.93	0.515
707.12	0.518
707.30	0.518
707.49	0.515
707.68	0.513
707.86	0.513
708.05	0.512
708.23	0.510
708.42	0.510
708.60	0.511
708.79	0.511
708.98	0.509
709.16	0.508
709.35	0.510
709.53	0.514
709.72	0.513
709.90	0.514
710.09	0.516
710.27	0.519
710.46	0.523
710.64	0.521
710.83	0.524
711.02	0.525
711.20	0.524
711.39	0.522
711.57	0.520
711.76	0.521
711.94	0.520
712.13	0.520
712.31	0.519
712.50	0.515
712.68	0.513
712.87	0.514
713.05	0.514
713.24	0.515
713.42	0.514
713.61	0.515
713.79	0.516
713.98	0.516
714.16	0.517
714.35	0.516
714.54	0.517
714.72	0.517
714.91	0.515
715.09	0.521
715.28	0.524
715.46	0.524
715.65	0.522
715.83	0.521
716.02	0.523
716.20	0.519
716.39	0.519
716.57	0.520
716.76	0.522
716.94	0.522
717.12	0.515
717.31	0.516
717.49	0.518
717.68	0.520
717.86	0.520
718.05	0.522
718.23	0.524
718.42	0.525
718.60	0.527
718.79	0.534
718.97	0.536
719.16	0.536
719.34	0.533
719.53	0.533
719.71	0.532
719.90	0.534
720.08	0.532
720.27	0.533
720.45	0.532
720.63	0.530
720.82	0.524
721.00	0.527
721.19	0.530
721.37	0.530
721.56	0.531
721.74	0.533
721.93	0.542
722.11	0.546
722.30	0.546
722.48	0.551
722.66	0.553
722.85	0.553
723.03	0.553
723.22	0.551
723.40	0.554
723.59	0.553
723.77	0.557
723.95	0.550
724.14	0.553
724.32	0.553
724.51	0.552
724.69	0.553
724.88	0.553
725.06	0.551
725.24	0.552
725.43	0.555
725.61	0.557
725.80	0.551
725.98	0.550
726.16	0.547
726.35	0.554
726.53	0.554
726.72	0.553
726.90	0.563
727.09	0.563
727.27	0.568
727.45	0.565
727.64	0.574
727.82	0.583
728.01	0.588
728.19	0.584
728.37	0.588
728.56	0.592
728.74	0.598
728.92	0.587
729.11	0.589
729.29	0.587
729.48	0.589
729.66	0.578
729.84	0.577
730.03	0.580
730.21	0.583
730.40	0.574
730.58	0.573
730.76	0.573
730.95	0.575
731.13	0.576
731.31	0.589
731.50	0.598
731.68	0.602
731.86	0.599
732.05	0.611
732.23	0.615
732.42	0.618
732.60	0.623
732.78	0.629
732.97	0.645
733.15	0.651
733.33	0.641
733.52	0.647
733.70	0.655
733.88	0.663
734.07	0.651
734.25	0.675
734.43	0.682
734.62	0.682
734.80	0.678
734.98	0.670
735.17	0.676
735.35	0.681
735.53	0.672
735.72	0.676
735.90	0.696
736.08	0.714
736.27	0.694
736.45	0.703
736.63	0.713
736.82	0.723
737.00	0.723
737.18	0.734
737.37	0.763
737.55	0.785
737.73	0.781
737.92	0.783
738.10	0.779
738.28	0.797
738.46	0.786
738.65	0.802
738.83	0.817
739.01	0.868
739.20	0.859
739.38	0.840
739.56	0.827
739.75	0.831
739.93	0.802
740.11	0.820
740.29	0.816
740.48	0.822
740.66	0.799
740.84	0.796
741.03	0.760
741.21	0.768
741.39	0.755
741.57	0.769
741.76	0.782
741.94	0.787
742.12	0.759
742.31	0.764
742.49	0.781
742.67	0.808
742.85	0.823
743.04	0.828
743.22	0.835
743.40	0.881
743.58	0.865
743.77	0.879
743.95	0.911
744.13	0.954
744.31	0.942
744.50	0.934
744.68	0.930
744.86	0.904
745.04	0.915
745.23	0.978
745.41	0.960
745.59	0.962
745.77	0.931
745.96	0.920
746.14	0.933
746.32	0.930
746.50	0.925
746.69	0.909
746.87	0.917
747.05	0.903
747.23	0.833
747.42	0.821
747.60	0.844
747.78	0.845
747.96	0.871
748.14	0.830
748.33	0.856
748.51	0.851
748.69	0.846
748.87	0.871
749.06	0.868
749.24	0.867
749.42	0.856
749.60	0.843
749.78	0.854
749.97	0.811
750.15	0.803
750.33	0.803
750.51	0.821
750.69	0.822
750.88	0.826
751.06	0.834
751.24	0.854
751.42	0.846
751.60	0.835
751.79	0.892
751.97	0.928
752.15	0.932
752.33	0.906
752.51	0.961
752.69	0.973
752.88	0.948
753.06	0.992
753.24	0.977
753.42	1.001
753.60	1.147
753.78	1.040
753.97	1.056
754.15	1.060
754.33	1.084
754.51	0.987
754.69	0.976
754.87	1.001
755.06	0.939
755.24	0.941
755.42	0.951
755.60	0.857
755.78	0.865
755.96	0.817
756.15	0.817
756.33	0.819
756.51	0.835
756.69	0.825
756.87	0.792
757.05	0.806
757.23	0.791
757.42	0.762
757.60	0.761
757.78	0.749
757.96	0.748
758.14	0.736
758.32	0.724
758.50	0.733
758.69	0.731
758.87	0.726
759.05	0.732
759.23	0.740
759.41	0.742
759.59	0.736
759.77	0.755
759.95	0.779
760.13	0.820
760.32	0.824
760.50	0.818
760.68	0.839
760.86	0.843
761.04	0.817
761.22	0.820
761.40	0.862
761.58	0.863
761.76	0.839
761.95	0.823
762.13	0.783
762.31	0.781
762.49	0.754
762.67	0.769
762.85	0.780
763.03	0.774
763.21	0.756
763.39	0.739
763.57	0.741
763.75	0.738
763.94	0.726
764.12	0.728
764.30	0.749
764.48	0.756
764.66	0.724
764.84	0.720
765.02	0.756
765.20	0.766
765.38	0.749
765.56	0.754
765.74	0.790
765.92	0.789
766.10	0.797
766.28	0.787
766.46	0.809
766.65	0.807
766.83	0.798
767.01	0.782
767.19	0.786
767.37	0.786
767.55	0.775
767.73	0.754
767.91	0.758
768.09	0.747
768.27	0.742
768.45	0.734
768.63	0.742
768.81	0.744
768.99	0.720
769.17	0.741
769.35	0.751
769.53	0.750
769.71	0.737
769.89	0.742
770.07	0.746
770.25	0.727
770.43	0.707
770.61	0.725
770.79	0.730
770.97	0.739
771.15	0.711
771.33	0.715
771.51	0.717
771.69	0.725
771.87	0.734
772.05	0.738
772.24	0.746
772.42	0.755
772.60	0.736
772.78	0.788
772.96	0.812
773.14	0.808
773.32	0.790
773.49	0.793
773.67	0.790
773.85	0.774
774.03	0.762
774.21	0.790
774.39	0.799
774.57	0.822
774.75	0.756
774.93	0.751
775.11	0.771
775.29	0.777
775.47	0.780
775.65	0.789
775.83	0.802
776.01	0.827
776.19	0.786
776.37	0.787
776.55	0.783
776.73	0.783
776.91	0.780
777.09	0.763
777.27	0.760
777.45	0.750
777.63	0.728
777.81	0.726
777.99	0.712
778.17	0.711
778.35	0.693
778.53	0.683
778.71	0.687
778.89	0.674
779.07	0.667
779.24	0.671
779.42	0.669
779.60	0.686
779.78	0.680
779.96	0.683
780.14	0.688
780.32	0.703
780.50	0.690
780.68	0.689
780.86	0.684
781.04	0.699
781.22	0.703
781.40	0.716
781.58	0.706
781.75	0.700
781.93	0.686
782.11	0.687
782.29	0.677
782.47	0.675
782.65	0.664
782.83	0.688
783.01	0.682
783.19	0.677
783.37	0.662
783.55	0.666
783.72	0.679
783.90	0.690
784.08	0.682
784.26	0.691
784.44	0.713
784.62	0.715
784.80	0.687
784.98	0.693
785.16	0.698
785.33	0.713
785.51	0.703
785.69	0.694
785.87	0.693
786.05	0.702
786.23	0.699
786.41	0.694
786.59	0.698
786.77	0.698
786.94	0.687
787.12	0.689
787.30	0.689
787.48	0.687
787.66	0.676
787.84	0.678
788.02	0.672
788.19	0.670
788.37	0.656
788.55	0.659
788.73	0.658
788.91	0.651
789.09	0.638
789.27	0.627
789.44	0.637
789.62	0.642
789.80	0.650
789.98	0.671
790.16	0.659
790.34	0.657
790.51	0.646
790.69	0.662
790.87	0.669
791.05	0.667
791.23	0.664
791.41	0.663
791.58	0.671
791.76	0.652
791.94	0.625
792.12	0.633
792.30	0.635
792.48	0.634
792.65	0.628
792.83	0.634
793.01	0.639
793.19	0.638
793.37	0.624
793.54	0.621
793.72	0.631
793.90	0.629
794.08	0.620
794.26	0.620
794.43	0.627
794.61	0.613
794.79	0.603
794.97	0.602
795.15	0.604
795.32	0.608
795.50	0.598
795.68	0.593
795.86	0.595
796.04	0.596
796.21	0.591
796.39	0.589
796.57	0.603
796.75	0.611
796.92	0.612
797.10	0.617
797.28	0.617
797.46	0.621
797.64	0.622
797.81	0.631
797.99	0.634
798.17	0.637
798.35	0.633
798.52	0.634
798.70	0.629
798.88	0.637
799.06	0.636
799.23	0.640
799.41	0.645
799.59	0.639
799.77	0.628
799.94	0.637
800.12	0.645
800.30	0.661
800.48	0.660
800.65	0.659
800.83	0.646
801.01	0.642
801.19	0.641
801.36	0.638
801.54	0.640
801.72	0.652
801.90	0.640
802.07	0.635
802.25	0.621
802.43	0.608
802.60	0.607
802.78	0.615
802.96	0.617
803.14	0.612
803.31	0.612
803.49	0.612
803.67	0.607
803.84	0.613
804.02	0.608
804.20	0.611
804.38	0.614
804.55	0.613
804.73	0.601
804.91	0.602
805.08	0.613
805.26	0.609
805.44	0.673
805.61	0.676
805.79	0.673
805.97	0.671
806.15	0.663
806.32	0.658
806.50	0.662
806.68	0.662
806.85	0.656
807.03	0.646
807.21	0.660
807.38	0.595
807.56	0.585
807.74	0.596
807.91	0.603
808.09	0.605
808.27	0.625
808.44	0.650
808.62	0.659
808.80	0.661
808.97	0.657
809.15	0.653
809.33	0.669
809.50	0.675
809.68	0.661
809.86	0.666
810.03	0.694
810.21	0.675
810.39	0.656
810.56	0.660
810.74	0.681
810.91	0.745
811.09	0.735
811.27	0.754
811.44	0.757
811.62	0.758
811.80	0.745
811.97	0.718
812.15	0.718
812.33	0.715
812.50	0.702
812.68	0.693
812.85	0.642
813.03	0.645
813.21	0.615
813.38	0.610
813.56	0.613
813.74	0.623
813.91	0.630
814.09	0.657
814.26	0.650
814.44	0.654
814.62	0.643
814.79	0.647
814.97	0.649
815.14	0.655
815.32	0.660
815.50	0.673
815.67	0.675
815.85	0.668
816.02	0.657
816.20	0.665
816.38	0.677
816.55	0.682
816.73	0.682
816.90	0.695
817.08	0.722
817.26	0.728
817.43	0.711
817.61	0.732
817.78	0.745
817.96	0.727
818.13	0.717
818.31	0.719
818.49	0.729
818.66	0.720
818.84	0.704
819.01	0.684
819.19	0.688
819.36	0.692
819.54	0.669
819.71	0.710
819.89	0.718
820.07	0.731
820.24	0.724
820.42	0.726
820.59	0.742
820.77	0.763
820.94	0.755
821.12	0.773
821.29	0.784
821.47	0.783
821.64	0.729
821.82	0.744
822.00	0.743
822.17	0.739
822.35	0.732
822.52	0.735
822.70	0.727
822.87	0.740
823.05	0.720
823.22	0.730
823.40	0.752
823.57	0.770
823.75	0.756
823.92	0.774
824.10	0.794
824.27	0.833
824.45	0.823
824.62	0.878
824.80	0.886
824.97	0.897
825.15	0.893
825.32	0.905
825.50	0.903
825.67	0.908
825.85	0.889
826.02	0.903
826.20	0.915
826.37	1.022
826.55	0.955
826.72	1.113
826.90	1.173
827.07	1.209
827.25	1.162
827.42	1.284
827.60	1.374
827.77	1.494
827.95	1.498
828.12	1.589
828.30	1.332
828.47	1.445
828.65	1.159
828.82	1.198
829.00	1.254
829.17	1.361
829.34	1.376
829.52	1.474
829.69	-0.000
829.87	-0.000
830.04	-0.000
830.22	-0.000
830.39	-0.000
830.57	-0.000
830.74	-0.000
830.92	-0.000
831.09	-0.000
831.26	-0.000
831.44	-0.000
831.61	-0.000
831.79	-0.000
831.96	-0.000
832.14	-0.000
832.31	-0.000
832.49	-0.000
832.66	-0.000
832.83	-0.000
833.01	-0.000
833.18	-0.000
833.36	-0.000
833.53	-0.000
833.70	-0.000
833.88	-0.000
834.05	-0.000
834.23	-0.000
834.40	-0.000
834.58	-0.000
834.75	-0.000
834.92	-0.000
835.10	-0.000
835.27	-0.000
835.45	-0.000
835.62	-0.000
835.79	-0.000
835.97	-0.000
836.14	-0.000
836.32	-0.000
836.49	-0.000
836.66	-0.000
836.84	-0.000
837.01	-0.000
837.18	-0.000
837.36	-0.000
837.53	-0.000
837.71	-0.000
837.88	-0.000
838.05	-0.000
838.23	-0.000
838.40	-0.000
838.58	-0.000
838.75	-0.000
838.92	-0.000
839.10	-0.000
839.27	-0.000
839.44	-0.000
839.62	-0.000
839.79	-0.000
839.96	-0.000
840.14	-0.000
840.31	-0.000
840.48	-0.000
840.66	-0.000
840.83	-0.000
841.01	-0.000
841.18	-0.000
841.35	-0.000
841.53	-0.000
841.70	-0.000
841.87	-0.000
842.05	-0.000
842.22	-0.000
842.39	-0.000
842.57	-0.000
842.74	-0.000
842.91	-0.000
843.09	-0.000
843.26	-0.000
843.43	-0.000
843.60	-0.000
843.78	-0.000
843.95	-0.000
844.12	-0.000
844.30	-0.000
844.47	-0.000
844.64	-0.000
844.82	-0.000
844.99	-0.000
845.16	-0.000
845.34	-0.000
845.51	-0.000
845.68	-0.000
845.85	-0.000
846.03	-0.000
846.20	-0.000
846.37	-0.000
846.55	-0.000
846.72	-0.000
846.89	-0.000
847.06	-0.000
847.24	-0.000
847.41	-0.000
847.58	-0.000
847.76	-0.000
847.93	-0.000
848.10	-0.000
848.27	-0.000
848.45	-0.000
848.62	-0.000
848.79	-0.000
848.97	-0.000
849.14	-0.000
849.31	-0.000
849.48	-0.000
849.66	-0.000
849.83	-0.000
850.00	-0.000
850.17	-0.000
850.35	-0.000
850.52	-0.000
850.69	-0.000
850.86	-0.000
851.04	-0.000
851.21	-0.000
851.38	-0.000
851.55	-0.000
851.72	-0.000
851.90	-0.000
852.07	-0.000
852.24	-0.000
852.41	-0.000
852.59	-0.000
852.76	-0.000
852.93	-0.000
853.10	-0.000
853.28	-0.000
853.45	-0.000
853.62	-0.000
853.79	-0.000
853.96	-0.000
854.14	-0.000
854.31	-0.000
854.48	-0.000
854.65	-0.000
854.82	-0.000
855.00	-0.000
855.17	-0.000
855.34	-0.000
855.51	-0.000
855.68	-0.000
855.86	-0.000
856.03	-0.000
856.20	-0.000
856.37	-0.000
856.54	-0.000
856.72	-0.000
856.89	-0.000
857.06	-0.000
857.23	-0.000
857.40	-0.000
857.57	-0.000
857.75	-0.000
857.92	-0.000
858.09	-0.000
858.26	-0.000
858.43	-0.000
858.60	-0.000
858.78	-0.000
858.95	-0.000
859.12	-0.000
859.29	-0.000
859.46	-0.000
859.63	-0.000
859.81	-0.000
859.98	-0.000
860.15	-0.000
860.32	-0.000
860.49	-0.000
860.66	-0.000
860.83	-0.000
861.01	-0.000
861.18	-0.000
861.35	-0.000
861.52	-0.000
861.69	-0.000
861.86	-0.000
862.03	-0.000
862.21	-0.000
862.38	-0.000
862.55	-0.000
862.72	-0.000
862.89	-0.000
863.06	-0.000
863.23	-0.000
863.40	-0.000
863.58	-0.000
863.75	-0.000
863.92	-0.000
864.09	-0.000
864.26	-0.000
864.43	-0.000
864.60	-0.000
864.77	-0.000
864.94	-0.000
865.11	-0.000
865.29	-0.000
865.46	-0.000
865.63	-0.000
865.80	-0.000
865.97	-0.000
866.14	-0.000
866.31	-0.000
866.48	-0.000
866.65	-0.000
866.82	-0.000
866.99	-0.000
867.16	-0.000
867.34	-0.000
867.51	-0.000
867.68	-0.000
867.85	-0.000
868.02	-0.000
868.19	-0.000
868.36	-0.000
868.53	-0.000
868.70	-0.000
868.87	-0.000
869.04	-0.000
869.21	-0.000
869.38	-0.000
869.55	-0.000
869.72	-0.000
869.89	-0.000
870.06	-0.000
870.24	-0.000
870.41	-0.000
870.58	-0.000
870.75	-0.000
870.92	-0.000
871.09	-0.000
871.26	-0.000
871.43	-0.000
871.60	-0.000
871.77	-0.000
871.94	-0.000
872.11	-0.000
872.28	-0.000
872.45	-0.000
872.62	-0.000
872.79	-0.000
872.96	-0.000
873.13	-0.000
873.30	-0.000
873.47	-0.000
873.64	-0.000
873.81	-0.000
873.98	-0.000
874.15	-0.000
874.32	-0.000
874.49	-0.000
874.66	-0.000
874.83	-0.000
875.00	-0.000
875.17	-0.000
875.34	-0.000
875.51	-0.000
875.68	-0.000
875.85	-0.000
876.02	-0.000
876.19	-0.000
876.36	-0.000
876.53	-0.000
876.70	-0.000
876.87	-0.000
877.04	-0.000
877.21	-0.000
877.38	-0.000
877.55	-0.000
877.72	-0.000
877.89	-0.000
878.06	-0.000
878.23	-0.000
878.39	-0.000
878.56	-0.000
878.73	-0.000
878.90	-0.000
879.07	-0.000
879.24	-0.000
879.41	-0.000
879.58	-0.000
879.75	-0.000
879.92	-0.000
880.09	-0.000
880.26	-0.000
880.43	-0.000
880.60	-0.000
880.77	-0.000
880.94	-0.000
881.11	-0.000
881.27	-0.000
881.44	-0.000
881.61	-0.000
881.78	-0.000
881.95	-0.000
882.12	-0.000
882.29	-0.000
882.46	-0.000
882.63	-0.000
882.80	-0.000
882.97	-0.000
883.14	-0.000
883.30	-0.000
883.47	-0.000
883.64	-0.000
883.81	-0.000
883.98	-0.000
884.15	-0.000
884.32	-0.000
884.49	-0.000
884.66	-0.000
884.82	-0.000
884.99	-0.000
885.16	-0.000
885.33	-0.000
885.50	-0.000
885.67	-0.000
885.84	-0.000
886.01	-0.000
886.17	-0.000
886.34	-0.000
886.51	-0.000
886.68	-0.000
886.85	-0.000
887.02	-0.000
887.19	-0.000
887.36	-0.000
887.52	-0.000
887.69	-0.000
887.86	-0.000
888.03	-0.000
888.20	-0.000
888.37	-0.000
888.54	-0.000
888.70	-0.000
888.87	-0.000
889.04	-0.000
889.21	-0.000
889.38	-0.000
889.55	-0.000
889.71	-0.000
889.88	-0.000
890.05	-0.000
890.22	-0.000
890.39	-0.000
>>>>>End Processed Spectral Data<<<<<
