SpectraSuite Data File
++++++++++++++++++++++++++++++++++++
Date: Fri Jun 19 16:50:11 CEST 2015
User: introlabs
Dark Spectrum Present: Yes
Reference Spectrum Present: Yes
Number of Sampled Component Spectra: 1
Spectrometers: USB4H08886
Integration Time (usec): 745692 (USB4H08886)
Spectra Averaged: 5 (USB4H08886)
Boxcar Smoothing: 5 (USB4H08886)
Correct for Electrical Dark: Yes (USB4H08886)
Strobe/Lamp Enabled: No (USB4H08886)
Correct for Detector Non-linearity: Yes (USB4H08886)
Correct for Stray Light: Yes (USB4H08886)
Number of Pixels in Processed Spectrum: 3648
>>>>>Begin Processed Spectral Data<<<<<
178.14	-0.000
178.36	-0.000
178.57	-0.000
178.79	-0.000
179.01	-0.000
179.22	-0.000
179.44	-0.000
179.65	-0.000
179.87	-0.000
180.08	-0.000
180.30	-0.000
180.52	-0.000
180.73	-0.000
180.95	-0.000
181.16	-0.000
181.38	-0.000
181.59	-0.000
181.81	-0.000
182.03	-0.000
182.24	-0.000
182.46	-0.000
182.67	-0.000
182.89	-0.000
183.10	-0.000
183.32	-0.000
183.54	-0.000
183.75	-0.000
183.97	-0.000
184.18	-0.000
184.40	-0.000
184.61	-0.000
184.83	-0.000
185.04	-0.000
185.26	-0.000
185.48	-0.000
185.69	-0.000
185.91	-0.000
186.12	-0.000
186.34	-0.000
186.55	-0.000
186.77	-0.000
186.98	-0.000
187.20	-0.000
187.42	-0.000
187.63	-0.000
187.85	-0.000
188.06	-0.000
188.28	-0.000
188.49	-0.000
188.71	-0.000
188.92	-0.000
189.14	-0.000
189.36	-0.000
189.57	-0.000
189.79	-0.000
190.00	-0.000
190.22	-0.000
190.43	-0.000
190.65	-0.000
190.86	-0.000
191.08	-0.000
191.29	-0.000
191.51	-0.000
191.72	-0.000
191.94	-0.000
192.16	-0.000
192.37	-0.000
192.59	-0.000
192.80	-0.000
193.02	-0.000
193.23	-0.000
193.45	-0.000
193.66	-0.000
193.88	-0.000
194.09	-0.000
194.31	-0.000
194.52	-0.000
194.74	-0.000
194.95	-0.000
195.17	-0.000
195.38	-0.000
195.60	-0.000
195.81	-0.000
196.03	-0.000
196.25	-0.000
196.46	-0.000
196.68	-0.000
196.89	-0.000
197.11	-0.000
197.32	-0.000
197.54	-0.000
197.75	-0.000
197.97	-0.000
198.18	-0.000
198.40	-0.000
198.61	-0.000
198.83	-0.000
199.04	-0.000
199.26	-0.000
199.47	-0.000
199.69	-0.000
199.90	-0.000
200.12	-0.000
200.33	-0.000
200.55	-0.000
200.76	-0.000
200.98	-0.000
201.19	-0.000
201.41	-0.000
201.62	-0.000
201.84	-0.000
202.05	-0.000
202.27	-0.000
202.48	-0.000
202.70	-0.000
202.91	-0.000
203.13	-0.000
203.34	-0.000
203.56	-0.000
203.77	-0.000
203.99	-0.000
204.20	-0.000
204.42	-0.000
204.63	-0.000
204.85	-0.000
205.06	-0.000
205.28	-0.000
205.49	-0.000
205.71	-0.000
205.92	-0.000
206.14	-0.000
206.35	-0.000
206.56	-0.000
206.78	-0.000
206.99	-0.000
207.21	-0.000
207.42	-0.000
207.64	-0.000
207.85	-0.000
208.07	-0.000
208.28	-0.000
208.50	-0.000
208.71	-0.000
208.93	-0.000
209.14	-0.000
209.36	-0.000
209.57	-0.000
209.79	-0.000
210.00	-0.000
210.22	-0.000
210.43	-0.000
210.64	-0.000
210.86	-0.000
211.07	-0.000
211.29	-0.000
211.50	-0.000
211.72	-0.000
211.93	-0.000
212.15	-0.000
212.36	-0.000
212.58	-0.000
212.79	-0.000
213.01	-0.000
213.22	-0.000
213.43	-0.000
213.65	-0.000
213.86	-0.000
214.08	-0.000
214.29	-0.000
214.51	-0.000
214.72	-0.000
214.94	-0.000
215.15	-0.000
215.36	-0.000
215.58	-0.000
215.79	-0.000
216.01	-0.000
216.22	-0.000
216.44	-0.000
216.65	-0.000
216.87	-0.000
217.08	-0.000
217.29	-0.000
217.51	-0.000
217.72	-0.000
217.94	-0.000
218.15	-0.000
218.37	-0.000
218.58	-0.000
218.80	-0.000
219.01	-0.000
219.22	-0.000
219.44	-0.000
219.65	-0.000
219.87	-0.000
220.08	-0.000
220.30	-0.000
220.51	-0.000
220.72	-0.000
220.94	-0.000
221.15	-0.000
221.37	-0.000
221.58	-0.000
221.79	-0.000
222.01	-0.000
222.22	-0.000
222.44	-0.000
222.65	-0.000
222.87	-0.000
223.08	-0.000
223.29	-0.000
223.51	-0.000
223.72	-0.000
223.94	-0.000
224.15	-0.000
224.36	-0.000
224.58	-0.000
224.79	-0.000
225.01	-0.000
225.22	-0.000
225.44	-0.000
225.65	-0.000
225.86	-0.000
226.08	-0.000
226.29	-0.000
226.51	-0.000
226.72	-0.000
226.93	-0.000
227.15	-0.000
227.36	-0.000
227.58	-0.000
227.79	-0.000
228.00	-0.000
228.22	-0.000
228.43	-0.000
228.65	-0.000
228.86	-0.000
229.07	-0.000
229.29	-0.000
229.50	-0.000
229.72	-0.000
229.93	-0.000
230.14	-0.000
230.36	-0.000
230.57	-0.000
230.78	-0.000
231.00	-0.000
231.21	-0.000
231.43	-0.000
231.64	-0.000
231.85	-0.000
232.07	-0.000
232.28	-0.000
232.50	-0.000
232.71	-0.000
232.92	-0.000
233.14	-0.000
233.35	-0.000
233.56	-0.000
233.78	-0.000
233.99	-0.000
234.21	-0.000
234.42	-0.000
234.63	-0.000
234.85	-0.000
235.06	-0.000
235.27	-0.000
235.49	-0.000
235.70	-0.000
235.91	-0.000
236.13	-0.000
236.34	-0.000
236.56	-0.000
236.77	-0.000
236.98	-0.000
237.20	-0.000
237.41	-0.000
237.62	-0.000
237.84	-0.000
238.05	-0.000
238.26	-0.000
238.48	-0.000
238.69	-0.000
238.91	-0.000
239.12	-0.000
239.33	-0.000
239.55	-0.000
239.76	-0.000
239.97	-0.000
240.19	-0.000
240.40	-0.000
240.61	-0.000
240.83	-0.000
241.04	-0.000
241.25	-0.000
241.47	-0.000
241.68	-0.000
241.89	-0.000
242.11	-0.000
242.32	-0.000
242.53	-0.000
242.75	-0.000
242.96	-0.000
243.17	-0.000
243.39	-0.000
243.60	-0.000
243.81	-0.000
244.03	-0.000
244.24	-0.000
244.45	-0.000
244.67	-0.000
244.88	-0.000
245.09	-0.000
245.31	-0.000
245.52	-0.000
245.73	-0.000
245.95	-0.000
246.16	-0.000
246.37	-0.000
246.59	-0.000
246.80	-0.000
247.01	-0.000
247.23	-0.000
247.44	-0.000
247.65	-0.000
247.87	-0.000
248.08	-0.000
248.29	-0.000
248.51	-0.000
248.72	-0.000
248.93	-0.000
249.15	-0.000
249.36	-0.000
249.57	-0.000
249.78	-0.000
250.00	-0.000
250.21	-0.000
250.42	-0.000
250.64	-0.000
250.85	-0.000
251.06	-0.000
251.28	-0.000
251.49	-0.000
251.70	-0.000
251.92	-0.000
252.13	-0.000
252.34	-0.000
252.55	-0.000
252.77	-0.000
252.98	-0.000
253.19	-0.000
253.41	-0.000
253.62	-0.000
253.83	-0.000
254.05	-0.000
254.26	-0.000
254.47	-0.000
254.68	-0.000
254.90	-0.000
255.11	-0.000
255.32	-0.000
255.54	-0.000
255.75	-0.000
255.96	-0.000
256.17	-0.000
256.39	-0.000
256.60	-0.000
256.81	-0.000
257.03	-0.000
257.24	-0.000
257.45	-0.000
257.66	-0.000
257.88	-0.000
258.09	-0.000
258.30	-0.000
258.51	-0.000
258.73	-0.000
258.94	-0.000
259.15	-0.000
259.37	-0.000
259.58	-0.000
259.79	-0.000
260.00	-0.000
260.22	-0.000
260.43	-0.000
260.64	-0.000
260.85	-0.000
261.07	-0.000
261.28	-0.000
261.49	-0.000
261.71	-0.000
261.92	-0.000
262.13	-0.000
262.34	-0.000
262.56	-0.000
262.77	-0.000
262.98	-0.000
263.19	-0.000
263.41	-0.000
263.62	-0.000
263.83	-0.000
264.04	-0.000
264.26	-0.000
264.47	-0.000
264.68	-0.000
264.89	-0.000
265.11	-0.000
265.32	-0.000
265.53	-0.000
265.74	-0.000
265.96	-0.000
266.17	-0.000
266.38	-0.000
266.59	-0.000
266.81	-0.000
267.02	-0.000
267.23	-0.000
267.44	-0.000
267.65	-0.000
267.87	-0.000
268.08	-0.000
268.29	-0.000
268.50	-0.000
268.72	-0.000
268.93	-0.000
269.14	-0.000
269.35	-0.000
269.57	-0.000
269.78	-0.000
269.99	-0.000
270.20	-0.000
270.41	-0.000
270.63	-0.000
270.84	-0.000
271.05	-0.000
271.26	-0.000
271.48	-0.000
271.69	-0.000
271.90	-0.000
272.11	-0.000
272.32	-0.000
272.54	-0.000
272.75	-0.000
272.96	-0.000
273.17	-0.000
273.39	-0.000
273.60	-0.000
273.81	-0.000
274.02	-0.000
274.23	-0.000
274.45	-0.000
274.66	-0.000
274.87	-0.000
275.08	-0.000
275.29	-0.000
275.51	-0.000
275.72	-0.000
275.93	-0.000
276.14	-0.000
276.35	-0.000
276.57	-0.000
276.78	-0.000
276.99	-0.000
277.20	-0.000
277.41	-0.000
277.63	-0.000
277.84	-0.000
278.05	-0.000
278.26	-0.000
278.47	-0.000
278.69	-0.000
278.90	-0.000
279.11	-0.000
279.32	-0.000
279.53	-0.000
279.74	-0.000
279.96	-0.000
280.17	-0.000
280.38	-0.000
280.59	-0.000
280.80	-0.000
281.02	-0.000
281.23	-0.000
281.44	-0.000
281.65	-0.000
281.86	-0.000
282.07	-0.000
282.29	-0.000
282.50	-0.000
282.71	-0.000
282.92	-0.000
283.13	-0.000
283.35	-0.000
283.56	-0.000
283.77	-0.000
283.98	-0.000
284.19	-0.000
284.40	-0.000
284.62	-0.000
284.83	-0.000
285.04	-0.000
285.25	-0.000
285.46	-0.000
285.67	-0.000
285.88	-0.000
286.10	-0.000
286.31	-0.000
286.52	-0.000
286.73	-0.000
286.94	-0.000
287.15	-0.000
287.37	-0.000
287.58	-0.000
287.79	-0.000
288.00	-0.000
288.21	-0.000
288.42	-0.000
288.63	-0.000
288.85	-0.000
289.06	-0.000
289.27	-0.000
289.48	-0.000
289.69	-0.000
289.90	-0.000
290.11	-0.000
290.33	-0.000
290.54	-0.000
290.75	-0.000
290.96	-0.000
291.17	-0.000
291.38	-0.000
291.59	-0.000
291.81	-0.000
292.02	-0.000
292.23	-0.000
292.44	-0.000
292.65	-0.000
292.86	-0.000
293.07	-0.000
293.28	-0.000
293.50	-0.000
293.71	-0.000
293.92	-0.000
294.13	-0.000
294.34	-0.000
294.55	-0.000
294.76	-0.000
294.97	-0.000
295.19	-0.000
295.40	-0.000
295.61	-0.000
295.82	-0.000
296.03	-0.000
296.24	-0.000
296.45	-0.000
296.66	-0.000
296.87	-0.000
297.09	-0.000
297.30	-0.000
297.51	-0.000
297.72	-0.000
297.93	-0.000
298.14	-0.000
298.35	-0.000
298.56	-0.000
298.77	-0.000
298.99	-0.000
299.20	-0.000
299.41	-0.000
299.62	-0.000
299.83	-0.000
300.04	-0.000
300.25	-0.000
300.46	-0.000
300.67	-0.000
300.88	-0.000
301.10	-0.000
301.31	-0.000
301.52	-0.000
301.73	-0.000
301.94	-0.000
302.15	-0.000
302.36	-0.000
302.57	-0.000
302.78	-0.000
302.99	-0.000
303.20	-0.000
303.41	-0.000
303.63	-0.000
303.84	-0.000
304.05	-0.000
304.26	-0.000
304.47	-0.000
304.68	-0.000
304.89	-0.000
305.10	-0.000
305.31	-0.000
305.52	-0.000
305.73	-0.000
305.94	-0.000
306.15	-0.000
306.37	-0.000
306.58	-0.000
306.79	-0.000
307.00	-0.000
307.21	-0.000
307.42	-0.000
307.63	-0.000
307.84	-0.000
308.05	-0.000
308.26	-0.000
308.47	-0.000
308.68	-0.000
308.89	-0.000
309.10	-0.000
309.31	-0.000
309.52	-0.000
309.73	-0.000
309.95	-0.000
310.16	-0.000
310.37	-0.000
310.58	-0.000
310.79	-0.000
311.00	-0.000
311.21	-0.000
311.42	-0.000
311.63	-0.000
311.84	-0.000
312.05	-0.000
312.26	-0.000
312.47	-0.000
312.68	-0.000
312.89	-0.000
313.10	-0.000
313.31	-0.000
313.52	-0.000
313.73	-0.000
313.94	-0.000
314.15	-0.000
314.36	-0.000
314.57	-0.000
314.78	-0.000
314.99	-0.000
315.21	-0.000
315.42	-0.000
315.63	-0.000
315.84	2.976
316.05	2.624
316.26	2.851
316.47	-0.000
316.68	-0.000
316.89	2.625
317.10	-0.000
317.31	-0.000
317.52	-0.000
317.73	3.212
317.94	3.062
318.15	-0.000
318.36	-0.000
318.57	-0.000
318.78	-0.000
318.99	-0.000
319.20	-0.000
319.41	-0.000
319.62	-0.000
319.83	-0.000
320.04	-0.000
320.25	-0.000
320.46	3.044
320.67	3.192
320.88	2.858
321.09	2.526
321.30	2.209
321.51	2.424
321.72	2.405
321.93	2.167
322.14	2.049
322.35	2.368
322.56	2.443
322.77	2.295
322.98	2.500
323.19	2.648
323.40	3.064
323.61	2.421
323.82	2.313
324.03	2.359
324.24	2.347
324.45	2.189
324.66	1.990
324.87	1.933
325.08	1.931
325.29	1.829
325.50	1.791
325.71	1.803
325.92	1.858
326.13	1.789
326.34	1.803
326.55	1.840
326.76	1.847
326.97	1.802
327.18	1.785
327.39	1.947
327.60	1.942
327.80	1.974
328.01	1.962
328.22	1.951
328.43	1.982
328.64	1.903
328.85	1.942
329.06	1.941
329.27	1.945
329.48	1.927
329.69	1.794
329.90	1.863
330.11	1.823
330.32	1.800
330.53	1.758
330.74	1.738
330.95	1.735
331.16	1.671
331.37	1.715
331.58	1.706
331.79	1.710
332.00	1.682
332.21	1.650
332.42	1.661
332.63	1.624
332.83	1.622
333.04	1.647
333.25	1.702
333.46	1.702
333.67	1.636
333.88	1.649
334.09	1.698
334.30	1.683
334.51	1.653
334.72	1.638
334.93	1.646
335.14	1.634
335.35	1.604
335.56	1.588
335.77	1.616
335.98	1.624
336.18	1.604
336.39	1.562
336.60	1.576
336.81	1.570
337.02	1.569
337.23	1.591
337.44	1.603
337.65	1.618
337.86	1.574
338.07	1.551
338.28	1.557
338.49	1.559
338.70	1.543
338.91	1.568
339.11	1.602
339.32	1.591
339.53	1.560
339.74	1.551
339.95	1.530
340.16	1.529
340.37	1.517
340.58	1.516
340.79	1.520
341.00	1.523
341.21	1.491
341.41	1.487
341.62	1.487
341.83	1.485
342.04	1.476
342.25	1.525
342.46	1.537
342.67	1.532
342.88	1.515
343.09	1.520
343.30	1.548
343.50	1.570
343.71	1.537
343.92	1.536
344.13	1.557
344.34	1.553
344.55	1.489
344.76	1.490
344.97	1.503
345.18	1.504
345.38	1.499
345.59	1.481
345.80	1.478
346.01	1.481
346.22	1.475
346.43	1.453
346.64	1.485
346.85	1.490
347.06	1.476
347.26	1.474
347.47	1.488
347.68	1.471
347.89	1.462
348.10	1.440
348.31	1.453
348.52	1.450
348.73	1.449
348.93	1.439
349.14	1.441
349.35	1.440
349.56	1.428
349.77	1.413
349.98	1.433
350.19	1.425
350.39	1.418
350.60	1.409
350.81	1.469
351.02	1.465
351.23	1.455
351.44	1.469
351.65	1.476
351.86	1.470
352.06	1.468
352.27	1.470
352.48	1.472
352.69	1.474
352.90	1.457
353.11	1.406
353.31	1.433
353.52	1.426
353.73	1.403
353.94	1.411
354.15	1.430
354.36	1.430
354.57	1.402
354.77	1.414
354.98	1.411
355.19	1.412
355.40	1.413
355.61	1.437
355.82	1.445
356.02	1.447
356.23	1.424
356.44	1.430
356.65	1.438
356.86	1.443
357.07	1.425
357.27	1.433
357.48	1.437
357.69	1.423
357.90	1.369
358.11	1.359
358.32	1.365
358.52	1.375
358.73	1.348
358.94	1.358
359.15	1.372
359.36	1.375
359.56	1.365
359.77	1.358
359.98	1.382
360.19	1.384
360.40	1.379
360.61	1.390
360.81	1.384
361.02	1.385
361.23	1.366
361.44	1.359
361.65	1.361
361.85	1.358
362.06	1.358
362.27	1.366
362.48	1.364
362.69	1.367
362.89	1.352
363.10	1.360
363.31	1.374
363.52	1.386
363.73	1.370
363.93	1.370
364.14	1.375
364.35	1.380
364.56	1.351
364.77	1.359
364.97	1.367
365.18	1.365
365.39	1.352
365.60	1.342
365.81	1.342
366.01	1.345
366.22	1.338
366.43	1.336
366.64	1.340
366.84	1.358
367.05	1.352
367.26	1.352
367.47	1.357
367.68	1.357
367.88	1.355
368.09	1.348
368.30	1.353
368.51	1.355
368.71	1.357
368.92	1.376
369.13	1.367
369.34	1.369
369.55	1.370
369.75	1.369
369.96	1.390
370.17	1.389
370.38	1.387
370.58	1.389
370.79	1.405
371.00	1.401
371.21	1.372
371.41	1.393
371.62	1.404
371.83	1.391
372.04	1.386
372.24	1.369
372.45	1.370
372.66	1.369
372.87	1.364
373.07	1.354
373.28	1.358
373.49	1.373
373.70	1.341
373.90	1.337
374.11	1.368
374.32	1.367
374.53	1.364
374.73	1.371
374.94	1.375
375.15	1.373
375.36	1.368
375.56	1.403
375.77	1.396
375.98	1.397
376.19	1.391
376.39	1.368
376.60	1.382
376.81	1.382
377.02	1.375
377.22	1.373
377.43	1.373
377.64	1.373
377.84	1.342
378.05	1.360
378.26	1.384
378.47	1.384
378.67	1.375
378.88	1.367
379.09	1.368
379.30	1.368
379.50	1.364
379.71	1.370
379.92	1.376
380.12	1.376
380.33	1.352
380.54	1.338
380.75	1.359
380.95	1.359
381.16	1.356
381.37	1.359
381.57	1.366
381.78	1.368
381.99	1.373
382.20	1.371
382.40	1.385
382.61	1.385
382.82	1.377
383.02	1.357
383.23	1.370
383.44	1.371
383.64	1.366
383.85	1.371
384.06	1.381
384.27	1.372
384.47	1.371
384.68	1.366
384.89	1.386
385.09	1.385
385.30	1.385
385.51	1.381
385.71	1.388
385.92	1.389
386.13	1.387
386.33	1.400
386.54	1.402
386.75	1.398
386.95	1.391
387.16	1.373
387.37	1.380
387.58	1.379
387.78	1.373
387.99	1.367
388.20	1.373
388.40	1.364
388.61	1.347
388.82	1.361
389.02	1.364
389.23	1.362
389.44	1.359
389.64	1.363
389.85	1.407
390.06	1.406
390.26	1.409
390.47	1.409
390.68	1.416
390.88	1.412
391.09	1.393
391.30	1.395
391.50	1.392
391.71	1.390
391.92	1.379
392.12	1.345
392.33	1.346
392.53	1.343
392.74	1.345
392.95	1.339
393.15	1.345
393.36	1.353
393.57	1.348
393.77	1.358
393.98	1.365
394.19	1.365
394.39	1.366
394.60	1.370
394.81	1.375
395.01	1.368
395.22	1.365
395.43	1.364
395.63	1.380
395.84	1.383
396.04	1.373
396.25	1.376
396.46	1.378
396.66	1.368
396.87	1.358
397.08	1.349
397.28	1.354
397.49	1.357
397.69	1.349
397.90	1.329
398.11	1.330
398.31	1.329
398.52	1.318
398.73	1.327
398.93	1.323
399.14	1.320
399.34	1.318
399.55	1.320
399.76	1.321
399.96	1.321
400.17	1.317
400.37	1.311
400.58	1.332
400.79	1.337
400.99	1.324
401.20	1.343
401.41	1.349
401.61	1.350
401.82	1.373
402.02	1.370
402.23	1.372
402.44	1.370
402.64	1.370
402.85	1.348
403.05	1.344
403.26	1.340
403.47	1.318
403.67	1.314
403.88	1.313
404.08	1.289
404.29	1.284
404.50	1.284
404.70	1.283
404.91	1.280
405.11	1.273
405.32	1.272
405.52	1.271
405.73	1.271
405.94	1.267
406.14	1.274
406.35	1.279
406.55	1.276
406.76	1.267
406.97	1.270
407.17	1.277
407.38	1.277
407.58	1.275
407.79	1.281
407.99	1.285
408.20	1.288
408.41	1.276
408.61	1.269
408.82	1.270
409.02	1.272
409.23	1.267
409.43	1.260
409.64	1.259
409.84	1.257
410.05	1.249
410.26	1.245
410.46	1.242
410.67	1.242
410.87	1.247
411.08	1.252
411.28	1.252
411.49	1.255
411.69	1.250
411.90	1.255
412.11	1.257
412.31	1.259
412.52	1.253
412.72	1.254
412.93	1.253
413.13	1.250
413.34	1.241
413.54	1.246
413.75	1.250
413.95	1.250
414.16	1.241
414.37	1.248
414.57	1.247
414.78	1.254
414.98	1.251
415.19	1.254
415.39	1.243
415.60	1.248
415.80	1.247
416.01	1.240
416.21	1.241
416.42	1.241
416.62	1.227
416.83	1.226
417.03	1.223
417.24	1.221
417.44	1.216
417.65	1.214
417.86	1.213
418.06	1.206
418.27	1.202
418.47	1.207
418.68	1.205
418.88	1.207
419.09	1.203
419.29	1.204
419.50	1.204
419.70	1.203
419.91	1.200
420.11	1.194
420.32	1.199
420.52	1.197
420.73	1.194
420.93	1.196
421.14	1.199
421.34	1.198
421.55	1.190
421.75	1.189
421.96	1.191
422.16	1.189
422.37	1.187
422.57	1.180
422.78	1.182
422.98	1.175
423.19	1.170
423.39	1.165
423.60	1.173
423.80	1.175
424.01	1.171
424.21	1.177
424.42	1.178
424.62	1.178
424.83	1.176
425.03	1.175
425.23	1.176
425.44	1.176
425.64	1.178
425.85	1.173
426.05	1.173
426.26	1.174
426.46	1.164
426.67	1.163
426.87	1.172
427.08	1.173
427.28	1.169
427.49	1.171
427.69	1.170
427.90	1.165
428.10	1.159
428.31	1.158
428.51	1.162
428.71	1.160
428.92	1.163
429.12	1.156
429.33	1.155
429.53	1.166
429.74	1.180
429.94	1.181
430.15	1.179
430.35	1.177
430.56	1.172
430.76	1.168
430.96	1.170
431.17	1.163
431.37	1.158
431.58	1.155
431.78	1.146
431.99	1.126
432.19	1.132
432.40	1.137
432.60	1.138
432.80	1.143
433.01	1.140
433.21	1.138
433.42	1.140
433.62	1.140
433.83	1.140
434.03	1.145
434.23	1.150
434.44	1.147
434.64	1.141
434.85	1.152
435.05	1.155
435.26	1.155
435.46	1.154
435.66	1.154
435.87	1.154
436.07	1.153
436.28	1.145
436.48	1.139
436.69	1.137
436.89	1.137
437.09	1.122
437.30	1.118
437.50	1.118
437.71	1.150
437.91	1.150
438.11	1.150
438.32	1.159
438.52	1.158
438.73	1.156
438.93	1.151
439.13	1.150
439.34	1.162
439.54	1.157
439.75	1.158
439.95	1.130
440.15	1.141
440.36	1.138
440.56	1.131
440.77	1.133
440.97	1.133
441.17	1.131
441.38	1.135
441.58	1.126
441.79	1.124
441.99	1.121
442.19	1.115
442.40	1.107
442.60	1.107
442.81	1.103
443.01	1.102
443.21	1.103
443.42	1.102
443.62	1.100
443.82	1.098
444.03	1.101
444.23	1.102
444.44	1.105
444.64	1.103
444.84	1.106
445.05	1.106
445.25	1.103
445.45	1.102
445.66	1.106
445.86	1.104
446.06	1.108
446.27	1.106
446.47	1.111
446.68	1.105
446.88	1.103
447.08	1.100
447.29	1.102
447.49	1.103
447.69	1.102
447.90	1.099
448.10	1.105
448.30	1.098
448.51	1.102
448.71	1.097
448.91	1.100
449.12	1.098
449.32	1.102
449.52	1.098
449.73	1.105
449.93	1.104
450.14	1.107
450.34	1.105
450.54	1.109
450.75	1.104
450.95	1.104
451.15	1.104
451.36	1.109
451.56	1.103
451.76	1.102
451.97	1.096
452.17	1.096
452.37	1.092
452.58	1.087
452.78	1.087
452.98	1.091
453.19	1.090
453.39	1.092
453.59	1.087
453.79	1.089
454.00	1.090
454.20	1.089
454.40	1.090
454.61	1.095
454.81	1.095
455.01	1.092
455.22	1.094
455.42	1.097
455.62	1.093
455.83	1.094
456.03	1.099
456.23	1.099
456.44	1.100
456.64	1.099
456.84	1.098
457.04	1.099
457.25	1.099
457.45	1.093
457.65	1.091
457.86	1.093
458.06	1.091
458.26	1.084
458.47	1.084
458.67	1.085
458.87	1.085
459.07	1.081
459.28	1.082
459.48	1.085
459.68	1.085
459.89	1.082
460.09	1.079
460.29	1.081
460.49	1.081
460.70	1.079
460.90	1.078
461.10	1.079
461.31	1.079
461.51	1.075
461.71	1.081
461.91	1.082
462.12	1.084
462.32	1.082
462.52	1.082
462.72	1.089
462.93	1.089
463.13	1.086
463.33	1.088
463.53	1.089
463.74	1.089
463.94	1.078
464.14	1.080
464.35	1.081
464.55	1.082
464.75	1.079
464.95	1.074
465.16	1.077
465.36	1.075
465.56	1.075
465.76	1.073
465.97	1.073
466.17	1.074
466.37	1.070
466.57	1.071
466.78	1.072
466.98	1.072
467.18	1.069
467.38	1.065
467.59	1.067
467.79	1.070
467.99	1.068
468.19	1.069
468.39	1.074
468.60	1.074
468.80	1.070
469.00	1.072
469.20	1.074
469.41	1.075
469.61	1.075
469.81	1.076
470.01	1.075
470.22	1.075
470.42	1.074
470.62	1.070
470.82	1.071
471.02	1.071
471.23	1.066
471.43	1.067
471.63	1.071
471.83	1.070
472.04	1.067
472.24	1.063
472.44	1.075
472.64	1.075
472.84	1.072
473.05	1.070
473.25	1.074
473.45	1.074
473.65	1.070
473.85	1.069
474.06	1.071
474.26	1.070
474.46	1.074
474.66	1.065
474.86	1.065
475.07	1.063
475.27	1.062
475.47	1.057
475.67	1.057
475.87	1.061
476.08	1.056
476.28	1.059
476.48	1.062
476.68	1.057
476.88	1.054
477.09	1.055
477.29	1.059
477.49	1.059
477.69	1.058
477.89	1.059
478.09	1.056
478.30	1.061
478.50	1.055
478.70	1.052
478.90	1.053
479.10	1.058
479.31	1.061
479.51	1.058
479.71	1.057
479.91	1.057
480.11	1.055
480.31	1.055
480.52	1.051
480.72	1.050
480.92	1.049
481.12	1.046
481.32	1.041
481.52	1.036
481.72	1.036
481.93	1.043
482.13	1.044
482.33	1.043
482.53	1.040
482.73	1.043
482.93	1.045
483.14	1.044
483.34	1.042
483.54	1.044
483.74	1.041
483.94	1.040
484.14	1.032
484.34	1.032
484.55	1.031
484.75	1.031
484.95	1.027
485.15	1.025
485.35	1.024
485.55	1.024
485.75	1.021
485.96	1.022
486.16	1.024
486.36	1.022
486.56	1.020
486.76	1.021
486.96	1.021
487.16	1.019
487.36	1.017
487.57	1.017
487.77	1.017
487.97	1.018
488.17	1.016
488.37	1.015
488.57	1.015
488.77	1.015
488.97	1.013
489.18	1.011
489.38	1.015
489.58	1.016
489.78	1.016
489.98	1.015
490.18	1.014
490.38	1.013
490.58	1.011
490.78	1.012
490.98	1.014
491.19	1.015
491.39	1.014
491.59	1.012
491.79	1.017
491.99	1.015
492.19	1.015
492.39	1.021
492.59	1.021
492.79	1.026
492.99	1.027
493.20	1.027
493.40	1.027
493.60	1.030
493.80	1.027
494.00	1.022
494.20	1.023
494.40	1.023
494.60	1.019
494.80	1.027
495.00	1.023
495.20	1.020
495.40	1.019
495.61	1.021
495.81	1.019
496.01	1.026
496.21	1.030
496.41	1.028
496.61	1.029
496.81	1.027
497.01	1.017
497.21	1.016
497.41	1.016
497.61	1.016
497.81	1.012
498.01	1.013
498.21	1.007
498.41	1.003
498.61	1.002
498.82	1.005
499.02	1.007
499.22	1.008
499.42	1.008
499.62	1.010
499.82	1.011
500.02	1.013
500.22	1.012
500.42	1.016
500.62	1.016
500.82	1.017
501.02	1.014
501.22	1.014
501.42	1.013
501.62	1.018
501.82	1.016
502.02	1.017
502.22	1.016
502.42	1.019
502.62	1.013
502.82	1.013
503.02	1.015
503.22	1.014
503.42	1.012
503.63	1.012
503.83	1.008
504.03	1.007
504.23	1.004
504.43	1.006
504.63	1.008
504.83	1.007
505.03	1.006
505.23	1.007
505.43	1.010
505.63	1.011
505.83	1.011
506.03	1.013
506.23	1.016
506.43	1.015
506.63	1.014
506.83	1.010
507.03	1.015
507.23	1.016
507.43	1.011
507.63	1.011
507.83	1.011
508.03	1.011
508.23	1.010
508.43	1.007
508.63	1.011
508.83	1.011
509.03	1.014
509.23	1.012
509.43	1.012
509.63	1.014
509.83	1.013
510.03	1.018
510.23	1.020
510.43	1.022
510.63	1.022
510.83	1.021
511.03	1.023
511.23	1.018
511.43	1.018
511.63	1.021
511.83	1.023
512.03	1.022
512.22	1.018
512.42	1.017
512.62	1.018
512.82	1.018
513.02	1.017
513.22	1.016
513.42	1.019
513.62	1.025
513.82	1.021
514.02	1.020
514.22	1.021
514.42	1.021
514.62	1.022
514.82	1.021
515.02	1.025
515.22	1.032
515.42	1.030
515.62	1.034
515.82	1.031
516.02	1.033
516.22	1.034
516.42	1.038
516.62	1.040
516.82	1.042
517.01	1.040
517.21	1.039
517.41	1.046
517.61	1.048
517.81	1.042
518.01	1.039
518.21	1.039
518.41	1.038
518.61	1.036
518.81	1.037
519.01	1.037
519.21	1.037
519.41	1.036
519.61	1.025
519.81	1.029
520.00	1.029
520.20	1.031
520.40	1.036
520.60	1.036
520.80	1.034
521.00	1.036
521.20	1.037
521.40	1.045
521.60	1.044
521.80	1.042
522.00	1.041
522.20	1.044
522.39	1.043
522.59	1.038
522.79	1.042
522.99	1.044
523.19	1.040
523.39	1.039
523.59	1.035
523.79	1.040
523.99	1.044
524.19	1.043
524.38	1.040
524.58	1.042
524.78	1.043
524.98	1.039
525.18	1.043
525.38	1.044
525.58	1.043
525.78	1.040
525.98	1.036
526.18	1.035
526.37	1.033
526.57	1.038
526.77	1.038
526.97	1.037
527.17	1.038
527.37	1.030
527.57	1.036
527.77	1.038
527.96	1.039
528.16	1.038
528.36	1.041
528.56	1.044
528.76	1.039
528.96	1.038
529.16	1.040
529.36	1.044
529.55	1.044
529.75	1.038
529.95	1.038
530.15	1.038
530.35	1.043
530.55	1.038
530.75	1.038
530.94	1.039
531.14	1.040
531.34	1.038
531.54	1.034
531.74	1.039
531.94	1.046
532.13	1.045
532.33	1.050
532.53	1.047
532.73	1.047
532.93	1.044
533.13	1.046
533.33	1.046
533.52	1.047
533.72	1.056
533.92	1.053
534.12	1.047
534.32	1.046
534.52	1.042
534.71	1.044
534.91	1.047
535.11	1.052
535.31	1.048
535.51	1.051
535.71	1.054
535.90	1.046
536.10	1.049
536.30	1.052
536.50	1.054
536.70	1.055
536.89	1.052
537.09	1.052
537.29	1.054
537.49	1.055
537.69	1.052
537.89	1.052
538.08	1.052
538.28	1.048
538.48	1.050
538.68	1.052
538.88	1.055
539.07	1.055
539.27	1.052
539.47	1.049
539.67	1.048
539.87	1.050
540.06	1.045
540.26	1.046
540.46	1.048
540.66	1.041
540.86	1.039
541.05	1.037
541.25	1.039
541.45	1.039
541.65	1.037
541.84	1.040
542.04	1.041
542.24	1.043
542.44	1.043
542.64	1.045
542.83	1.050
543.03	1.050
543.23	1.048
543.43	1.049
543.62	1.052
543.82	1.053
544.02	1.051
544.22	1.051
544.42	1.056
544.61	1.056
544.81	1.053
545.01	1.050
545.21	1.053
545.40	1.052
545.60	1.048
545.80	1.054
546.00	1.053
546.19	1.052
546.39	1.050
546.59	1.045
546.79	1.046
546.98	1.046
547.18	1.047
547.38	1.048
547.58	1.051
547.77	1.053
547.97	1.045
548.17	1.048
548.37	1.047
548.56	1.049
548.76	1.048
548.96	1.049
549.16	1.052
549.35	1.051
549.55	1.048
549.75	1.048
549.95	1.053
550.14	1.053
550.34	1.051
550.54	1.061
550.73	1.066
550.93	1.067
551.13	1.064
551.33	1.062
551.52	1.062
551.72	1.062
551.92	1.059
552.12	1.061
552.31	1.062
552.51	1.061
552.71	1.052
552.90	1.052
553.10	1.052
553.30	1.052
553.50	1.052
553.69	1.055
553.89	1.056
554.09	1.056
554.28	1.049
554.48	1.053
554.68	1.056
554.87	1.057
555.07	1.052
555.27	1.052
555.47	1.053
555.66	1.054
555.86	1.051
556.06	1.055
556.25	1.059
556.45	1.076
556.65	1.073
556.84	1.079
557.04	1.085
557.24	1.087
557.43	1.088
557.63	1.095
557.83	1.097
558.02	1.099
558.22	1.109
558.42	1.108
558.61	1.091
558.81	1.091
559.01	1.082
559.21	1.081
559.40	1.082
559.60	1.083
559.80	1.076
559.99	1.078
560.19	1.081
560.39	1.068
560.58	1.067
560.78	1.067
560.97	1.073
561.17	1.072
561.37	1.070
561.56	1.072
561.76	1.073
561.96	1.073
562.15	1.068
562.35	1.074
562.55	1.075
562.74	1.075
562.94	1.073
563.14	1.069
563.33	1.070
563.53	1.069
563.73	1.064
563.92	1.066
564.12	1.070
564.31	1.074
564.51	1.069
564.71	1.071
564.90	1.073
565.10	1.074
565.30	1.083
565.49	1.083
565.69	1.087
565.89	1.088
566.08	1.084
566.28	1.088
566.47	1.090
566.67	1.087
566.87	1.084
567.06	1.088
567.26	1.102
567.46	1.093
567.65	1.090
567.85	1.093
568.04	1.097
568.24	1.096
568.44	1.090
568.63	1.086
568.83	1.089
569.02	1.087
569.22	1.079
569.42	1.071
569.61	1.073
569.81	1.071
570.00	1.068
570.20	1.070
570.40	1.071
570.59	1.071
570.79	1.068
570.98	1.064
571.18	1.066
571.38	1.064
571.57	1.060
571.77	1.056
571.96	1.062
572.16	1.059
572.35	1.050
572.55	1.052
572.75	1.049
572.94	1.047
573.14	1.045
573.33	1.045
573.53	1.045
573.73	1.043
573.92	1.040
574.12	1.037
574.31	1.041
574.51	1.041
574.70	1.036
574.90	1.038
575.09	1.041
575.29	1.041
575.49	1.038
575.68	1.040
575.88	1.041
576.07	1.043
576.27	1.040
576.46	1.036
576.66	1.035
576.86	1.034
577.05	1.032
577.25	1.029
577.44	1.032
577.64	1.031
577.83	1.028
578.03	1.030
578.22	1.029
578.42	1.029
578.61	1.026
578.81	1.027
579.00	1.026
579.20	1.025
579.40	1.023
579.59	1.021
579.79	1.021
579.98	1.021
580.18	1.021
580.37	1.021
580.57	1.023
580.76	1.033
580.96	1.032
581.15	1.034
581.35	1.037
581.54	1.036
581.74	1.036
581.93	1.040
582.13	1.041
582.32	1.035
582.52	1.032
582.71	1.030
582.91	1.020
583.10	1.020
583.30	1.017
583.49	1.016
583.69	1.023
583.88	1.024
584.08	1.023
584.27	1.028
584.47	1.033
584.66	1.034
584.86	1.034
585.05	1.038
585.25	1.042
585.44	1.043
585.64	1.043
585.83	1.037
586.03	1.038
586.22	1.036
586.42	1.029
586.61	1.033
586.81	1.037
587.00	1.037
587.20	1.033
587.39	1.034
587.59	1.036
587.78	1.036
587.98	1.037
588.17	1.037
588.37	1.040
588.56	1.043
588.76	1.034
588.95	1.032
589.15	1.040
589.34	1.045
589.54	1.043
589.73	1.045
589.92	1.050
590.12	1.050
590.31	1.048
590.51	1.060
590.70	1.063
590.90	1.065
591.09	1.062
591.29	1.058
591.48	1.057
591.68	1.060
591.87	1.056
592.06	1.057
592.26	1.062
592.45	1.060
592.65	1.047
592.84	1.045
593.04	1.050
593.23	1.055
593.43	1.050
593.62	1.049
593.81	1.049
594.01	1.048
594.20	1.043
594.40	1.040
594.59	1.042
594.79	1.043
594.98	1.041
595.17	1.039
595.37	1.039
595.56	1.042
595.76	1.042
595.95	1.044
596.14	1.049
596.34	1.052
596.53	1.050
596.73	1.054
596.92	1.055
597.12	1.061
597.31	1.063
597.50	1.061
597.70	1.064
597.89	1.062
598.09	1.057
598.28	1.059
598.47	1.064
598.67	1.062
598.86	1.055
599.06	1.060
599.25	1.060
599.44	1.056
599.64	1.053
599.83	1.049
600.03	1.054
600.22	1.055
600.41	1.057
600.61	1.051
600.80	1.054
601.00	1.055
601.19	1.047
601.38	1.044
601.58	1.046
601.77	1.047
601.96	1.051
602.16	1.050
602.35	1.067
602.55	1.062
602.74	1.064
602.93	1.069
603.13	1.078
603.32	1.081
603.51	1.082
603.71	1.091
603.90	1.093
604.09	1.095
604.29	1.091
604.48	1.079
604.68	1.081
604.87	1.078
605.06	1.073
605.26	1.066
605.45	1.065
605.64	1.064
605.84	1.056
606.03	1.054
606.22	1.050
606.42	1.050
606.61	1.044
606.80	1.043
607.00	1.047
607.19	1.047
607.38	1.046
607.58	1.050
607.77	1.053
607.96	1.053
608.16	1.052
608.35	1.062
608.54	1.067
608.74	1.074
608.93	1.086
609.12	1.091
609.32	1.096
609.51	1.103
609.70	1.099
609.90	1.102
610.09	1.109
610.28	1.120
610.48	1.107
610.67	1.110
610.86	1.109
611.06	1.095
611.25	1.091
611.44	1.091
611.64	1.089
611.83	1.097
612.02	1.093
612.21	1.091
612.41	1.087
612.60	1.086
612.79	1.078
612.99	1.080
613.18	1.084
613.37	1.082
613.57	1.079
613.76	1.082
613.95	1.077
614.14	1.075
614.34	1.071
614.53	1.072
614.72	1.077
614.92	1.079
615.11	1.074
615.30	1.067
615.49	1.069
615.69	1.072
615.88	1.067
616.07	1.067
616.26	1.071
616.46	1.072
616.65	1.068
616.84	1.066
617.04	1.065
617.23	1.072
617.42	1.073
617.61	1.079
617.81	1.078
618.00	1.081
618.19	1.080
618.38	1.089
618.58	1.097
618.77	1.099
618.96	1.100
619.15	1.106
619.35	1.108
619.54	1.110
619.73	1.102
619.92	1.108
620.12	1.115
620.31	1.116
620.50	1.105
620.69	1.103
620.89	1.108
621.08	1.108
621.27	1.109
621.46	1.108
621.66	1.116
621.85	1.115
622.04	1.111
622.23	1.115
622.43	1.117
622.62	1.117
622.81	1.118
623.00	1.116
623.19	1.121
623.39	1.118
623.58	1.113
623.77	1.111
623.96	1.116
624.16	1.117
624.35	1.106
624.54	1.110
624.73	1.117
624.92	1.111
625.12	1.108
625.31	1.110
625.50	1.114
625.69	1.115
625.88	1.109
626.08	1.108
626.27	1.108
626.46	1.108
626.65	1.102
626.84	1.101
627.04	1.112
627.23	1.112
627.42	1.105
627.61	1.110
627.80	1.114
628.00	1.115
628.19	1.111
628.38	1.118
628.57	1.122
628.76	1.115
628.96	1.111
629.15	1.110
629.34	1.116
629.53	1.116
629.72	1.106
629.91	1.108
630.11	1.115
630.30	1.116
630.49	1.123
630.68	1.125
630.87	1.137
631.06	1.140
631.26	1.132
631.45	1.133
631.64	1.149
631.83	1.152
632.02	1.148
632.21	1.143
632.41	1.158
632.60	1.144
632.79	1.141
632.98	1.143
633.17	1.145
633.36	1.150
633.55	1.147
633.75	1.138
633.94	1.139
634.13	1.140
634.32	1.139
634.51	1.128
634.70	1.132
634.89	1.131
635.09	1.125
635.28	1.125
635.47	1.125
635.66	1.130
635.85	1.123
636.04	1.128
636.23	1.138
636.43	1.139
636.62	1.140
636.81	1.136
637.00	1.139
637.19	1.147
637.38	1.145
637.57	1.145
637.76	1.150
637.95	1.152
638.15	1.145
638.34	1.137
638.53	1.140
638.72	1.140
638.91	1.137
639.10	1.134
639.29	1.131
639.48	1.132
639.67	1.135
639.87	1.130
640.06	1.141
640.25	1.140
640.44	1.142
640.63	1.146
640.82	1.152
641.01	1.152
641.20	1.154
641.39	1.160
641.58	1.163
641.78	1.159
641.97	1.153
642.16	1.189
642.35	1.188
642.54	1.187
642.73	1.178
642.92	1.172
643.11	1.179
643.30	1.178
643.49	1.167
643.68	1.171
643.87	1.173
644.06	1.173
644.25	1.127
644.45	1.136
644.64	1.138
644.83	1.140
645.02	1.136
645.21	1.133
645.40	1.136
645.59	1.138
645.78	1.130
645.97	1.135
646.16	1.134
646.35	1.133
646.54	1.130
646.73	1.133
646.92	1.136
647.11	1.136
647.30	1.132
647.49	1.137
647.68	1.134
647.88	1.129
648.07	1.118
648.26	1.127
648.45	1.127
648.64	1.121
648.83	1.115
649.02	1.120
649.21	1.140
649.40	1.138
649.59	1.129
649.78	1.132
649.97	1.167
650.16	1.165
650.35	1.151
650.54	1.160
650.73	1.178
650.92	1.172
651.11	1.156
651.30	1.152
651.49	1.161
651.68	1.160
651.87	1.154
652.06	1.125
652.25	1.131
652.44	1.138
652.63	1.131
652.82	1.132
653.01	1.134
653.20	1.131
653.39	1.109
653.58	1.103
653.77	1.101
653.96	1.093
654.15	1.079
654.34	1.075
654.53	1.067
654.72	1.055
654.91	1.037
655.10	1.029
655.29	1.025
655.48	1.020
655.67	1.012
655.86	1.007
656.05	1.003
656.24	1.003
656.43	0.995
656.62	0.995
656.81	0.997
657.00	0.992
657.19	0.986
657.38	0.984
657.57	0.983
657.76	0.987
657.95	0.985
658.14	0.992
658.33	0.997
658.51	1.006
658.70	1.005
658.89	1.004
659.08	1.022
659.27	1.039
659.46	1.044
659.65	1.056
659.84	1.063
660.03	1.068
660.22	1.069
660.41	1.077
660.60	1.076
660.79	1.078
660.98	1.094
661.17	1.088
661.36	1.083
661.55	1.084
661.74	1.081
661.92	1.085
662.11	1.089
662.30	1.085
662.49	1.073
662.68	1.070
662.87	1.073
663.06	1.060
663.25	1.066
663.44	1.066
663.63	1.067
663.82	1.066
664.01	1.053
664.20	1.053
664.38	1.056
664.57	1.057
664.76	1.058
664.95	1.061
665.14	1.069
665.33	1.061
665.52	1.079
665.71	1.089
665.90	1.087
666.09	1.095
666.28	1.091
666.46	1.085
666.65	1.086
666.84	1.082
667.03	1.073
667.22	1.071
667.41	1.075
667.60	1.053
667.79	1.038
667.98	1.042
668.16	1.042
668.35	1.040
668.54	1.038
668.73	1.040
668.92	1.041
669.11	1.039
669.30	1.030
669.49	1.024
669.67	1.029
669.86	1.035
670.05	1.031
670.24	1.027
670.43	1.025
670.62	1.022
670.81	1.014
671.00	1.014
671.18	1.012
671.37	1.010
671.56	1.006
671.75	1.002
671.94	0.995
672.13	0.992
672.32	0.985
672.50	0.984
672.69	0.984
672.88	0.984
673.07	0.977
673.26	0.980
673.45	0.982
673.63	0.981
673.82	0.976
674.01	0.979
674.20	0.977
674.39	0.976
674.58	0.976
674.76	0.978
674.95	0.977
675.14	0.979
675.33	0.974
675.52	0.972
675.71	0.973
675.89	0.973
676.08	0.968
676.27	0.967
676.46	0.969
676.65	0.967
676.84	0.966
677.02	0.967
677.21	0.969
677.40	0.967
677.59	0.965
677.78	0.965
677.96	0.969
678.15	0.969
678.34	0.967
678.53	0.969
678.72	0.967
678.90	0.963
679.09	0.959
679.28	0.955
679.47	0.952
679.66	0.951
679.84	0.947
680.03	0.941
680.22	0.940
680.41	0.943
680.60	0.937
680.78	0.936
680.97	0.939
681.16	0.938
681.35	0.937
681.53	0.937
681.72	0.939
681.91	0.943
682.10	0.942
682.29	0.946
682.47	0.942
682.66	0.937
682.85	0.935
683.04	0.933
683.22	0.931
683.41	0.936
683.60	0.935
683.79	0.937
683.97	0.933
684.16	0.932
684.35	0.925
684.54	0.928
684.72	0.931
684.91	0.934
685.10	0.930
685.29	0.932
685.47	0.928
685.66	0.926
685.85	0.921
686.04	0.920
686.22	0.923
686.41	0.927
686.60	0.923
686.79	0.929
686.97	0.928
687.16	0.931
687.35	0.927
687.54	0.933
687.72	0.937
687.91	0.937
688.10	0.942
688.29	0.943
688.47	0.938
688.66	0.939
688.85	0.931
689.03	0.928
689.22	0.937
689.41	0.939
689.60	0.932
689.78	0.928
689.97	0.929
690.16	0.924
690.34	0.918
690.53	0.919
690.72	0.918
690.91	0.916
691.09	0.913
691.28	0.903
691.47	0.900
691.65	0.898
691.84	0.894
692.03	0.893
692.21	0.890
692.40	0.890
692.59	0.887
692.77	0.886
692.96	0.887
693.15	0.888
693.34	0.884
693.52	0.884
693.71	0.885
693.90	0.886
694.08	0.889
694.27	0.892
694.46	0.909
694.64	0.910
694.83	0.910
695.02	0.910
695.20	0.910
695.39	0.910
695.58	0.910
695.76	0.911
695.95	0.909
696.14	0.906
696.32	0.903
696.51	0.884
696.70	0.885
696.88	0.887
697.07	0.884
697.26	0.885
697.44	0.886
697.63	0.884
697.81	0.880
698.00	0.880
698.19	0.879
698.37	0.877
698.56	0.876
698.75	0.874
698.93	0.872
699.12	0.872
699.31	0.871
699.49	0.870
699.68	0.871
699.87	0.876
700.05	0.877
700.24	0.876
700.42	0.878
700.61	0.878
700.80	0.876
700.98	0.877
701.17	0.879
701.36	0.877
701.54	0.878
701.73	0.880
701.91	0.875
702.10	0.874
702.29	0.873
702.47	0.871
702.66	0.874
702.84	0.876
703.03	0.873
703.22	0.876
703.40	0.875
703.59	0.877
703.77	0.877
703.96	0.878
704.15	0.880
704.33	0.879
704.52	0.878
704.70	0.876
704.89	0.875
705.08	0.874
705.26	0.868
705.45	0.868
705.63	0.866
705.82	0.861
706.00	0.859
706.19	0.858
706.38	0.857
706.56	0.857
706.75	0.855
706.93	0.853
707.12	0.854
707.30	0.854
707.49	0.851
707.68	0.847
707.86	0.846
708.05	0.845
708.23	0.841
708.42	0.840
708.60	0.844
708.79	0.843
708.98	0.841
709.16	0.840
709.35	0.842
709.53	0.849
709.72	0.848
709.90	0.851
710.09	0.853
710.27	0.856
710.46	0.863
710.64	0.859
710.83	0.860
711.02	0.862
711.20	0.861
711.39	0.859
711.57	0.853
711.76	0.853
711.94	0.852
712.13	0.854
712.31	0.852
712.50	0.844
712.68	0.842
712.87	0.843
713.05	0.843
713.24	0.843
713.42	0.841
713.61	0.841
713.79	0.842
713.98	0.842
714.16	0.844
714.35	0.843
714.54	0.844
714.72	0.843
714.91	0.841
715.09	0.852
715.28	0.856
715.46	0.855
715.65	0.853
715.83	0.852
716.02	0.854
716.20	0.848
716.39	0.847
716.57	0.849
716.76	0.853
716.94	0.853
717.12	0.840
717.31	0.843
717.49	0.847
717.68	0.850
717.86	0.851
718.05	0.853
718.23	0.857
718.42	0.860
718.60	0.863
718.79	0.878
718.97	0.881
719.16	0.882
719.34	0.879
719.53	0.878
719.71	0.877
719.90	0.878
720.08	0.873
720.27	0.873
720.45	0.872
720.63	0.867
720.82	0.856
721.00	0.858
721.19	0.862
721.37	0.860
721.56	0.860
721.74	0.863
721.93	0.878
722.11	0.888
722.30	0.888
722.48	0.893
722.66	0.894
722.85	0.891
723.03	0.894
723.22	0.892
723.40	0.896
723.59	0.895
723.77	0.904
723.95	0.890
724.14	0.894
724.32	0.895
724.51	0.894
724.69	0.897
724.88	0.895
725.06	0.890
725.24	0.891
725.43	0.892
725.61	0.894
725.80	0.882
725.98	0.881
726.16	0.872
726.35	0.882
726.53	0.881
726.72	0.880
726.90	0.897
727.09	0.897
727.27	0.906
727.45	0.902
727.64	0.917
727.82	0.928
728.01	0.932
728.19	0.929
728.37	0.936
728.56	0.940
728.74	0.950
728.92	0.930
729.11	0.934
729.29	0.928
729.48	0.931
729.66	0.915
729.84	0.912
730.03	0.914
730.21	0.919
730.40	0.902
730.58	0.904
730.76	0.900
730.95	0.901
731.13	0.900
731.31	0.923
731.50	0.934
731.68	0.938
731.86	0.936
732.05	0.961
732.23	0.962
732.42	0.971
732.60	0.978
732.78	0.986
732.97	1.014
733.15	1.028
733.33	1.007
733.52	1.015
733.70	1.031
733.88	1.043
734.07	1.018
734.25	1.066
734.43	1.076
734.62	1.076
734.80	1.070
734.98	1.045
735.17	1.055
735.35	1.064
735.53	1.049
735.72	1.053
735.90	1.092
736.08	1.137
736.27	1.091
736.45	1.107
736.63	1.128
736.82	1.140
737.00	1.148
737.18	1.161
737.37	1.225
737.55	1.280
737.73	1.273
737.92	1.271
738.10	1.247
738.28	1.296
738.46	1.271
738.65	1.304
738.83	1.352
739.01	1.543
739.20	1.533
739.38	1.463
739.56	1.425
739.75	1.437
739.93	1.357
740.11	1.420
740.29	1.385
740.48	1.411
740.66	1.349
740.84	1.352
741.03	1.241
741.21	1.264
741.39	1.244
741.57	1.263
741.76	1.284
741.94	1.299
742.12	1.230
742.31	1.261
742.49	1.290
742.67	1.359
742.85	1.399
743.04	1.424
743.22	1.433
743.40	1.625
743.58	1.592
743.77	1.719
743.95	1.916
744.13	3.243
744.31	2.503
744.50	2.372
744.68	2.287
744.86	2.010
745.04	2.144
745.23	-0.000
745.41	-0.000
745.59	-0.000
745.77	2.985
745.96	2.450
746.14	2.363
746.32	2.426
746.50	2.387
746.69	2.162
746.87	2.176
747.05	2.025
747.23	1.574
747.42	1.530
747.60	1.572
747.78	1.546
747.96	1.737
748.14	1.543
748.33	1.613
748.51	1.616
748.69	1.614
748.87	1.764
749.06	1.741
749.24	1.723
749.42	1.678
749.60	1.657
749.78	1.676
749.97	1.456
750.15	1.447
750.33	1.457
750.51	1.502
750.69	1.492
750.88	1.543
751.06	1.541
751.24	1.598
751.42	1.570
751.60	1.540
751.79	1.930
751.97	2.435
752.15	2.359
752.33	2.037
752.51	-0.000
752.69	-0.000
752.88	-0.000
753.06	-0.000
753.24	-0.000
753.42	-0.000
753.60	-0.000
753.78	-0.000
753.97	-0.000
754.15	-0.000
754.33	-0.000
754.51	-0.000
754.69	-0.000
754.87	-0.000
755.06	2.616
755.24	2.761
755.42	-0.000
755.60	1.593
755.78	1.639
755.96	1.452
756.15	1.448
756.33	1.439
756.51	1.502
756.69	1.481
756.87	1.370
757.05	1.392
757.23	1.351
757.42	1.267
757.60	1.270
757.78	1.229
757.96	1.234
758.14	1.206
758.32	1.172
758.50	1.178
758.69	1.170
758.87	1.167
759.05	1.183
759.23	1.195
759.41	1.198
759.59	1.193
759.77	1.234
759.95	1.288
760.13	1.439
760.32	1.456
760.50	1.459
760.68	1.527
760.86	1.534
761.04	1.451
761.22	1.472
761.40	1.665
761.58	1.658
761.76	1.560
761.95	1.475
762.13	1.323
762.31	1.320
762.49	1.253
762.67	1.309
762.85	1.339
763.03	1.342
763.21	1.304
763.39	1.240
763.57	1.245
763.75	1.243
763.94	1.221
764.12	1.224
764.30	1.294
764.48	1.300
764.66	1.209
764.84	1.205
765.02	1.281
765.20	1.301
765.38	1.264
765.56	1.275
765.74	1.365
765.92	1.365
766.10	1.386
766.28	1.345
766.46	1.416
766.65	1.426
766.83	1.381
767.01	1.344
767.19	1.344
767.37	1.339
767.55	1.308
767.73	1.245
767.91	1.241
768.09	1.222
768.27	1.203
768.45	1.177
768.63	1.177
768.81	1.183
768.99	1.125
769.17	1.167
769.35	1.188
769.53	1.183
769.71	1.157
769.89	1.172
770.07	1.174
770.25	1.140
770.43	1.106
770.61	1.146
770.79	1.152
770.97	1.174
771.15	1.120
771.33	1.126
771.51	1.132
771.69	1.152
771.87	1.178
772.05	1.186
772.24	1.192
772.42	1.209
772.60	1.170
772.78	1.308
772.96	1.366
773.14	1.365
773.32	1.323
773.49	1.338
773.67	1.331
773.85	1.281
774.03	1.257
774.21	1.343
774.39	1.376
774.57	1.474
774.75	1.276
774.93	1.272
775.11	1.315
775.29	1.331
775.47	1.339
775.65	1.370
775.83	1.419
776.01	1.510
776.19	1.371
776.37	1.368
776.55	1.352
776.73	1.346
776.91	1.348
777.09	1.301
777.27	1.300
777.45	1.277
777.63	1.229
777.81	1.217
777.99	1.175
778.17	1.176
778.35	1.141
778.53	1.112
778.71	1.113
778.89	1.091
779.07	1.080
779.24	1.087
779.42	1.083
779.60	1.122
779.78	1.122
779.96	1.128
780.14	1.137
780.32	1.176
780.50	1.145
780.68	1.139
780.86	1.110
781.04	1.142
781.22	1.159
781.40	1.173
781.58	1.140
781.75	1.117
781.93	1.098
782.11	1.094
782.29	1.065
782.47	1.063
782.65	1.053
782.83	1.103
783.01	1.077
783.19	1.059
783.37	1.040
783.55	1.045
783.72	1.077
783.90	1.092
784.08	1.080
784.26	1.107
784.44	1.144
784.62	1.147
784.80	1.091
784.98	1.116
785.16	1.125
785.33	1.156
785.51	1.146
785.69	1.116
785.87	1.110
786.05	1.138
786.23	1.127
786.41	1.119
786.59	1.120
786.77	1.121
786.94	1.090
787.12	1.096
787.30	1.096
787.48	1.087
787.66	1.072
787.84	1.076
788.02	1.057
788.19	1.057
788.37	1.033
788.55	1.040
788.73	1.042
788.91	1.036
789.09	1.007
789.27	0.991
789.44	1.011
789.62	1.023
789.80	1.045
789.98	1.095
790.16	1.065
790.34	1.058
790.51	1.041
790.69	1.076
790.87	1.085
791.05	1.087
791.23	1.076
791.41	1.077
791.58	1.079
791.76	1.036
791.94	0.982
792.12	0.996
792.30	1.001
792.48	0.999
792.65	0.993
792.83	1.005
793.01	1.012
793.19	1.009
793.37	0.983
793.54	0.979
793.72	0.994
793.90	0.994
794.08	0.980
794.26	0.978
794.43	0.987
794.61	0.961
794.79	0.943
794.97	0.943
795.15	0.943
795.32	0.950
795.50	0.939
795.68	0.929
795.86	0.931
796.04	0.932
796.21	0.925
796.39	0.923
796.57	0.937
796.75	0.952
796.92	0.953
797.10	0.963
797.28	0.965
797.46	0.969
797.64	0.976
797.81	0.987
797.99	0.993
798.17	1.003
798.35	0.995
798.52	1.000
798.70	0.989
798.88	1.010
799.06	1.017
799.23	1.018
799.41	1.029
799.59	1.016
799.77	1.001
799.94	1.011
800.12	1.022
800.30	1.059
800.48	1.063
800.65	1.066
800.83	1.037
801.01	1.020
801.19	1.028
801.36	1.021
801.54	1.026
801.72	1.044
801.90	1.027
802.07	1.017
802.25	0.987
802.43	0.961
802.60	0.955
802.78	0.965
802.96	0.972
803.14	0.959
803.31	0.959
803.49	0.958
803.67	0.946
803.84	0.951
804.02	0.941
804.20	0.940
804.38	0.941
804.55	0.936
804.73	0.920
804.91	0.917
805.08	0.933
805.26	0.926
805.44	1.068
805.61	1.072
805.79	1.070
805.97	1.069
806.15	1.063
806.32	1.056
806.50	1.065
806.68	1.064
806.85	1.052
807.03	1.034
807.21	1.066
807.38	0.919
807.56	0.910
807.74	0.923
807.91	0.930
808.09	0.931
808.27	0.970
808.44	1.023
808.62	1.033
808.80	1.038
808.97	1.031
809.15	1.017
809.33	1.048
809.50	1.058
809.68	1.038
809.86	1.055
810.03	1.119
810.21	1.074
810.39	1.039
810.56	1.053
810.74	1.090
810.91	1.284
811.09	1.265
811.27	1.325
811.44	1.334
811.62	1.351
811.80	1.306
811.97	1.228
812.15	1.225
812.33	1.217
812.50	1.193
812.68	1.166
812.85	1.024
813.03	1.031
813.21	0.977
813.38	0.973
813.56	0.971
813.74	0.993
813.91	1.007
814.09	1.060
814.26	1.041
814.44	1.044
814.62	1.031
814.79	1.031
814.97	1.031
815.14	1.035
815.32	1.041
815.50	1.069
815.67	1.062
815.85	1.044
816.02	1.027
816.20	1.036
816.38	1.055
816.55	1.063
816.73	1.073
816.90	1.089
817.08	1.147
817.26	1.154
817.43	1.124
817.61	1.192
817.78	1.220
817.96	1.176
818.13	1.163
818.31	1.159
818.49	1.174
818.66	1.145
818.84	1.124
819.01	1.075
819.19	1.077
819.36	1.077
819.54	1.019
819.71	1.104
819.89	1.116
820.07	1.143
820.24	1.144
820.42	1.148
820.59	1.179
820.77	1.236
820.94	1.225
821.12	1.274
821.29	1.290
821.47	1.294
821.64	1.145
821.82	1.177
822.00	1.160
822.17	1.156
822.35	1.146
822.52	1.148
822.70	1.112
822.87	1.130
823.05	1.092
823.22	1.114
823.40	1.152
823.57	1.205
823.75	1.173
823.92	1.224
824.10	1.241
824.27	1.347
824.45	1.353
824.62	1.548
824.80	1.590
824.97	1.689
825.15	1.671
825.32	1.757
825.50	1.728
825.67	1.756
825.85	1.685
826.02	1.767
826.20	1.826
826.37	-0.000
826.55	2.469
826.72	-0.000
826.90	-0.000
827.07	-0.000
827.25	-0.000
827.42	-0.000
827.60	-0.000
827.77	-0.000
827.95	-0.000
828.12	-0.000
828.30	-0.000
828.47	-0.000
828.65	-0.000
828.82	-0.000
829.00	-0.000
829.17	-0.000
829.34	-0.000
829.52	-0.000
829.69	-0.000
829.87	-0.000
830.04	-0.000
830.22	-0.000
830.39	-0.000
830.57	-0.000
830.74	-0.000
830.92	-0.000
831.09	-0.000
831.26	-0.000
831.44	-0.000
831.61	-0.000
831.79	-0.000
831.96	-0.000
832.14	-0.000
832.31	-0.000
832.49	-0.000
832.66	-0.000
832.83	-0.000
833.01	-0.000
833.18	-0.000
833.36	-0.000
833.53	-0.000
833.70	-0.000
833.88	-0.000
834.05	-0.000
834.23	-0.000
834.40	-0.000
834.58	-0.000
834.75	-0.000
834.92	-0.000
835.10	-0.000
835.27	-0.000
835.45	-0.000
835.62	-0.000
835.79	-0.000
835.97	-0.000
836.14	-0.000
836.32	-0.000
836.49	-0.000
836.66	-0.000
836.84	-0.000
837.01	-0.000
837.18	-0.000
837.36	-0.000
837.53	-0.000
837.71	-0.000
837.88	-0.000
838.05	-0.000
838.23	-0.000
838.40	-0.000
838.58	-0.000
838.75	-0.000
838.92	-0.000
839.10	-0.000
839.27	-0.000
839.44	-0.000
839.62	-0.000
839.79	-0.000
839.96	-0.000
840.14	-0.000
840.31	-0.000
840.48	-0.000
840.66	-0.000
840.83	-0.000
841.01	-0.000
841.18	-0.000
841.35	-0.000
841.53	-0.000
841.70	-0.000
841.87	-0.000
842.05	-0.000
842.22	-0.000
842.39	-0.000
842.57	-0.000
842.74	-0.000
842.91	-0.000
843.09	-0.000
843.26	-0.000
843.43	-0.000
843.60	-0.000
843.78	-0.000
843.95	-0.000
844.12	-0.000
844.30	-0.000
844.47	-0.000
844.64	-0.000
844.82	-0.000
844.99	-0.000
845.16	-0.000
845.34	-0.000
845.51	-0.000
845.68	-0.000
845.85	-0.000
846.03	-0.000
846.20	-0.000
846.37	-0.000
846.55	-0.000
846.72	-0.000
846.89	-0.000
847.06	-0.000
847.24	-0.000
847.41	-0.000
847.58	-0.000
847.76	-0.000
847.93	-0.000
848.10	-0.000
848.27	-0.000
848.45	-0.000
848.62	-0.000
848.79	-0.000
848.97	-0.000
849.14	-0.000
849.31	-0.000
849.48	-0.000
849.66	-0.000
849.83	-0.000
850.00	-0.000
850.17	-0.000
850.35	-0.000
850.52	-0.000
850.69	-0.000
850.86	-0.000
851.04	-0.000
851.21	-0.000
851.38	-0.000
851.55	-0.000
851.72	-0.000
851.90	-0.000
852.07	-0.000
852.24	-0.000
852.41	-0.000
852.59	-0.000
852.76	-0.000
852.93	-0.000
853.10	-0.000
853.28	-0.000
853.45	-0.000
853.62	-0.000
853.79	-0.000
853.96	-0.000
854.14	-0.000
854.31	-0.000
854.48	-0.000
854.65	-0.000
854.82	-0.000
855.00	-0.000
855.17	-0.000
855.34	-0.000
855.51	-0.000
855.68	-0.000
855.86	-0.000
856.03	-0.000
856.20	-0.000
856.37	-0.000
856.54	-0.000
856.72	-0.000
856.89	-0.000
857.06	-0.000
857.23	-0.000
857.40	-0.000
857.57	-0.000
857.75	-0.000
857.92	-0.000
858.09	-0.000
858.26	-0.000
858.43	-0.000
858.60	-0.000
858.78	-0.000
858.95	-0.000
859.12	-0.000
859.29	-0.000
859.46	-0.000
859.63	-0.000
859.81	-0.000
859.98	-0.000
860.15	-0.000
860.32	-0.000
860.49	-0.000
860.66	-0.000
860.83	-0.000
861.01	-0.000
861.18	-0.000
861.35	-0.000
861.52	-0.000
861.69	-0.000
861.86	-0.000
862.03	-0.000
862.21	-0.000
862.38	-0.000
862.55	-0.000
862.72	-0.000
862.89	-0.000
863.06	-0.000
863.23	-0.000
863.40	-0.000
863.58	-0.000
863.75	-0.000
863.92	-0.000
864.09	-0.000
864.26	-0.000
864.43	-0.000
864.60	-0.000
864.77	-0.000
864.94	-0.000
865.11	-0.000
865.29	-0.000
865.46	-0.000
865.63	-0.000
865.80	-0.000
865.97	-0.000
866.14	-0.000
866.31	-0.000
866.48	-0.000
866.65	-0.000
866.82	-0.000
866.99	-0.000
867.16	-0.000
867.34	-0.000
867.51	-0.000
867.68	-0.000
867.85	-0.000
868.02	-0.000
868.19	-0.000
868.36	-0.000
868.53	-0.000
868.70	-0.000
868.87	-0.000
869.04	-0.000
869.21	-0.000
869.38	-0.000
869.55	-0.000
869.72	-0.000
869.89	-0.000
870.06	-0.000
870.24	-0.000
870.41	-0.000
870.58	-0.000
870.75	-0.000
870.92	-0.000
871.09	-0.000
871.26	-0.000
871.43	-0.000
871.60	-0.000
871.77	-0.000
871.94	-0.000
872.11	-0.000
872.28	-0.000
872.45	-0.000
872.62	-0.000
872.79	-0.000
872.96	-0.000
873.13	-0.000
873.30	-0.000
873.47	-0.000
873.64	-0.000
873.81	-0.000
873.98	-0.000
874.15	-0.000
874.32	-0.000
874.49	-0.000
874.66	-0.000
874.83	-0.000
875.00	-0.000
875.17	-0.000
875.34	-0.000
875.51	-0.000
875.68	-0.000
875.85	-0.000
876.02	-0.000
876.19	-0.000
876.36	-0.000
876.53	-0.000
876.70	-0.000
876.87	-0.000
877.04	-0.000
877.21	-0.000
877.38	-0.000
877.55	-0.000
877.72	-0.000
877.89	-0.000
878.06	-0.000
878.23	-0.000
878.39	-0.000
878.56	-0.000
878.73	-0.000
878.90	-0.000
879.07	-0.000
879.24	-0.000
879.41	-0.000
879.58	-0.000
879.75	-0.000
879.92	-0.000
880.09	-0.000
880.26	-0.000
880.43	-0.000
880.60	-0.000
880.77	-0.000
880.94	-0.000
881.11	-0.000
881.27	-0.000
881.44	-0.000
881.61	-0.000
881.78	-0.000
881.95	-0.000
882.12	-0.000
882.29	-0.000
882.46	-0.000
882.63	-0.000
882.80	-0.000
882.97	-0.000
883.14	-0.000
883.30	-0.000
883.47	-0.000
883.64	-0.000
883.81	-0.000
883.98	-0.000
884.15	-0.000
884.32	-0.000
884.49	-0.000
884.66	-0.000
884.82	-0.000
884.99	-0.000
885.16	-0.000
885.33	-0.000
885.50	-0.000
885.67	-0.000
885.84	-0.000
886.01	-0.000
886.17	-0.000
886.34	-0.000
886.51	-0.000
886.68	-0.000
886.85	-0.000
887.02	-0.000
887.19	-0.000
887.36	-0.000
887.52	-0.000
887.69	-0.000
887.86	-0.000
888.03	-0.000
888.20	-0.000
888.37	-0.000
888.54	-0.000
888.70	-0.000
888.87	-0.000
889.04	-0.000
889.21	-0.000
889.38	-0.000
889.55	-0.000
889.71	-0.000
889.88	-0.000
890.05	-0.000
890.22	-0.000
890.39	-0.000
>>>>>End Processed Spectral Data<<<<<
