SpectraSuite Data File
++++++++++++++++++++++++++++++++++++
Date: Fri Jun 19 14:07:21 CEST 2015
User: introlabs
Dark Spectrum Present: Yes
Reference Spectrum Present: Yes
Number of Sampled Component Spectra: 1
Spectrometers: USB4H08886
Integration Time (usec): 745692 (USB4H08886)
Spectra Averaged: 5 (USB4H08886)
Boxcar Smoothing: 5 (USB4H08886)
Correct for Electrical Dark: Yes (USB4H08886)
Strobe/Lamp Enabled: No (USB4H08886)
Correct for Detector Non-linearity: Yes (USB4H08886)
Correct for Stray Light: Yes (USB4H08886)
Number of Pixels in Processed Spectrum: 3648
>>>>>Begin Processed Spectral Data<<<<<
178.14	-0.000
178.36	-0.000
178.57	-0.000
178.79	-0.000
179.01	-0.000
179.22	-0.000
179.44	-0.000
179.65	-0.000
179.87	-0.000
180.08	-0.000
180.30	-0.000
180.52	-0.000
180.73	-0.000
180.95	-0.000
181.16	-0.000
181.38	-0.000
181.59	-0.000
181.81	-0.000
182.03	-0.000
182.24	-0.000
182.46	-0.000
182.67	-0.000
182.89	-0.000
183.10	-0.000
183.32	-0.000
183.54	-0.000
183.75	-0.000
183.97	-0.000
184.18	-0.000
184.40	-0.000
184.61	-0.000
184.83	-0.000
185.04	-0.000
185.26	-0.000
185.48	-0.000
185.69	-0.000
185.91	-0.000
186.12	-0.000
186.34	-0.000
186.55	-0.000
186.77	-0.000
186.98	-0.000
187.20	-0.000
187.42	-0.000
187.63	-0.000
187.85	-0.000
188.06	-0.000
188.28	-0.000
188.49	-0.000
188.71	-0.000
188.92	-0.000
189.14	-0.000
189.36	-0.000
189.57	-0.000
189.79	-0.000
190.00	-0.000
190.22	-0.000
190.43	-0.000
190.65	-0.000
190.86	-0.000
191.08	-0.000
191.29	-0.000
191.51	-0.000
191.72	-0.000
191.94	-0.000
192.16	-0.000
192.37	-0.000
192.59	-0.000
192.80	-0.000
193.02	-0.000
193.23	-0.000
193.45	-0.000
193.66	-0.000
193.88	-0.000
194.09	-0.000
194.31	-0.000
194.52	-0.000
194.74	-0.000
194.95	-0.000
195.17	-0.000
195.38	-0.000
195.60	-0.000
195.81	-0.000
196.03	-0.000
196.25	-0.000
196.46	-0.000
196.68	-0.000
196.89	-0.000
197.11	-0.000
197.32	-0.000
197.54	-0.000
197.75	-0.000
197.97	-0.000
198.18	-0.000
198.40	-0.000
198.61	-0.000
198.83	-0.000
199.04	-0.000
199.26	-0.000
199.47	-0.000
199.69	-0.000
199.90	-0.000
200.12	-0.000
200.33	-0.000
200.55	-0.000
200.76	-0.000
200.98	-0.000
201.19	-0.000
201.41	-0.000
201.62	-0.000
201.84	-0.000
202.05	-0.000
202.27	-0.000
202.48	-0.000
202.70	-0.000
202.91	-0.000
203.13	-0.000
203.34	-0.000
203.56	-0.000
203.77	-0.000
203.99	-0.000
204.20	-0.000
204.42	-0.000
204.63	-0.000
204.85	-0.000
205.06	-0.000
205.28	-0.000
205.49	-0.000
205.71	-0.000
205.92	-0.000
206.14	-0.000
206.35	-0.000
206.56	-0.000
206.78	-0.000
206.99	-0.000
207.21	-0.000
207.42	-0.000
207.64	-0.000
207.85	-0.000
208.07	-0.000
208.28	-0.000
208.50	-0.000
208.71	-0.000
208.93	-0.000
209.14	-0.000
209.36	-0.000
209.57	-0.000
209.79	-0.000
210.00	-0.000
210.22	-0.000
210.43	-0.000
210.64	-0.000
210.86	-0.000
211.07	-0.000
211.29	-0.000
211.50	-0.000
211.72	-0.000
211.93	-0.000
212.15	-0.000
212.36	-0.000
212.58	-0.000
212.79	-0.000
213.01	-0.000
213.22	-0.000
213.43	-0.000
213.65	-0.000
213.86	-0.000
214.08	-0.000
214.29	-0.000
214.51	-0.000
214.72	-0.000
214.94	-0.000
215.15	-0.000
215.36	-0.000
215.58	-0.000
215.79	-0.000
216.01	-0.000
216.22	-0.000
216.44	-0.000
216.65	-0.000
216.87	-0.000
217.08	-0.000
217.29	-0.000
217.51	-0.000
217.72	-0.000
217.94	-0.000
218.15	-0.000
218.37	-0.000
218.58	-0.000
218.80	-0.000
219.01	-0.000
219.22	-0.000
219.44	-0.000
219.65	-0.000
219.87	-0.000
220.08	-0.000
220.30	-0.000
220.51	-0.000
220.72	-0.000
220.94	-0.000
221.15	-0.000
221.37	-0.000
221.58	-0.000
221.79	-0.000
222.01	-0.000
222.22	-0.000
222.44	-0.000
222.65	-0.000
222.87	-0.000
223.08	-0.000
223.29	-0.000
223.51	-0.000
223.72	-0.000
223.94	-0.000
224.15	-0.000
224.36	-0.000
224.58	-0.000
224.79	-0.000
225.01	-0.000
225.22	-0.000
225.44	-0.000
225.65	-0.000
225.86	-0.000
226.08	-0.000
226.29	-0.000
226.51	-0.000
226.72	-0.000
226.93	-0.000
227.15	-0.000
227.36	-0.000
227.58	-0.000
227.79	-0.000
228.00	-0.000
228.22	-0.000
228.43	-0.000
228.65	-0.000
228.86	-0.000
229.07	-0.000
229.29	-0.000
229.50	-0.000
229.72	-0.000
229.93	-0.000
230.14	-0.000
230.36	-0.000
230.57	-0.000
230.78	-0.000
231.00	-0.000
231.21	-0.000
231.43	-0.000
231.64	-0.000
231.85	-0.000
232.07	-0.000
232.28	-0.000
232.50	-0.000
232.71	-0.000
232.92	-0.000
233.14	-0.000
233.35	-0.000
233.56	-0.000
233.78	-0.000
233.99	-0.000
234.21	-0.000
234.42	-0.000
234.63	-0.000
234.85	-0.000
235.06	-0.000
235.27	-0.000
235.49	-0.000
235.70	-0.000
235.91	-0.000
236.13	-0.000
236.34	-0.000
236.56	-0.000
236.77	-0.000
236.98	-0.000
237.20	-0.000
237.41	-0.000
237.62	-0.000
237.84	-0.000
238.05	-0.000
238.26	-0.000
238.48	-0.000
238.69	-0.000
238.91	-0.000
239.12	-0.000
239.33	-0.000
239.55	-0.000
239.76	-0.000
239.97	-0.000
240.19	-0.000
240.40	-0.000
240.61	-0.000
240.83	-0.000
241.04	-0.000
241.25	-0.000
241.47	-0.000
241.68	-0.000
241.89	-0.000
242.11	-0.000
242.32	-0.000
242.53	-0.000
242.75	-0.000
242.96	-0.000
243.17	-0.000
243.39	-0.000
243.60	-0.000
243.81	-0.000
244.03	-0.000
244.24	-0.000
244.45	-0.000
244.67	-0.000
244.88	-0.000
245.09	-0.000
245.31	-0.000
245.52	-0.000
245.73	-0.000
245.95	-0.000
246.16	-0.000
246.37	-0.000
246.59	-0.000
246.80	-0.000
247.01	-0.000
247.23	-0.000
247.44	-0.000
247.65	-0.000
247.87	-0.000
248.08	-0.000
248.29	-0.000
248.51	-0.000
248.72	-0.000
248.93	-0.000
249.15	-0.000
249.36	-0.000
249.57	-0.000
249.78	-0.000
250.00	-0.000
250.21	-0.000
250.42	-0.000
250.64	-0.000
250.85	-0.000
251.06	-0.000
251.28	-0.000
251.49	-0.000
251.70	-0.000
251.92	-0.000
252.13	-0.000
252.34	-0.000
252.55	-0.000
252.77	-0.000
252.98	-0.000
253.19	-0.000
253.41	-0.000
253.62	-0.000
253.83	-0.000
254.05	-0.000
254.26	-0.000
254.47	-0.000
254.68	-0.000
254.90	-0.000
255.11	-0.000
255.32	-0.000
255.54	-0.000
255.75	-0.000
255.96	-0.000
256.17	-0.000
256.39	-0.000
256.60	-0.000
256.81	-0.000
257.03	-0.000
257.24	-0.000
257.45	-0.000
257.66	-0.000
257.88	-0.000
258.09	-0.000
258.30	-0.000
258.51	-0.000
258.73	-0.000
258.94	-0.000
259.15	-0.000
259.37	-0.000
259.58	-0.000
259.79	-0.000
260.00	-0.000
260.22	-0.000
260.43	-0.000
260.64	-0.000
260.85	-0.000
261.07	-0.000
261.28	-0.000
261.49	-0.000
261.71	-0.000
261.92	-0.000
262.13	-0.000
262.34	-0.000
262.56	-0.000
262.77	-0.000
262.98	-0.000
263.19	-0.000
263.41	-0.000
263.62	-0.000
263.83	-0.000
264.04	-0.000
264.26	-0.000
264.47	-0.000
264.68	-0.000
264.89	-0.000
265.11	-0.000
265.32	-0.000
265.53	-0.000
265.74	-0.000
265.96	-0.000
266.17	-0.000
266.38	-0.000
266.59	-0.000
266.81	-0.000
267.02	-0.000
267.23	-0.000
267.44	-0.000
267.65	-0.000
267.87	-0.000
268.08	-0.000
268.29	-0.000
268.50	-0.000
268.72	-0.000
268.93	-0.000
269.14	-0.000
269.35	-0.000
269.57	-0.000
269.78	-0.000
269.99	-0.000
270.20	-0.000
270.41	-0.000
270.63	-0.000
270.84	-0.000
271.05	-0.000
271.26	-0.000
271.48	-0.000
271.69	-0.000
271.90	-0.000
272.11	-0.000
272.32	-0.000
272.54	-0.000
272.75	-0.000
272.96	-0.000
273.17	-0.000
273.39	-0.000
273.60	-0.000
273.81	-0.000
274.02	-0.000
274.23	-0.000
274.45	-0.000
274.66	-0.000
274.87	-0.000
275.08	-0.000
275.29	-0.000
275.51	-0.000
275.72	-0.000
275.93	-0.000
276.14	-0.000
276.35	-0.000
276.57	-0.000
276.78	-0.000
276.99	-0.000
277.20	-0.000
277.41	-0.000
277.63	-0.000
277.84	-0.000
278.05	-0.000
278.26	-0.000
278.47	-0.000
278.69	-0.000
278.90	-0.000
279.11	-0.000
279.32	-0.000
279.53	-0.000
279.74	-0.000
279.96	-0.000
280.17	-0.000
280.38	-0.000
280.59	-0.000
280.80	-0.000
281.02	-0.000
281.23	-0.000
281.44	-0.000
281.65	-0.000
281.86	-0.000
282.07	-0.000
282.29	-0.000
282.50	-0.000
282.71	-0.000
282.92	-0.000
283.13	-0.000
283.35	-0.000
283.56	-0.000
283.77	-0.000
283.98	-0.000
284.19	-0.000
284.40	-0.000
284.62	-0.000
284.83	-0.000
285.04	-0.000
285.25	-0.000
285.46	-0.000
285.67	-0.000
285.88	-0.000
286.10	-0.000
286.31	-0.000
286.52	-0.000
286.73	-0.000
286.94	-0.000
287.15	-0.000
287.37	-0.000
287.58	-0.000
287.79	-0.000
288.00	-0.000
288.21	-0.000
288.42	-0.000
288.63	-0.000
288.85	-0.000
289.06	-0.000
289.27	-0.000
289.48	-0.000
289.69	-0.000
289.90	-0.000
290.11	-0.000
290.33	-0.000
290.54	-0.000
290.75	-0.000
290.96	-0.000
291.17	-0.000
291.38	-0.000
291.59	-0.000
291.81	-0.000
292.02	-0.000
292.23	-0.000
292.44	-0.000
292.65	-0.000
292.86	-0.000
293.07	-0.000
293.28	-0.000
293.50	-0.000
293.71	-0.000
293.92	-0.000
294.13	-0.000
294.34	-0.000
294.55	-0.000
294.76	-0.000
294.97	-0.000
295.19	-0.000
295.40	-0.000
295.61	-0.000
295.82	-0.000
296.03	-0.000
296.24	-0.000
296.45	-0.000
296.66	2.266
296.87	2.359
297.09	2.766
297.30	-0.000
297.51	2.161
297.72	2.045
297.93	2.315
298.14	2.197
298.35	2.079
298.56	2.017
298.77	2.417
298.99	2.294
299.20	2.183
299.41	2.117
299.62	2.015
299.83	1.968
300.04	1.834
300.25	1.813
300.46	1.883
300.67	1.834
300.88	1.729
301.10	1.718
301.31	1.837
301.52	1.729
301.73	1.639
301.94	1.631
302.15	1.654
302.36	1.587
302.57	1.506
302.78	1.511
302.99	1.563
303.20	1.588
303.41	1.477
303.63	1.452
303.84	1.461
304.05	1.455
304.26	1.391
304.47	1.392
304.68	1.398
304.89	1.382
305.10	1.334
305.31	1.320
305.52	1.368
305.73	1.356
305.94	1.313
306.15	1.308
306.37	1.330
306.58	1.335
306.79	1.298
307.00	1.322
307.21	1.373
307.42	1.364
307.63	1.322
307.84	1.283
308.05	1.324
308.26	1.322
308.47	1.294
308.68	1.294
308.89	1.298
309.10	1.298
309.31	1.253
309.52	1.238
309.73	1.255
309.95	1.248
310.16	1.218
310.37	1.207
310.58	1.227
310.79	1.224
311.00	1.217
311.21	1.216
311.42	1.215
311.63	1.209
311.84	1.189
312.05	1.187
312.26	1.210
312.47	1.222
312.68	1.196
312.89	1.176
313.10	1.184
313.31	1.158
313.52	1.159
313.73	1.161
313.94	1.165
314.15	1.148
314.36	1.125
314.57	1.116
314.78	1.102
314.99	1.095
315.21	1.082
315.42	1.088
315.63	1.099
315.84	1.076
316.05	1.064
316.26	1.072
316.47	1.089
316.68	1.084
316.89	1.065
317.10	1.088
317.31	1.094
317.52	1.096
317.73	1.071
317.94	1.072
318.15	1.117
318.36	1.116
318.57	1.096
318.78	1.086
318.99	1.121
319.20	1.119
319.41	1.082
319.62	1.084
319.83	1.101
320.04	1.097
320.25	1.082
320.46	1.046
320.67	1.051
320.88	1.047
321.09	1.033
321.30	1.018
321.51	1.033
321.72	1.031
321.93	1.014
322.14	1.005
322.35	1.033
322.56	1.036
322.77	1.021
322.98	1.031
323.19	1.040
323.40	1.047
323.61	1.026
323.82	1.021
324.03	1.027
324.24	1.025
324.45	1.011
324.66	0.991
324.87	0.986
325.08	0.987
325.29	0.967
325.50	0.958
325.71	0.964
325.92	0.972
326.13	0.957
326.34	0.957
326.55	0.967
326.76	0.964
326.97	0.953
327.18	0.948
327.39	0.974
327.60	0.975
327.80	0.976
328.01	0.973
328.22	0.973
328.43	0.977
328.64	0.965
328.85	0.970
329.06	0.971
329.27	0.971
329.48	0.967
329.69	0.946
329.90	0.957
330.11	0.950
330.32	0.943
330.53	0.936
330.74	0.936
330.95	0.935
331.16	0.918
331.37	0.927
331.58	0.927
331.79	0.926
332.00	0.917
332.21	0.912
332.42	0.916
332.63	0.906
332.83	0.901
333.04	0.902
333.25	0.914
333.46	0.912
333.67	0.898
333.88	0.901
334.09	0.912
334.30	0.910
334.51	0.900
334.72	0.895
334.93	0.899
335.14	0.898
335.35	0.892
335.56	0.887
335.77	0.897
335.98	0.896
336.18	0.888
336.39	0.880
336.60	0.883
336.81	0.882
337.02	0.880
337.23	0.885
337.44	0.888
337.65	0.890
337.86	0.880
338.07	0.874
338.28	0.880
338.49	0.878
338.70	0.871
338.91	0.878
339.11	0.885
339.32	0.882
339.53	0.869
339.74	0.866
339.95	0.864
340.16	0.862
340.37	0.853
340.58	0.851
340.79	0.855
341.00	0.855
341.21	0.844
341.41	0.845
341.62	0.846
341.83	0.847
342.04	0.843
342.25	0.854
342.46	0.859
342.67	0.858
342.88	0.851
343.09	0.849
343.30	0.857
343.50	0.860
343.71	0.849
343.92	0.849
344.13	0.853
344.34	0.852
344.55	0.835
344.76	0.833
344.97	0.838
345.18	0.837
345.38	0.835
345.59	0.829
345.80	0.828
346.01	0.828
346.22	0.822
346.43	0.816
346.64	0.825
346.85	0.824
347.06	0.817
347.26	0.818
347.47	0.822
347.68	0.816
347.89	0.814
348.10	0.808
348.31	0.815
348.52	0.813
348.73	0.812
348.93	0.808
349.14	0.810
349.35	0.809
349.56	0.803
349.77	0.799
349.98	0.805
350.19	0.802
350.39	0.797
350.60	0.792
350.81	0.809
351.02	0.807
351.23	0.802
351.44	0.804
351.65	0.807
351.86	0.804
352.06	0.803
352.27	0.802
352.48	0.803
352.69	0.803
352.90	0.798
353.11	0.785
353.31	0.792
353.52	0.788
353.73	0.780
353.94	0.781
354.15	0.787
354.36	0.786
354.57	0.778
354.77	0.780
354.98	0.779
355.19	0.779
355.40	0.778
355.61	0.784
355.82	0.788
356.02	0.789
356.23	0.782
356.44	0.784
356.65	0.787
356.86	0.788
357.07	0.782
357.27	0.786
357.48	0.787
357.69	0.783
357.90	0.767
358.11	0.763
358.32	0.766
358.52	0.769
358.73	0.759
358.94	0.762
359.15	0.766
359.36	0.767
359.56	0.761
359.77	0.758
359.98	0.766
360.19	0.766
360.40	0.762
360.61	0.763
360.81	0.763
361.02	0.763
361.23	0.756
361.44	0.754
361.65	0.754
361.85	0.754
362.06	0.752
362.27	0.754
362.48	0.755
362.69	0.758
362.89	0.752
363.10	0.754
363.31	0.759
363.52	0.761
363.73	0.756
363.93	0.757
364.14	0.759
364.35	0.761
364.56	0.750
364.77	0.751
364.97	0.753
365.18	0.753
365.39	0.748
365.60	0.745
365.81	0.746
366.01	0.745
366.22	0.742
366.43	0.741
366.64	0.744
366.84	0.749
367.05	0.746
367.26	0.746
367.47	0.748
367.68	0.748
367.88	0.744
368.09	0.741
368.30	0.744
368.51	0.744
368.71	0.743
368.92	0.747
369.13	0.746
369.34	0.745
369.55	0.744
369.75	0.743
369.96	0.751
370.17	0.750
370.38	0.747
370.58	0.746
370.79	0.752
371.00	0.751
371.21	0.741
371.41	0.746
371.62	0.749
371.83	0.745
372.04	0.744
372.24	0.736
372.45	0.737
372.66	0.738
372.87	0.735
373.07	0.731
373.28	0.732
373.49	0.737
373.70	0.727
373.90	0.726
374.11	0.735
374.32	0.734
374.53	0.733
374.73	0.734
374.94	0.737
375.15	0.737
375.36	0.735
375.56	0.744
375.77	0.743
375.98	0.743
376.19	0.740
376.39	0.733
376.60	0.737
376.81	0.738
377.02	0.736
377.22	0.734
377.43	0.733
377.64	0.733
377.84	0.724
378.05	0.729
378.26	0.735
378.47	0.734
378.67	0.731
378.88	0.728
379.09	0.729
379.30	0.729
379.50	0.727
379.71	0.730
379.92	0.732
380.12	0.732
380.33	0.723
380.54	0.720
380.75	0.727
380.95	0.727
381.16	0.725
381.37	0.725
381.57	0.727
381.78	0.728
381.99	0.727
382.20	0.727
382.40	0.731
382.61	0.731
382.82	0.727
383.02	0.721
383.23	0.724
383.44	0.724
383.64	0.722
383.85	0.725
384.06	0.727
384.27	0.725
384.47	0.722
384.68	0.722
384.89	0.728
385.09	0.728
385.30	0.726
385.51	0.725
385.71	0.728
385.92	0.728
386.13	0.727
386.33	0.729
386.54	0.730
386.75	0.729
386.95	0.725
387.16	0.720
387.37	0.723
387.58	0.723
387.78	0.721
387.99	0.718
388.20	0.721
388.40	0.717
388.61	0.713
388.82	0.716
389.02	0.719
389.23	0.719
389.44	0.717
389.64	0.718
389.85	0.729
390.06	0.729
390.26	0.729
390.47	0.728
390.68	0.731
390.88	0.729
391.09	0.724
391.30	0.723
391.50	0.724
391.71	0.725
391.92	0.722
392.12	0.714
392.33	0.715
392.53	0.715
392.74	0.715
392.95	0.715
393.15	0.718
393.36	0.721
393.57	0.718
393.77	0.721
393.98	0.722
394.19	0.721
394.39	0.720
394.60	0.721
394.81	0.722
395.01	0.719
395.22	0.717
395.43	0.718
395.63	0.722
395.84	0.723
396.04	0.719
396.25	0.721
396.46	0.723
396.66	0.722
396.87	0.719
397.08	0.717
397.28	0.719
397.49	0.721
397.69	0.716
397.90	0.712
398.11	0.713
398.31	0.713
398.52	0.710
398.73	0.711
398.93	0.710
399.14	0.709
399.34	0.708
399.55	0.709
399.76	0.710
399.96	0.711
400.17	0.709
400.37	0.708
400.58	0.716
400.79	0.717
400.99	0.714
401.20	0.720
401.41	0.723
401.61	0.724
401.82	0.729
402.02	0.728
402.23	0.730
402.44	0.729
402.64	0.729
402.85	0.723
403.05	0.723
403.26	0.722
403.47	0.715
403.67	0.714
403.88	0.714
404.08	0.708
404.29	0.707
404.50	0.706
404.70	0.706
404.91	0.705
405.11	0.703
405.32	0.703
405.52	0.703
405.73	0.702
405.94	0.701
406.14	0.704
406.35	0.705
406.55	0.704
406.76	0.702
406.97	0.703
407.17	0.706
407.38	0.706
407.58	0.704
407.79	0.706
407.99	0.709
408.20	0.710
408.41	0.705
408.61	0.704
408.82	0.705
409.02	0.704
409.23	0.702
409.43	0.701
409.64	0.702
409.84	0.702
410.05	0.699
410.26	0.697
410.46	0.697
410.67	0.697
410.87	0.698
411.08	0.700
411.28	0.702
411.49	0.704
411.69	0.701
411.90	0.703
412.11	0.705
412.31	0.706
412.52	0.704
412.72	0.705
412.93	0.706
413.13	0.704
413.34	0.700
413.54	0.701
413.75	0.702
413.95	0.702
414.16	0.698
414.37	0.700
414.57	0.700
414.78	0.703
414.98	0.701
415.19	0.702
415.39	0.700
415.60	0.702
415.80	0.701
416.01	0.700
416.21	0.702
416.42	0.702
416.62	0.697
416.83	0.698
417.03	0.697
417.24	0.698
417.44	0.695
417.65	0.694
417.86	0.695
418.06	0.693
418.27	0.691
418.47	0.692
418.68	0.693
418.88	0.693
419.09	0.691
419.29	0.692
419.50	0.692
419.70	0.692
419.91	0.691
420.11	0.688
420.32	0.691
420.52	0.691
420.73	0.689
420.93	0.690
421.14	0.692
421.34	0.691
421.55	0.687
421.75	0.687
421.96	0.689
422.16	0.689
422.37	0.688
422.57	0.685
422.78	0.687
422.98	0.684
423.19	0.681
423.39	0.679
423.60	0.683
423.80	0.684
424.01	0.683
424.21	0.685
424.42	0.686
424.62	0.686
424.83	0.685
425.03	0.686
425.23	0.688
425.44	0.689
425.64	0.690
425.85	0.688
426.05	0.689
426.26	0.690
426.46	0.686
426.67	0.685
426.87	0.691
427.08	0.691
427.28	0.688
427.49	0.689
427.69	0.690
427.90	0.688
428.10	0.686
428.31	0.685
428.51	0.687
428.71	0.686
428.92	0.687
429.12	0.684
429.33	0.685
429.53	0.689
429.74	0.693
429.94	0.693
430.15	0.693
430.35	0.692
430.56	0.689
430.76	0.688
430.96	0.689
431.17	0.686
431.37	0.682
431.58	0.681
431.78	0.677
431.99	0.671
432.19	0.673
432.40	0.675
432.60	0.675
432.80	0.678
433.01	0.677
433.21	0.677
433.42	0.680
433.62	0.680
433.83	0.680
434.03	0.682
434.23	0.686
434.44	0.684
434.64	0.682
434.85	0.687
435.05	0.688
435.26	0.688
435.46	0.687
435.66	0.686
435.87	0.686
436.07	0.686
436.28	0.682
436.48	0.679
436.69	0.678
436.89	0.678
437.09	0.672
437.30	0.671
437.50	0.671
437.71	0.683
437.91	0.682
438.11	0.684
438.32	0.688
438.52	0.688
438.73	0.688
438.93	0.686
439.13	0.687
439.34	0.690
439.54	0.688
439.75	0.688
439.95	0.677
440.15	0.682
440.36	0.680
440.56	0.677
440.77	0.679
440.97	0.678
441.17	0.677
441.38	0.677
441.58	0.675
441.79	0.675
441.99	0.673
442.19	0.672
442.40	0.670
442.60	0.669
442.81	0.667
443.01	0.667
443.21	0.668
443.42	0.667
443.62	0.665
443.82	0.665
444.03	0.667
444.23	0.667
444.44	0.667
444.64	0.666
444.84	0.668
445.05	0.668
445.25	0.665
445.45	0.665
445.66	0.668
445.86	0.667
446.06	0.668
446.27	0.667
446.47	0.670
446.68	0.668
446.88	0.667
447.08	0.666
447.29	0.668
447.49	0.669
447.69	0.668
447.90	0.667
448.10	0.671
448.30	0.668
448.51	0.670
448.71	0.667
448.91	0.669
449.12	0.668
449.32	0.670
449.52	0.668
449.73	0.672
449.93	0.671
450.14	0.672
450.34	0.671
450.54	0.673
450.75	0.670
450.95	0.670
451.15	0.669
451.36	0.673
451.56	0.669
451.76	0.668
451.97	0.665
452.17	0.666
452.37	0.664
452.58	0.661
452.78	0.660
452.98	0.663
453.19	0.662
453.39	0.663
453.59	0.662
453.79	0.663
454.00	0.663
454.20	0.662
454.40	0.663
454.61	0.664
454.81	0.665
455.01	0.664
455.22	0.664
455.42	0.666
455.62	0.664
455.83	0.663
456.03	0.666
456.23	0.667
456.44	0.668
456.64	0.667
456.84	0.667
457.04	0.668
457.25	0.668
457.45	0.664
457.65	0.664
457.86	0.665
458.06	0.664
458.26	0.659
458.47	0.658
458.67	0.659
458.87	0.659
459.07	0.657
459.28	0.658
459.48	0.660
459.68	0.660
459.89	0.659
460.09	0.658
460.29	0.660
460.49	0.661
460.70	0.660
460.90	0.660
461.10	0.660
461.31	0.660
461.51	0.657
461.71	0.659
461.91	0.660
462.12	0.660
462.32	0.659
462.52	0.659
462.72	0.662
462.93	0.663
463.13	0.662
463.33	0.663
463.53	0.665
463.74	0.665
463.94	0.660
464.14	0.660
464.35	0.661
464.55	0.661
464.75	0.659
464.95	0.656
465.16	0.658
465.36	0.657
465.56	0.656
465.76	0.656
465.97	0.656
466.17	0.657
466.37	0.655
466.57	0.656
466.78	0.657
466.98	0.657
467.18	0.655
467.38	0.654
467.59	0.655
467.79	0.656
467.99	0.655
468.19	0.656
468.39	0.659
468.60	0.659
468.80	0.657
469.00	0.659
469.20	0.660
469.41	0.660
469.61	0.660
469.81	0.661
470.01	0.660
470.22	0.660
470.42	0.659
470.62	0.657
470.82	0.658
471.02	0.657
471.23	0.655
471.43	0.656
471.63	0.658
471.83	0.657
472.04	0.655
472.24	0.654
472.44	0.660
472.64	0.660
472.84	0.658
473.05	0.658
473.25	0.661
473.45	0.660
473.65	0.658
473.85	0.659
474.06	0.661
474.26	0.660
474.46	0.661
474.66	0.658
474.86	0.658
475.07	0.658
475.27	0.657
475.47	0.654
475.67	0.655
475.87	0.657
476.08	0.653
476.28	0.654
476.48	0.655
476.68	0.654
476.88	0.652
477.09	0.653
477.29	0.655
477.49	0.655
477.69	0.654
477.89	0.654
478.09	0.654
478.30	0.656
478.50	0.653
478.70	0.653
478.90	0.653
479.10	0.656
479.31	0.656
479.51	0.654
479.71	0.655
479.91	0.655
480.11	0.653
480.31	0.653
480.52	0.652
480.72	0.651
480.92	0.651
481.12	0.649
481.32	0.647
481.52	0.645
481.72	0.646
481.93	0.649
482.13	0.650
482.33	0.650
482.53	0.648
482.73	0.649
482.93	0.650
483.14	0.649
483.34	0.648
483.54	0.649
483.74	0.648
483.94	0.647
484.14	0.642
484.34	0.643
484.55	0.643
484.75	0.643
484.95	0.641
485.15	0.641
485.35	0.641
485.55	0.640
485.75	0.638
485.96	0.639
486.16	0.640
486.36	0.639
486.56	0.638
486.76	0.638
486.96	0.639
487.16	0.638
487.36	0.636
487.57	0.636
487.77	0.637
487.97	0.638
488.17	0.636
488.37	0.636
488.57	0.636
488.77	0.637
488.97	0.635
489.18	0.634
489.38	0.637
489.58	0.637
489.78	0.637
489.98	0.636
490.18	0.636
490.38	0.637
490.58	0.635
490.78	0.636
490.98	0.638
491.19	0.638
491.39	0.637
491.59	0.636
491.79	0.639
491.99	0.639
492.19	0.639
492.39	0.642
492.59	0.642
492.79	0.644
492.99	0.644
493.20	0.644
493.40	0.644
493.60	0.646
493.80	0.644
494.00	0.642
494.20	0.643
494.40	0.642
494.60	0.639
494.80	0.643
495.00	0.643
495.20	0.641
495.40	0.640
495.61	0.642
495.81	0.642
496.01	0.645
496.21	0.646
496.41	0.645
496.61	0.646
496.81	0.645
497.01	0.640
497.21	0.639
497.41	0.640
497.61	0.640
497.81	0.637
498.01	0.637
498.21	0.635
498.41	0.633
498.61	0.633
498.82	0.634
499.02	0.637
499.22	0.637
499.42	0.637
499.62	0.638
499.82	0.639
500.02	0.640
500.22	0.639
500.42	0.640
500.62	0.641
500.82	0.642
501.02	0.640
501.22	0.639
501.42	0.639
501.62	0.641
501.82	0.640
502.02	0.640
502.22	0.640
502.42	0.641
502.62	0.639
502.82	0.639
503.02	0.640
503.22	0.639
503.42	0.637
503.63	0.637
503.83	0.635
504.03	0.634
504.23	0.633
504.43	0.634
504.63	0.635
504.83	0.635
505.03	0.634
505.23	0.636
505.43	0.638
505.63	0.638
505.83	0.638
506.03	0.640
506.23	0.642
506.43	0.642
506.63	0.641
506.83	0.639
507.03	0.642
507.23	0.642
507.43	0.639
507.63	0.639
507.83	0.640
508.03	0.640
508.23	0.639
508.43	0.638
508.63	0.640
508.83	0.640
509.03	0.642
509.23	0.641
509.43	0.642
509.63	0.642
509.83	0.641
510.03	0.644
510.23	0.646
510.43	0.647
510.63	0.647
510.83	0.646
511.03	0.648
511.23	0.646
511.43	0.645
511.63	0.646
511.83	0.649
512.03	0.649
512.22	0.646
512.42	0.645
512.62	0.645
512.82	0.645
513.02	0.644
513.22	0.644
513.42	0.646
513.62	0.649
513.82	0.647
514.02	0.646
514.22	0.647
514.42	0.648
514.62	0.648
514.82	0.648
515.02	0.650
515.22	0.654
515.42	0.652
515.62	0.654
515.82	0.653
516.02	0.654
516.22	0.653
516.42	0.655
516.62	0.657
516.82	0.658
517.01	0.656
517.21	0.655
517.41	0.659
517.61	0.660
517.81	0.656
518.01	0.655
518.21	0.655
518.41	0.654
518.61	0.652
518.81	0.652
519.01	0.653
519.21	0.654
519.41	0.652
519.61	0.647
519.81	0.649
520.00	0.650
520.20	0.651
520.40	0.654
520.60	0.655
520.80	0.655
521.00	0.655
521.20	0.656
521.40	0.662
521.60	0.663
521.80	0.661
522.00	0.661
522.20	0.664
522.39	0.663
522.59	0.659
522.79	0.661
522.99	0.663
523.19	0.661
523.39	0.659
523.59	0.657
523.79	0.660
523.99	0.662
524.19	0.662
524.38	0.660
524.58	0.661
524.78	0.662
524.98	0.660
525.18	0.662
525.38	0.664
525.58	0.664
525.78	0.661
525.98	0.660
526.18	0.660
526.37	0.658
526.57	0.660
526.77	0.659
526.97	0.660
527.17	0.660
527.37	0.656
527.57	0.658
527.77	0.660
527.96	0.661
528.16	0.660
528.36	0.661
528.56	0.663
528.76	0.661
528.96	0.660
529.16	0.661
529.36	0.665
529.55	0.665
529.75	0.661
529.95	0.661
530.15	0.662
530.35	0.665
530.55	0.662
530.75	0.663
530.94	0.665
531.14	0.665
531.34	0.664
531.54	0.662
531.74	0.665
531.94	0.667
532.13	0.665
532.33	0.667
532.53	0.665
532.73	0.665
532.93	0.664
533.13	0.664
533.33	0.664
533.52	0.665
533.72	0.668
533.92	0.666
534.12	0.665
534.32	0.666
534.52	0.664
534.71	0.666
534.91	0.669
535.11	0.670
535.31	0.668
535.51	0.670
535.71	0.672
535.90	0.668
536.10	0.670
536.30	0.671
536.50	0.672
536.70	0.672
536.89	0.669
537.09	0.669
537.29	0.670
537.49	0.671
537.69	0.669
537.89	0.669
538.08	0.670
538.28	0.668
538.48	0.669
538.68	0.670
538.88	0.673
539.07	0.673
539.27	0.671
539.47	0.670
539.67	0.670
539.87	0.671
540.06	0.669
540.26	0.669
540.46	0.672
540.66	0.669
540.86	0.666
541.05	0.666
541.25	0.668
541.45	0.668
541.65	0.667
541.84	0.669
542.04	0.670
542.24	0.671
542.44	0.669
542.64	0.671
542.83	0.674
543.03	0.674
543.23	0.671
543.43	0.672
543.62	0.674
543.82	0.674
544.02	0.673
544.22	0.673
544.42	0.676
544.61	0.677
544.81	0.672
545.01	0.671
545.21	0.673
545.40	0.674
545.60	0.672
545.80	0.675
546.00	0.675
546.19	0.674
546.39	0.673
546.59	0.671
546.79	0.672
546.98	0.673
547.18	0.672
547.38	0.673
547.58	0.675
547.77	0.675
547.97	0.671
548.17	0.673
548.37	0.674
548.56	0.674
548.76	0.673
548.96	0.674
549.16	0.677
549.35	0.677
549.55	0.675
549.75	0.675
549.95	0.680
550.14	0.680
550.34	0.677
550.54	0.682
550.73	0.686
550.93	0.687
551.13	0.683
551.33	0.681
551.52	0.682
551.72	0.683
551.92	0.681
552.12	0.681
552.31	0.682
552.51	0.682
552.71	0.677
552.90	0.677
553.10	0.679
553.30	0.679
553.50	0.679
553.69	0.679
553.89	0.680
554.09	0.679
554.28	0.676
554.48	0.678
554.68	0.680
554.87	0.680
555.07	0.676
555.27	0.677
555.47	0.678
555.66	0.679
555.86	0.677
556.06	0.680
556.25	0.682
556.45	0.690
556.65	0.688
556.84	0.691
557.04	0.694
557.24	0.696
557.43	0.695
557.63	0.699
557.83	0.701
558.02	0.701
558.22	0.704
558.42	0.705
558.61	0.697
558.81	0.697
559.01	0.692
559.21	0.692
559.40	0.694
559.60	0.694
559.80	0.690
559.99	0.691
560.19	0.693
560.39	0.688
560.58	0.685
560.78	0.686
560.97	0.690
561.17	0.689
561.37	0.686
561.56	0.687
561.76	0.689
561.96	0.688
562.15	0.686
562.35	0.688
562.55	0.689
562.74	0.689
562.94	0.688
563.14	0.686
563.33	0.687
563.53	0.687
563.73	0.685
563.92	0.686
564.12	0.689
564.31	0.691
564.51	0.689
564.71	0.691
564.90	0.694
565.10	0.695
565.30	0.697
565.49	0.698
565.69	0.701
565.89	0.700
566.08	0.697
566.28	0.698
566.47	0.699
566.67	0.697
566.87	0.694
567.06	0.696
567.26	0.702
567.46	0.698
567.65	0.697
567.85	0.698
568.04	0.702
568.24	0.702
568.44	0.698
568.63	0.697
568.83	0.699
569.02	0.697
569.22	0.692
569.42	0.688
569.61	0.690
569.81	0.689
570.00	0.687
570.20	0.688
570.40	0.689
570.59	0.689
570.79	0.687
570.98	0.685
571.18	0.688
571.38	0.687
571.57	0.685
571.77	0.682
571.96	0.686
572.16	0.684
572.35	0.678
572.55	0.679
572.75	0.677
572.94	0.677
573.14	0.675
573.33	0.674
573.53	0.675
573.73	0.674
573.92	0.672
574.12	0.670
574.31	0.672
574.51	0.673
574.70	0.670
574.90	0.672
575.09	0.674
575.29	0.674
575.49	0.672
575.68	0.673
575.88	0.674
576.07	0.676
576.27	0.674
576.46	0.672
576.66	0.672
576.86	0.671
577.05	0.668
577.25	0.666
577.44	0.668
577.64	0.668
577.83	0.665
578.03	0.666
578.22	0.666
578.42	0.665
578.61	0.663
578.81	0.664
579.00	0.664
579.20	0.664
579.40	0.663
579.59	0.663
579.79	0.663
579.98	0.663
580.18	0.662
580.37	0.663
580.57	0.665
580.76	0.669
580.96	0.667
581.15	0.668
581.35	0.670
581.54	0.670
581.74	0.669
581.93	0.671
582.13	0.672
582.32	0.670
582.52	0.668
582.71	0.668
582.91	0.664
583.10	0.663
583.30	0.662
583.49	0.662
583.69	0.666
583.88	0.667
584.08	0.666
584.27	0.668
584.47	0.671
584.66	0.671
584.86	0.670
585.05	0.672
585.25	0.675
585.44	0.674
585.64	0.673
585.83	0.669
586.03	0.670
586.22	0.668
586.42	0.664
586.61	0.666
586.81	0.669
587.00	0.668
587.20	0.666
587.39	0.666
587.59	0.668
587.78	0.669
587.98	0.669
588.17	0.670
588.37	0.672
588.56	0.674
588.76	0.670
588.95	0.670
589.15	0.674
589.34	0.677
589.54	0.675
589.73	0.677
589.92	0.681
590.12	0.680
590.31	0.678
590.51	0.683
590.70	0.684
590.90	0.684
591.09	0.683
591.29	0.681
591.48	0.681
591.68	0.683
591.87	0.680
592.06	0.679
592.26	0.682
592.45	0.682
592.65	0.675
592.84	0.675
593.04	0.679
593.23	0.681
593.43	0.678
593.62	0.677
593.81	0.678
594.01	0.678
594.20	0.675
594.40	0.675
594.59	0.677
594.79	0.678
594.98	0.677
595.17	0.675
595.37	0.676
595.56	0.678
595.76	0.676
595.95	0.677
596.14	0.680
596.34	0.681
596.53	0.679
596.73	0.680
596.92	0.682
597.12	0.684
597.31	0.684
597.50	0.683
597.70	0.686
597.89	0.685
598.09	0.682
598.28	0.684
598.47	0.686
598.67	0.685
598.86	0.681
599.06	0.683
599.25	0.683
599.44	0.681
599.64	0.678
599.83	0.676
600.03	0.679
600.22	0.680
600.41	0.679
600.61	0.677
600.80	0.680
601.00	0.680
601.19	0.676
601.38	0.674
601.58	0.677
601.77	0.679
601.96	0.680
602.16	0.680
602.35	0.689
602.55	0.687
602.74	0.688
602.93	0.689
603.13	0.694
603.32	0.696
603.51	0.696
603.71	0.698
603.90	0.700
604.09	0.701
604.29	0.697
604.48	0.691
604.68	0.693
604.87	0.692
605.06	0.688
605.26	0.684
605.45	0.686
605.64	0.685
605.84	0.680
606.03	0.679
606.22	0.679
606.42	0.679
606.61	0.675
606.80	0.674
607.00	0.676
607.19	0.677
607.38	0.676
607.58	0.676
607.77	0.679
607.96	0.679
608.16	0.677
608.35	0.681
608.54	0.685
608.74	0.688
608.93	0.694
609.12	0.697
609.32	0.700
609.51	0.704
609.70	0.703
609.90	0.705
610.09	0.709
610.28	0.715
610.48	0.708
610.67	0.709
610.86	0.710
611.06	0.704
611.25	0.702
611.44	0.702
611.64	0.701
611.83	0.704
612.02	0.700
612.21	0.699
612.41	0.697
612.60	0.697
612.79	0.693
612.99	0.693
613.18	0.695
613.37	0.692
613.57	0.689
613.76	0.691
613.95	0.689
614.14	0.689
614.34	0.687
614.53	0.687
614.72	0.691
614.92	0.691
615.11	0.687
615.30	0.684
615.49	0.687
615.69	0.690
615.88	0.687
616.07	0.688
616.26	0.690
616.46	0.691
616.65	0.688
616.84	0.686
617.04	0.688
617.23	0.692
617.42	0.692
617.61	0.696
617.81	0.696
618.00	0.698
618.19	0.696
618.38	0.700
618.58	0.704
618.77	0.706
618.96	0.705
619.15	0.708
619.35	0.710
619.54	0.710
619.73	0.705
619.92	0.708
620.12	0.712
620.31	0.712
620.50	0.706
620.69	0.707
620.89	0.710
621.08	0.710
621.27	0.709
621.46	0.708
621.66	0.713
621.85	0.713
622.04	0.708
622.23	0.709
622.43	0.710
622.62	0.709
622.81	0.707
623.00	0.706
623.19	0.710
623.39	0.709
623.58	0.707
623.77	0.704
623.96	0.708
624.16	0.708
624.35	0.703
624.54	0.706
624.73	0.711
624.92	0.708
625.12	0.706
625.31	0.706
625.50	0.709
625.69	0.710
625.88	0.706
626.08	0.706
626.27	0.708
626.46	0.708
626.65	0.705
626.84	0.705
627.04	0.711
627.23	0.711
627.42	0.707
627.61	0.709
627.80	0.712
628.00	0.712
628.19	0.710
628.38	0.714
628.57	0.718
628.76	0.718
628.96	0.713
629.15	0.714
629.34	0.716
629.53	0.716
629.72	0.711
629.91	0.711
630.11	0.716
630.30	0.716
630.49	0.718
630.68	0.718
630.87	0.721
631.06	0.724
631.26	0.719
631.45	0.721
631.64	0.730
631.83	0.732
632.02	0.729
632.21	0.728
632.41	0.736
632.60	0.731
632.79	0.730
632.98	0.730
633.17	0.731
633.36	0.733
633.55	0.728
633.75	0.723
633.94	0.725
634.13	0.726
634.32	0.723
634.51	0.717
634.70	0.717
634.89	0.715
635.09	0.711
635.28	0.711
635.47	0.713
635.66	0.717
635.85	0.713
636.04	0.715
636.23	0.720
636.43	0.722
636.62	0.720
636.81	0.720
637.00	0.725
637.19	0.729
637.38	0.725
637.57	0.725
637.76	0.727
637.95	0.728
638.15	0.723
638.34	0.719
638.53	0.722
638.72	0.724
638.91	0.720
639.10	0.718
639.29	0.718
639.48	0.719
639.67	0.719
639.87	0.716
640.06	0.722
640.25	0.721
640.44	0.722
640.63	0.722
640.82	0.725
641.01	0.725
641.20	0.725
641.39	0.727
641.58	0.730
641.78	0.729
641.97	0.725
642.16	0.740
642.35	0.742
642.54	0.741
642.73	0.735
642.92	0.733
643.11	0.737
643.30	0.736
643.49	0.731
643.68	0.733
643.87	0.734
644.06	0.735
644.25	0.714
644.45	0.716
644.64	0.717
644.83	0.719
645.02	0.714
645.21	0.713
645.40	0.716
645.59	0.715
645.78	0.709
645.97	0.712
646.16	0.713
646.35	0.713
646.54	0.710
646.73	0.712
646.92	0.713
647.11	0.713
647.30	0.709
647.49	0.711
647.68	0.711
647.88	0.709
648.07	0.702
648.26	0.705
648.45	0.706
648.64	0.703
648.83	0.700
649.02	0.703
649.21	0.715
649.40	0.713
649.59	0.707
649.78	0.708
649.97	0.723
650.16	0.722
650.35	0.716
650.54	0.719
650.73	0.727
650.92	0.724
651.11	0.717
651.30	0.714
651.49	0.719
651.68	0.720
651.87	0.717
652.06	0.706
652.25	0.709
652.44	0.712
652.63	0.709
652.82	0.709
653.01	0.708
653.20	0.706
653.39	0.694
653.58	0.691
653.77	0.690
653.96	0.686
654.15	0.677
654.34	0.674
654.53	0.669
654.72	0.663
654.91	0.653
655.10	0.650
655.29	0.648
655.48	0.646
655.67	0.641
655.86	0.638
656.05	0.636
656.24	0.636
656.43	0.631
656.62	0.631
656.81	0.631
657.00	0.629
657.19	0.627
657.38	0.626
657.57	0.626
657.76	0.628
657.95	0.626
658.14	0.630
658.33	0.633
658.51	0.639
658.70	0.639
658.89	0.641
659.08	0.651
659.27	0.658
659.46	0.658
659.65	0.665
659.84	0.669
660.03	0.672
660.22	0.673
660.41	0.677
660.60	0.678
660.79	0.678
660.98	0.684
661.17	0.683
661.36	0.683
661.55	0.683
661.74	0.680
661.92	0.683
662.11	0.685
662.30	0.683
662.49	0.677
662.68	0.676
662.87	0.680
663.06	0.674
663.25	0.674
663.44	0.675
663.63	0.677
663.82	0.675
664.01	0.671
664.20	0.669
664.38	0.671
664.57	0.671
664.76	0.670
664.95	0.670
665.14	0.675
665.33	0.670
665.52	0.677
665.71	0.682
665.90	0.681
666.09	0.682
666.28	0.680
666.46	0.678
666.65	0.679
666.84	0.678
667.03	0.672
667.22	0.669
667.41	0.672
667.60	0.662
667.79	0.654
667.98	0.655
668.16	0.656
668.35	0.656
668.54	0.653
668.73	0.655
668.92	0.655
669.11	0.654
669.30	0.648
669.49	0.644
669.67	0.647
669.86	0.649
670.05	0.647
670.24	0.645
670.43	0.642
670.62	0.641
670.81	0.635
671.00	0.637
671.18	0.636
671.37	0.636
671.56	0.633
671.75	0.633
671.94	0.630
672.13	0.627
672.32	0.622
672.50	0.621
672.69	0.621
672.88	0.623
673.07	0.618
673.26	0.621
673.45	0.621
673.63	0.621
673.82	0.617
674.01	0.619
674.20	0.618
674.39	0.618
674.58	0.618
674.76	0.619
674.95	0.618
675.14	0.618
675.33	0.612
675.52	0.611
675.71	0.611
675.89	0.610
676.08	0.606
676.27	0.607
676.46	0.607
676.65	0.606
676.84	0.605
677.02	0.606
677.21	0.608
677.40	0.606
677.59	0.604
677.78	0.606
677.96	0.608
678.15	0.607
678.34	0.604
678.53	0.605
678.72	0.606
678.90	0.603
679.09	0.598
679.28	0.594
679.47	0.595
679.66	0.594
679.84	0.590
680.03	0.588
680.22	0.587
680.41	0.589
680.60	0.585
680.78	0.584
680.97	0.586
681.16	0.587
681.35	0.586
681.53	0.585
681.72	0.586
681.91	0.588
682.10	0.586
682.29	0.588
682.47	0.587
682.66	0.587
682.85	0.585
683.04	0.583
683.22	0.584
683.41	0.585
683.60	0.584
683.79	0.585
683.97	0.584
684.16	0.584
684.35	0.580
684.54	0.581
684.72	0.581
684.91	0.582
685.10	0.579
685.29	0.581
685.47	0.578
685.66	0.577
685.85	0.573
686.04	0.573
686.22	0.575
686.41	0.578
686.60	0.575
686.79	0.578
686.97	0.579
687.16	0.581
687.35	0.577
687.54	0.581
687.72	0.585
687.91	0.585
688.10	0.587
688.29	0.586
688.47	0.584
688.66	0.584
688.85	0.580
689.03	0.577
689.22	0.582
689.41	0.582
689.60	0.577
689.78	0.575
689.97	0.576
690.16	0.573
690.34	0.569
690.53	0.569
690.72	0.569
690.91	0.567
691.09	0.564
691.28	0.559
691.47	0.557
691.65	0.556
691.84	0.553
692.03	0.552
692.21	0.550
692.40	0.550
692.59	0.547
692.77	0.546
692.96	0.548
693.15	0.548
693.34	0.546
693.52	0.546
693.71	0.547
693.90	0.548
694.08	0.549
694.27	0.550
694.46	0.559
694.64	0.560
694.83	0.560
695.02	0.558
695.20	0.559
695.39	0.558
695.58	0.558
695.76	0.559
695.95	0.558
696.14	0.557
696.32	0.554
696.51	0.545
696.70	0.545
696.88	0.546
697.07	0.545
697.26	0.546
697.44	0.547
697.63	0.546
697.81	0.544
698.00	0.543
698.19	0.543
698.37	0.543
698.56	0.543
698.75	0.543
698.93	0.542
699.12	0.542
699.31	0.541
699.49	0.541
699.68	0.542
699.87	0.544
700.05	0.544
700.24	0.543
700.42	0.545
700.61	0.544
700.80	0.542
700.98	0.543
701.17	0.544
701.36	0.542
701.54	0.541
701.73	0.542
701.91	0.540
702.10	0.539
702.29	0.537
702.47	0.536
702.66	0.538
702.84	0.539
703.03	0.537
703.22	0.539
703.40	0.539
703.59	0.540
703.77	0.539
703.96	0.539
704.15	0.540
704.33	0.540
704.52	0.539
704.70	0.538
704.89	0.538
705.08	0.537
705.26	0.532
705.45	0.533
705.63	0.533
705.82	0.530
706.00	0.529
706.19	0.529
706.38	0.529
706.56	0.529
706.75	0.526
706.93	0.526
707.12	0.527
707.30	0.527
707.49	0.525
707.68	0.522
707.86	0.522
708.05	0.522
708.23	0.518
708.42	0.519
708.60	0.522
708.79	0.522
708.98	0.521
709.16	0.520
709.35	0.523
709.53	0.527
709.72	0.526
709.90	0.527
710.09	0.529
710.27	0.532
710.46	0.536
710.64	0.534
710.83	0.536
711.02	0.538
711.20	0.537
711.39	0.534
711.57	0.532
711.76	0.533
711.94	0.530
712.13	0.531
712.31	0.530
712.50	0.525
712.68	0.523
712.87	0.524
713.05	0.524
713.24	0.524
713.42	0.523
713.61	0.525
713.79	0.525
713.98	0.526
714.16	0.527
714.35	0.527
714.54	0.528
714.72	0.528
714.91	0.526
715.09	0.532
715.28	0.536
715.46	0.536
715.65	0.533
715.83	0.534
716.02	0.537
716.20	0.533
716.39	0.532
716.57	0.533
716.76	0.535
716.94	0.535
717.12	0.527
717.31	0.528
717.49	0.531
717.68	0.533
717.86	0.533
718.05	0.534
718.23	0.537
718.42	0.538
718.60	0.539
718.79	0.548
718.97	0.551
719.16	0.552
719.34	0.549
719.53	0.549
719.71	0.549
719.90	0.550
720.08	0.546
720.27	0.546
720.45	0.547
720.63	0.547
720.82	0.540
721.00	0.543
721.19	0.546
721.37	0.546
721.56	0.546
721.74	0.549
721.93	0.559
722.11	0.567
722.30	0.566
722.48	0.571
722.66	0.572
722.85	0.572
723.03	0.572
723.22	0.569
723.40	0.573
723.59	0.572
723.77	0.576
723.95	0.570
724.14	0.571
724.32	0.574
724.51	0.572
724.69	0.573
724.88	0.574
725.06	0.573
725.24	0.573
725.43	0.575
725.61	0.578
725.80	0.571
725.98	0.568
726.16	0.564
726.35	0.570
726.53	0.569
726.72	0.568
726.90	0.579
727.09	0.580
727.27	0.587
727.45	0.583
727.64	0.593
727.82	0.603
728.01	0.608
728.19	0.607
728.37	0.611
728.56	0.615
728.74	0.622
728.92	0.608
729.11	0.610
729.29	0.610
729.48	0.613
729.66	0.603
729.84	0.603
730.03	0.606
730.21	0.608
730.40	0.598
730.58	0.600
730.76	0.600
730.95	0.603
731.13	0.603
731.31	0.617
731.50	0.627
731.68	0.629
731.86	0.624
732.05	0.639
732.23	0.642
732.42	0.647
732.60	0.649
732.78	0.654
732.97	0.675
733.15	0.681
733.33	0.669
733.52	0.676
733.70	0.686
733.88	0.695
734.07	0.681
734.25	0.708
734.43	0.717
734.62	0.720
734.80	0.715
734.98	0.706
735.17	0.714
735.35	0.722
735.53	0.709
735.72	0.716
735.90	0.742
736.08	0.762
736.27	0.739
736.45	0.751
736.63	0.763
736.82	0.774
737.00	0.775
737.18	0.787
737.37	0.821
737.55	0.847
737.73	0.839
737.92	0.841
738.10	0.837
738.28	0.858
738.46	0.842
738.65	0.858
738.83	0.884
739.01	0.944
739.20	0.932
739.38	0.911
739.56	0.902
739.75	0.909
739.93	0.872
740.11	0.904
740.29	0.909
740.48	0.921
740.66	0.900
740.84	0.893
741.03	0.852
741.21	0.864
741.39	0.846
741.57	0.861
741.76	0.881
741.94	0.892
742.12	0.849
742.31	0.853
742.49	0.876
742.67	0.899
742.85	0.914
743.04	0.919
743.22	0.938
743.40	1.000
743.58	0.975
743.77	0.995
743.95	1.037
744.13	1.098
744.31	1.074
744.50	1.064
744.68	1.070
744.86	1.033
745.04	1.045
745.23	1.117
745.41	1.098
745.59	1.106
745.77	1.058
745.96	1.038
746.14	1.054
746.32	1.052
746.50	1.037
746.69	1.013
746.87	1.036
747.05	1.016
747.23	0.927
747.42	0.915
747.60	0.947
747.78	0.951
747.96	0.987
748.14	0.936
748.33	0.970
748.51	0.966
748.69	0.956
748.87	0.988
749.06	0.992
749.24	0.994
749.42	0.969
749.60	0.949
749.78	0.960
749.97	0.907
750.15	0.898
750.33	0.896
750.51	0.925
750.69	0.934
750.88	0.931
751.06	0.941
751.24	0.971
751.42	0.963
751.60	0.948
751.79	1.024
751.97	1.083
752.15	1.084
752.33	1.047
752.51	1.128
752.69	1.146
752.88	1.119
753.06	1.174
753.24	1.145
753.42	1.188
753.60	1.444
753.78	1.237
753.97	1.260
754.15	1.287
754.33	1.336
754.51	1.158
754.69	1.132
754.87	1.162
755.06	1.069
755.24	1.069
755.42	1.083
755.60	0.961
755.78	0.971
755.96	0.907
756.15	0.907
756.33	0.909
756.51	0.926
756.69	0.910
756.87	0.872
757.05	0.894
757.23	0.871
757.42	0.833
757.60	0.833
757.78	0.825
757.96	0.823
758.14	0.805
758.32	0.789
758.50	0.804
758.69	0.803
758.87	0.796
759.05	0.800
759.23	0.813
759.41	0.816
759.59	0.806
759.77	0.825
759.95	0.858
760.13	0.911
760.32	0.910
760.50	0.902
760.68	0.931
760.86	0.930
761.04	0.900
761.22	0.905
761.40	0.957
761.58	0.953
761.76	0.923
761.95	0.898
762.13	0.851
762.31	0.853
762.49	0.821
762.67	0.841
762.85	0.860
763.03	0.855
763.21	0.837
763.39	0.820
763.57	0.828
763.75	0.824
763.94	0.806
764.12	0.807
764.30	0.832
764.48	0.835
764.66	0.794
764.84	0.789
765.02	0.830
765.20	0.834
765.38	0.810
765.56	0.812
765.74	0.855
765.92	0.858
766.10	0.868
766.28	0.861
766.46	0.895
766.65	0.893
766.83	0.880
767.01	0.860
767.19	0.869
767.37	0.869
767.55	0.856
767.73	0.834
767.91	0.838
768.09	0.824
768.27	0.809
768.45	0.799
768.63	0.807
768.81	0.810
768.99	0.782
769.17	0.806
769.35	0.823
769.53	0.820
769.71	0.798
769.89	0.807
770.07	0.816
770.25	0.798
770.43	0.773
770.61	0.798
770.79	0.803
770.97	0.813
771.15	0.784
771.33	0.786
771.51	0.791
771.69	0.801
771.87	0.809
772.05	0.814
772.24	0.828
772.42	0.841
772.60	0.813
772.78	0.880
772.96	0.914
773.14	0.908
773.32	0.883
773.49	0.890
773.67	0.891
773.85	0.867
774.03	0.853
774.21	0.886
774.39	0.895
774.57	0.922
774.75	0.842
774.93	0.835
775.11	0.857
775.29	0.866
775.47	0.867
775.65	0.878
775.83	0.898
776.01	0.919
776.19	0.865
776.37	0.869
776.55	0.868
776.73	0.865
776.91	0.859
777.09	0.841
777.27	0.838
777.45	0.827
777.63	0.802
777.81	0.795
777.99	0.783
778.17	0.780
778.35	0.754
778.53	0.742
778.71	0.748
778.89	0.735
779.07	0.725
779.24	0.730
779.42	0.728
779.60	0.747
779.78	0.743
779.96	0.749
780.14	0.761
780.32	0.781
780.50	0.765
780.68	0.762
780.86	0.754
781.04	0.771
781.22	0.775
781.40	0.785
781.58	0.778
781.75	0.771
781.93	0.750
782.11	0.750
782.29	0.737
782.47	0.736
782.65	0.724
782.83	0.753
783.01	0.748
783.19	0.739
783.37	0.724
783.55	0.726
783.72	0.747
783.90	0.762
784.08	0.752
784.26	0.767
784.44	0.788
784.62	0.789
784.80	0.753
784.98	0.759
785.16	0.767
785.33	0.781
785.51	0.765
785.69	0.749
785.87	0.749
786.05	0.759
786.23	0.752
786.41	0.750
786.59	0.759
786.77	0.758
786.94	0.745
787.12	0.751
787.30	0.754
787.48	0.751
787.66	0.739
787.84	0.738
788.02	0.730
788.19	0.728
788.37	0.713
788.55	0.713
788.73	0.714
788.91	0.708
789.09	0.688
789.27	0.677
789.44	0.689
789.62	0.694
789.80	0.703
789.98	0.729
790.16	0.716
790.34	0.712
790.51	0.698
790.69	0.719
790.87	0.726
791.05	0.725
791.23	0.716
791.41	0.716
791.58	0.724
791.76	0.700
791.94	0.667
792.12	0.675
792.30	0.677
792.48	0.674
792.65	0.667
792.83	0.674
793.01	0.684
793.19	0.681
793.37	0.666
793.54	0.663
793.72	0.676
793.90	0.674
794.08	0.662
794.26	0.665
794.43	0.674
794.61	0.657
794.79	0.644
794.97	0.641
795.15	0.649
795.32	0.653
795.50	0.641
795.68	0.636
795.86	0.641
796.04	0.643
796.21	0.637
796.39	0.636
796.57	0.652
796.75	0.661
796.92	0.662
797.10	0.666
797.28	0.669
797.46	0.672
797.64	0.674
797.81	0.683
797.99	0.689
798.17	0.693
798.35	0.687
798.52	0.689
798.70	0.684
798.88	0.693
799.06	0.691
799.23	0.695
799.41	0.705
799.59	0.698
799.77	0.683
799.94	0.693
800.12	0.702
800.30	0.720
800.48	0.718
800.65	0.720
800.83	0.708
801.01	0.700
801.19	0.698
801.36	0.693
801.54	0.696
801.72	0.707
801.90	0.691
802.07	0.688
802.25	0.673
802.43	0.657
802.60	0.650
802.78	0.660
802.96	0.665
803.14	0.658
803.31	0.656
803.49	0.657
803.67	0.653
803.84	0.658
804.02	0.648
804.20	0.650
804.38	0.656
804.55	0.657
804.73	0.640
804.91	0.641
805.08	0.655
805.26	0.650
805.44	0.717
805.61	0.720
805.79	0.720
805.97	0.720
806.15	0.714
806.32	0.708
806.50	0.714
806.68	0.715
806.85	0.704
807.03	0.694
807.21	0.712
807.38	0.642
807.56	0.633
807.74	0.644
807.91	0.652
808.09	0.652
808.27	0.671
808.44	0.698
808.62	0.708
808.80	0.711
808.97	0.707
809.15	0.701
809.33	0.722
809.50	0.728
809.68	0.712
809.86	0.720
810.03	0.756
810.21	0.733
810.39	0.714
810.56	0.720
810.74	0.745
810.91	0.825
811.09	0.812
811.27	0.831
811.44	0.838
811.62	0.839
811.80	0.821
811.97	0.788
812.15	0.788
812.33	0.784
812.50	0.767
812.68	0.754
812.85	0.694
813.03	0.696
813.21	0.662
813.38	0.657
813.56	0.661
813.74	0.670
813.91	0.676
814.09	0.708
814.26	0.704
814.44	0.709
814.62	0.701
814.79	0.704
814.97	0.710
815.14	0.714
815.32	0.717
815.50	0.736
815.67	0.739
815.85	0.733
816.02	0.721
816.20	0.728
816.38	0.744
816.55	0.748
816.73	0.747
816.90	0.761
817.08	0.795
817.26	0.799
817.43	0.775
817.61	0.801
817.78	0.818
817.96	0.797
818.13	0.785
818.31	0.785
818.49	0.798
818.66	0.789
818.84	0.770
819.01	0.747
819.19	0.754
819.36	0.757
819.54	0.725
819.71	0.771
819.89	0.787
820.07	0.798
820.24	0.793
820.42	0.794
820.59	0.815
820.77	0.844
820.94	0.834
821.12	0.854
821.29	0.871
821.47	0.876
821.64	0.805
821.82	0.820
822.00	0.822
822.17	0.820
822.35	0.812
822.52	0.817
822.70	0.807
822.87	0.818
823.05	0.796
823.22	0.811
823.40	0.843
823.57	0.868
823.75	0.846
823.92	0.873
824.10	0.896
824.27	0.946
824.45	0.932
824.62	1.005
824.80	1.032
824.97	1.053
825.15	1.040
825.32	1.062
825.50	1.072
825.67	1.087
825.85	1.054
826.02	1.079
826.20	1.111
826.37	1.313
826.55	1.195
826.72	1.553
826.90	1.771
827.07	2.057
827.25	1.777
827.42	-0.000
827.60	-0.000
827.77	-0.000
827.95	-0.000
828.12	-0.000
828.30	-0.000
828.47	-0.000
828.65	1.866
828.82	2.169
829.00	-0.000
829.17	-0.000
829.34	-0.000
829.52	-0.000
829.69	-0.000
829.87	-0.000
830.04	-0.000
830.22	-0.000
830.39	-0.000
830.57	-0.000
830.74	-0.000
830.92	-0.000
831.09	-0.000
831.26	-0.000
831.44	-0.000
831.61	-0.000
831.79	-0.000
831.96	-0.000
832.14	-0.000
832.31	-0.000
832.49	-0.000
832.66	-0.000
832.83	-0.000
833.01	-0.000
833.18	-0.000
833.36	-0.000
833.53	-0.000
833.70	-0.000
833.88	-0.000
834.05	-0.000
834.23	-0.000
834.40	-0.000
834.58	-0.000
834.75	-0.000
834.92	-0.000
835.10	-0.000
835.27	-0.000
835.45	-0.000
835.62	-0.000
835.79	-0.000
835.97	-0.000
836.14	-0.000
836.32	-0.000
836.49	-0.000
836.66	-0.000
836.84	-0.000
837.01	-0.000
837.18	-0.000
837.36	-0.000
837.53	-0.000
837.71	-0.000
837.88	-0.000
838.05	-0.000
838.23	-0.000
838.40	-0.000
838.58	-0.000
838.75	-0.000
838.92	-0.000
839.10	-0.000
839.27	-0.000
839.44	-0.000
839.62	-0.000
839.79	-0.000
839.96	-0.000
840.14	-0.000
840.31	-0.000
840.48	-0.000
840.66	-0.000
840.83	-0.000
841.01	-0.000
841.18	-0.000
841.35	-0.000
841.53	-0.000
841.70	-0.000
841.87	-0.000
842.05	-0.000
842.22	-0.000
842.39	-0.000
842.57	-0.000
842.74	-0.000
842.91	-0.000
843.09	-0.000
843.26	-0.000
843.43	-0.000
843.60	-0.000
843.78	-0.000
843.95	-0.000
844.12	-0.000
844.30	-0.000
844.47	-0.000
844.64	-0.000
844.82	-0.000
844.99	-0.000
845.16	-0.000
845.34	-0.000
845.51	-0.000
845.68	-0.000
845.85	-0.000
846.03	-0.000
846.20	-0.000
846.37	-0.000
846.55	-0.000
846.72	-0.000
846.89	-0.000
847.06	-0.000
847.24	-0.000
847.41	-0.000
847.58	-0.000
847.76	-0.000
847.93	-0.000
848.10	-0.000
848.27	-0.000
848.45	-0.000
848.62	-0.000
848.79	-0.000
848.97	-0.000
849.14	-0.000
849.31	-0.000
849.48	-0.000
849.66	-0.000
849.83	-0.000
850.00	-0.000
850.17	-0.000
850.35	-0.000
850.52	-0.000
850.69	-0.000
850.86	-0.000
851.04	-0.000
851.21	-0.000
851.38	-0.000
851.55	-0.000
851.72	-0.000
851.90	-0.000
852.07	-0.000
852.24	-0.000
852.41	-0.000
852.59	-0.000
852.76	-0.000
852.93	-0.000
853.10	-0.000
853.28	-0.000
853.45	-0.000
853.62	-0.000
853.79	-0.000
853.96	-0.000
854.14	-0.000
854.31	-0.000
854.48	-0.000
854.65	-0.000
854.82	-0.000
855.00	-0.000
855.17	-0.000
855.34	-0.000
855.51	-0.000
855.68	-0.000
855.86	-0.000
856.03	-0.000
856.20	-0.000
856.37	-0.000
856.54	-0.000
856.72	-0.000
856.89	-0.000
857.06	-0.000
857.23	-0.000
857.40	-0.000
857.57	-0.000
857.75	-0.000
857.92	-0.000
858.09	-0.000
858.26	-0.000
858.43	-0.000
858.60	-0.000
858.78	-0.000
858.95	-0.000
859.12	-0.000
859.29	-0.000
859.46	-0.000
859.63	-0.000
859.81	-0.000
859.98	-0.000
860.15	-0.000
860.32	-0.000
860.49	-0.000
860.66	-0.000
860.83	-0.000
861.01	-0.000
861.18	-0.000
861.35	-0.000
861.52	-0.000
861.69	-0.000
861.86	-0.000
862.03	-0.000
862.21	-0.000
862.38	-0.000
862.55	-0.000
862.72	-0.000
862.89	-0.000
863.06	-0.000
863.23	-0.000
863.40	-0.000
863.58	-0.000
863.75	-0.000
863.92	-0.000
864.09	-0.000
864.26	-0.000
864.43	-0.000
864.60	-0.000
864.77	-0.000
864.94	-0.000
865.11	-0.000
865.29	-0.000
865.46	-0.000
865.63	-0.000
865.80	-0.000
865.97	-0.000
866.14	-0.000
866.31	-0.000
866.48	-0.000
866.65	-0.000
866.82	-0.000
866.99	-0.000
867.16	-0.000
867.34	-0.000
867.51	-0.000
867.68	-0.000
867.85	-0.000
868.02	-0.000
868.19	-0.000
868.36	-0.000
868.53	-0.000
868.70	-0.000
868.87	-0.000
869.04	-0.000
869.21	-0.000
869.38	-0.000
869.55	-0.000
869.72	-0.000
869.89	-0.000
870.06	-0.000
870.24	-0.000
870.41	-0.000
870.58	-0.000
870.75	-0.000
870.92	-0.000
871.09	-0.000
871.26	-0.000
871.43	-0.000
871.60	-0.000
871.77	-0.000
871.94	-0.000
872.11	-0.000
872.28	-0.000
872.45	-0.000
872.62	-0.000
872.79	-0.000
872.96	-0.000
873.13	-0.000
873.30	-0.000
873.47	-0.000
873.64	-0.000
873.81	-0.000
873.98	-0.000
874.15	-0.000
874.32	-0.000
874.49	-0.000
874.66	-0.000
874.83	-0.000
875.00	-0.000
875.17	-0.000
875.34	-0.000
875.51	-0.000
875.68	-0.000
875.85	-0.000
876.02	-0.000
876.19	-0.000
876.36	-0.000
876.53	-0.000
876.70	-0.000
876.87	-0.000
877.04	-0.000
877.21	-0.000
877.38	-0.000
877.55	-0.000
877.72	-0.000
877.89	-0.000
878.06	-0.000
878.23	-0.000
878.39	-0.000
878.56	-0.000
878.73	-0.000
878.90	-0.000
879.07	-0.000
879.24	-0.000
879.41	-0.000
879.58	-0.000
879.75	-0.000
879.92	-0.000
880.09	-0.000
880.26	-0.000
880.43	-0.000
880.60	-0.000
880.77	-0.000
880.94	-0.000
881.11	-0.000
881.27	-0.000
881.44	-0.000
881.61	-0.000
881.78	-0.000
881.95	-0.000
882.12	-0.000
882.29	-0.000
882.46	-0.000
882.63	-0.000
882.80	-0.000
882.97	-0.000
883.14	-0.000
883.30	-0.000
883.47	-0.000
883.64	-0.000
883.81	-0.000
883.98	-0.000
884.15	-0.000
884.32	-0.000
884.49	-0.000
884.66	-0.000
884.82	-0.000
884.99	-0.000
885.16	-0.000
885.33	-0.000
885.50	-0.000
885.67	-0.000
885.84	-0.000
886.01	-0.000
886.17	-0.000
886.34	-0.000
886.51	-0.000
886.68	-0.000
886.85	-0.000
887.02	-0.000
887.19	-0.000
887.36	-0.000
887.52	-0.000
887.69	-0.000
887.86	-0.000
888.03	-0.000
888.20	-0.000
888.37	-0.000
888.54	-0.000
888.70	-0.000
888.87	-0.000
889.04	-0.000
889.21	-0.000
889.38	-0.000
889.55	-0.000
889.71	-0.000
889.88	-0.000
890.05	-0.000
890.22	-0.000
890.39	-0.000
>>>>>End Processed Spectral Data<<<<<
