SpectraSuite Data File
++++++++++++++++++++++++++++++++++++
Date: Fri Jun 19 12:57:43 CEST 2015
User: introlabs
Dark Spectrum Present: Yes
Reference Spectrum Present: Yes
Number of Sampled Component Spectra: 1
Spectrometers: USB4H08886
Integration Time (usec): 745692 (USB4H08886)
Spectra Averaged: 5 (USB4H08886)
Boxcar Smoothing: 5 (USB4H08886)
Correct for Electrical Dark: Yes (USB4H08886)
Strobe/Lamp Enabled: No (USB4H08886)
Correct for Detector Non-linearity: Yes (USB4H08886)
Correct for Stray Light: Yes (USB4H08886)
Number of Pixels in Processed Spectrum: 3648
>>>>>Begin Processed Spectral Data<<<<<
178.14	-0.000
178.36	-0.000
178.57	-0.000
178.79	-0.000
179.01	-0.000
179.22	-0.000
179.44	-0.000
179.65	-0.000
179.87	-0.000
180.08	-0.000
180.30	-0.000
180.52	-0.000
180.73	-0.000
180.95	-0.000
181.16	-0.000
181.38	-0.000
181.59	-0.000
181.81	-0.000
182.03	-0.000
182.24	-0.000
182.46	-0.000
182.67	-0.000
182.89	-0.000
183.10	-0.000
183.32	-0.000
183.54	-0.000
183.75	-0.000
183.97	-0.000
184.18	-0.000
184.40	-0.000
184.61	-0.000
184.83	-0.000
185.04	-0.000
185.26	-0.000
185.48	-0.000
185.69	-0.000
185.91	-0.000
186.12	-0.000
186.34	-0.000
186.55	-0.000
186.77	-0.000
186.98	-0.000
187.20	-0.000
187.42	-0.000
187.63	-0.000
187.85	-0.000
188.06	-0.000
188.28	-0.000
188.49	-0.000
188.71	-0.000
188.92	-0.000
189.14	-0.000
189.36	-0.000
189.57	-0.000
189.79	-0.000
190.00	-0.000
190.22	-0.000
190.43	-0.000
190.65	-0.000
190.86	-0.000
191.08	-0.000
191.29	-0.000
191.51	-0.000
191.72	-0.000
191.94	-0.000
192.16	-0.000
192.37	-0.000
192.59	-0.000
192.80	-0.000
193.02	-0.000
193.23	-0.000
193.45	-0.000
193.66	-0.000
193.88	-0.000
194.09	-0.000
194.31	-0.000
194.52	-0.000
194.74	-0.000
194.95	-0.000
195.17	-0.000
195.38	-0.000
195.60	-0.000
195.81	-0.000
196.03	-0.000
196.25	-0.000
196.46	-0.000
196.68	-0.000
196.89	-0.000
197.11	-0.000
197.32	-0.000
197.54	-0.000
197.75	-0.000
197.97	-0.000
198.18	-0.000
198.40	-0.000
198.61	-0.000
198.83	-0.000
199.04	-0.000
199.26	-0.000
199.47	-0.000
199.69	-0.000
199.90	-0.000
200.12	-0.000
200.33	-0.000
200.55	-0.000
200.76	-0.000
200.98	-0.000
201.19	-0.000
201.41	-0.000
201.62	-0.000
201.84	-0.000
202.05	-0.000
202.27	-0.000
202.48	-0.000
202.70	-0.000
202.91	-0.000
203.13	-0.000
203.34	-0.000
203.56	-0.000
203.77	-0.000
203.99	-0.000
204.20	-0.000
204.42	-0.000
204.63	-0.000
204.85	-0.000
205.06	-0.000
205.28	-0.000
205.49	-0.000
205.71	-0.000
205.92	-0.000
206.14	-0.000
206.35	-0.000
206.56	-0.000
206.78	-0.000
206.99	-0.000
207.21	-0.000
207.42	-0.000
207.64	-0.000
207.85	-0.000
208.07	-0.000
208.28	-0.000
208.50	-0.000
208.71	-0.000
208.93	-0.000
209.14	-0.000
209.36	-0.000
209.57	-0.000
209.79	-0.000
210.00	-0.000
210.22	-0.000
210.43	-0.000
210.64	-0.000
210.86	-0.000
211.07	-0.000
211.29	-0.000
211.50	-0.000
211.72	-0.000
211.93	-0.000
212.15	-0.000
212.36	-0.000
212.58	-0.000
212.79	-0.000
213.01	-0.000
213.22	-0.000
213.43	-0.000
213.65	-0.000
213.86	-0.000
214.08	-0.000
214.29	-0.000
214.51	-0.000
214.72	-0.000
214.94	-0.000
215.15	-0.000
215.36	-0.000
215.58	-0.000
215.79	-0.000
216.01	-0.000
216.22	-0.000
216.44	-0.000
216.65	-0.000
216.87	-0.000
217.08	-0.000
217.29	-0.000
217.51	-0.000
217.72	-0.000
217.94	-0.000
218.15	-0.000
218.37	-0.000
218.58	-0.000
218.80	-0.000
219.01	-0.000
219.22	-0.000
219.44	-0.000
219.65	-0.000
219.87	-0.000
220.08	-0.000
220.30	-0.000
220.51	-0.000
220.72	-0.000
220.94	-0.000
221.15	-0.000
221.37	-0.000
221.58	-0.000
221.79	-0.000
222.01	-0.000
222.22	-0.000
222.44	-0.000
222.65	-0.000
222.87	-0.000
223.08	-0.000
223.29	-0.000
223.51	-0.000
223.72	-0.000
223.94	-0.000
224.15	-0.000
224.36	-0.000
224.58	-0.000
224.79	-0.000
225.01	-0.000
225.22	-0.000
225.44	-0.000
225.65	-0.000
225.86	-0.000
226.08	-0.000
226.29	-0.000
226.51	-0.000
226.72	-0.000
226.93	-0.000
227.15	-0.000
227.36	-0.000
227.58	-0.000
227.79	-0.000
228.00	-0.000
228.22	-0.000
228.43	-0.000
228.65	-0.000
228.86	-0.000
229.07	-0.000
229.29	-0.000
229.50	-0.000
229.72	-0.000
229.93	-0.000
230.14	-0.000
230.36	-0.000
230.57	-0.000
230.78	-0.000
231.00	-0.000
231.21	-0.000
231.43	-0.000
231.64	-0.000
231.85	-0.000
232.07	-0.000
232.28	-0.000
232.50	-0.000
232.71	-0.000
232.92	-0.000
233.14	-0.000
233.35	-0.000
233.56	-0.000
233.78	-0.000
233.99	-0.000
234.21	-0.000
234.42	-0.000
234.63	-0.000
234.85	-0.000
235.06	-0.000
235.27	-0.000
235.49	-0.000
235.70	-0.000
235.91	-0.000
236.13	-0.000
236.34	-0.000
236.56	-0.000
236.77	-0.000
236.98	-0.000
237.20	-0.000
237.41	-0.000
237.62	-0.000
237.84	-0.000
238.05	-0.000
238.26	-0.000
238.48	-0.000
238.69	-0.000
238.91	-0.000
239.12	-0.000
239.33	-0.000
239.55	-0.000
239.76	-0.000
239.97	-0.000
240.19	-0.000
240.40	-0.000
240.61	-0.000
240.83	-0.000
241.04	-0.000
241.25	-0.000
241.47	-0.000
241.68	-0.000
241.89	-0.000
242.11	-0.000
242.32	-0.000
242.53	-0.000
242.75	-0.000
242.96	-0.000
243.17	-0.000
243.39	-0.000
243.60	-0.000
243.81	-0.000
244.03	-0.000
244.24	-0.000
244.45	-0.000
244.67	-0.000
244.88	-0.000
245.09	-0.000
245.31	-0.000
245.52	-0.000
245.73	-0.000
245.95	-0.000
246.16	-0.000
246.37	-0.000
246.59	-0.000
246.80	-0.000
247.01	-0.000
247.23	-0.000
247.44	-0.000
247.65	-0.000
247.87	-0.000
248.08	-0.000
248.29	-0.000
248.51	-0.000
248.72	-0.000
248.93	-0.000
249.15	-0.000
249.36	-0.000
249.57	-0.000
249.78	-0.000
250.00	-0.000
250.21	-0.000
250.42	-0.000
250.64	-0.000
250.85	-0.000
251.06	-0.000
251.28	-0.000
251.49	-0.000
251.70	-0.000
251.92	-0.000
252.13	-0.000
252.34	-0.000
252.55	-0.000
252.77	-0.000
252.98	-0.000
253.19	-0.000
253.41	-0.000
253.62	-0.000
253.83	-0.000
254.05	-0.000
254.26	-0.000
254.47	-0.000
254.68	-0.000
254.90	-0.000
255.11	-0.000
255.32	-0.000
255.54	-0.000
255.75	-0.000
255.96	-0.000
256.17	-0.000
256.39	-0.000
256.60	-0.000
256.81	-0.000
257.03	-0.000
257.24	-0.000
257.45	-0.000
257.66	-0.000
257.88	-0.000
258.09	-0.000
258.30	-0.000
258.51	-0.000
258.73	-0.000
258.94	-0.000
259.15	-0.000
259.37	-0.000
259.58	-0.000
259.79	-0.000
260.00	-0.000
260.22	-0.000
260.43	-0.000
260.64	-0.000
260.85	-0.000
261.07	-0.000
261.28	-0.000
261.49	-0.000
261.71	-0.000
261.92	-0.000
262.13	-0.000
262.34	-0.000
262.56	-0.000
262.77	-0.000
262.98	-0.000
263.19	-0.000
263.41	-0.000
263.62	-0.000
263.83	-0.000
264.04	-0.000
264.26	-0.000
264.47	-0.000
264.68	-0.000
264.89	-0.000
265.11	-0.000
265.32	-0.000
265.53	-0.000
265.74	-0.000
265.96	-0.000
266.17	-0.000
266.38	-0.000
266.59	-0.000
266.81	-0.000
267.02	-0.000
267.23	-0.000
267.44	-0.000
267.65	-0.000
267.87	-0.000
268.08	-0.000
268.29	-0.000
268.50	-0.000
268.72	-0.000
268.93	-0.000
269.14	-0.000
269.35	-0.000
269.57	-0.000
269.78	-0.000
269.99	-0.000
270.20	-0.000
270.41	-0.000
270.63	-0.000
270.84	-0.000
271.05	-0.000
271.26	-0.000
271.48	-0.000
271.69	-0.000
271.90	-0.000
272.11	-0.000
272.32	-0.000
272.54	-0.000
272.75	-0.000
272.96	-0.000
273.17	-0.000
273.39	-0.000
273.60	-0.000
273.81	-0.000
274.02	-0.000
274.23	-0.000
274.45	-0.000
274.66	-0.000
274.87	-0.000
275.08	-0.000
275.29	-0.000
275.51	-0.000
275.72	-0.000
275.93	-0.000
276.14	-0.000
276.35	-0.000
276.57	-0.000
276.78	-0.000
276.99	-0.000
277.20	-0.000
277.41	-0.000
277.63	-0.000
277.84	-0.000
278.05	-0.000
278.26	-0.000
278.47	-0.000
278.69	-0.000
278.90	-0.000
279.11	-0.000
279.32	-0.000
279.53	-0.000
279.74	-0.000
279.96	-0.000
280.17	-0.000
280.38	-0.000
280.59	-0.000
280.80	-0.000
281.02	-0.000
281.23	-0.000
281.44	-0.000
281.65	-0.000
281.86	-0.000
282.07	-0.000
282.29	-0.000
282.50	-0.000
282.71	-0.000
282.92	-0.000
283.13	-0.000
283.35	-0.000
283.56	-0.000
283.77	-0.000
283.98	-0.000
284.19	-0.000
284.40	-0.000
284.62	-0.000
284.83	-0.000
285.04	-0.000
285.25	-0.000
285.46	-0.000
285.67	-0.000
285.88	-0.000
286.10	-0.000
286.31	-0.000
286.52	-0.000
286.73	-0.000
286.94	-0.000
287.15	-0.000
287.37	-0.000
287.58	-0.000
287.79	-0.000
288.00	-0.000
288.21	-0.000
288.42	-0.000
288.63	-0.000
288.85	-0.000
289.06	-0.000
289.27	-0.000
289.48	-0.000
289.69	-0.000
289.90	-0.000
290.11	-0.000
290.33	-0.000
290.54	-0.000
290.75	-0.000
290.96	-0.000
291.17	-0.000
291.38	-0.000
291.59	-0.000
291.81	-0.000
292.02	-0.000
292.23	-0.000
292.44	-0.000
292.65	-0.000
292.86	-0.000
293.07	-0.000
293.28	-0.000
293.50	-0.000
293.71	-0.000
293.92	-0.000
294.13	-0.000
294.34	-0.000
294.55	-0.000
294.76	-0.000
294.97	-0.000
295.19	-0.000
295.40	-0.000
295.61	-0.000
295.82	-0.000
296.03	-0.000
296.24	-0.000
296.45	-0.000
296.66	-0.000
296.87	-0.000
297.09	-0.000
297.30	-0.000
297.51	2.653
297.72	2.315
297.93	3.646
298.14	2.619
298.35	2.343
298.56	2.227
298.77	3.485
298.99	2.826
299.20	2.409
299.41	2.239
299.62	2.108
299.83	2.058
300.04	1.924
300.25	1.912
300.46	2.041
300.67	1.946
300.88	1.808
301.10	1.812
301.31	1.996
301.52	1.846
301.73	1.727
301.94	1.723
302.15	1.774
302.36	1.676
302.57	1.562
302.78	1.574
302.99	1.640
303.20	1.669
303.41	1.526
303.63	1.498
303.84	1.525
304.05	1.519
304.26	1.437
304.47	1.439
304.68	1.446
304.89	1.435
305.10	1.378
305.31	1.363
305.52	1.420
305.73	1.408
305.94	1.350
306.15	1.336
306.37	1.369
306.58	1.375
306.79	1.333
307.00	1.361
307.21	1.418
307.42	1.404
307.63	1.354
307.84	1.313
308.05	1.358
308.26	1.360
308.47	1.329
308.68	1.322
308.89	1.328
309.10	1.323
309.31	1.272
309.52	1.260
309.73	1.282
309.95	1.276
310.16	1.240
310.37	1.232
310.58	1.254
310.79	1.249
311.00	1.237
311.21	1.238
311.42	1.240
311.63	1.234
311.84	1.207
312.05	1.204
312.26	1.230
312.47	1.245
312.68	1.213
312.89	1.192
313.10	1.203
313.31	1.175
313.52	1.175
313.73	1.180
313.94	1.186
314.15	1.165
314.36	1.138
314.57	1.129
314.78	1.114
314.99	1.107
315.21	1.094
315.42	1.097
315.63	1.112
315.84	1.086
316.05	1.068
316.26	1.075
316.47	1.097
316.68	1.092
316.89	1.071
317.10	1.094
317.31	1.103
317.52	1.105
317.73	1.082
317.94	1.082
318.15	1.131
318.36	1.129
318.57	1.107
318.78	1.095
318.99	1.133
319.20	1.130
319.41	1.092
319.62	1.091
319.83	1.105
320.04	1.100
320.25	1.082
320.46	1.046
320.67	1.051
320.88	1.046
321.09	1.030
321.30	1.015
321.51	1.030
321.72	1.027
321.93	1.009
322.14	1.001
322.35	1.032
322.56	1.034
322.77	1.019
322.98	1.031
323.19	1.042
323.40	1.046
323.61	1.023
323.82	1.018
324.03	1.025
324.24	1.022
324.45	1.006
324.66	0.985
324.87	0.983
325.08	0.981
325.29	0.961
325.50	0.952
325.71	0.959
325.92	0.968
326.13	0.954
326.34	0.955
326.55	0.965
326.76	0.964
326.97	0.951
327.18	0.946
327.39	0.973
327.60	0.973
327.80	0.971
328.01	0.968
328.22	0.969
328.43	0.971
328.64	0.957
328.85	0.961
329.06	0.963
329.27	0.963
329.48	0.956
329.69	0.937
329.90	0.947
330.11	0.940
330.32	0.933
330.53	0.924
330.74	0.926
330.95	0.924
331.16	0.908
331.37	0.916
331.58	0.916
331.79	0.915
332.00	0.906
332.21	0.900
332.42	0.905
332.63	0.895
332.83	0.891
333.04	0.892
333.25	0.906
333.46	0.904
333.67	0.889
333.88	0.893
334.09	0.905
334.30	0.901
334.51	0.892
334.72	0.887
334.93	0.892
335.14	0.891
335.35	0.884
335.56	0.879
335.77	0.889
335.98	0.887
336.18	0.877
336.39	0.871
336.60	0.877
336.81	0.874
337.02	0.872
337.23	0.877
337.44	0.880
337.65	0.881
337.86	0.870
338.07	0.865
338.28	0.871
338.49	0.870
338.70	0.860
338.91	0.867
339.11	0.876
339.32	0.873
339.53	0.861
339.74	0.857
339.95	0.854
340.16	0.852
340.37	0.844
340.58	0.842
340.79	0.847
341.00	0.848
341.21	0.835
341.41	0.835
341.62	0.836
341.83	0.837
342.04	0.832
342.25	0.843
342.46	0.850
342.67	0.847
342.88	0.839
343.09	0.839
343.30	0.847
343.50	0.849
343.71	0.839
343.92	0.837
344.13	0.841
344.34	0.840
344.55	0.822
344.76	0.820
344.97	0.826
345.18	0.825
345.38	0.821
345.59	0.815
345.80	0.815
346.01	0.813
346.22	0.809
346.43	0.803
346.64	0.813
346.85	0.813
347.06	0.805
347.26	0.805
347.47	0.810
347.68	0.805
347.89	0.801
348.10	0.796
348.31	0.805
348.52	0.804
348.73	0.802
348.93	0.798
349.14	0.800
349.35	0.801
349.56	0.794
349.77	0.789
349.98	0.796
350.19	0.794
350.39	0.789
350.60	0.785
350.81	0.800
351.02	0.799
351.23	0.793
351.44	0.796
351.65	0.800
351.86	0.797
352.06	0.796
352.27	0.796
352.48	0.798
352.69	0.797
352.90	0.790
353.11	0.777
353.31	0.784
353.52	0.781
353.73	0.772
353.94	0.772
354.15	0.779
354.36	0.778
354.57	0.769
354.77	0.771
354.98	0.771
355.19	0.771
355.40	0.771
355.61	0.777
355.82	0.783
356.02	0.782
356.23	0.775
356.44	0.776
356.65	0.781
356.86	0.781
357.07	0.775
357.27	0.778
357.48	0.781
357.69	0.776
357.90	0.760
358.11	0.756
358.32	0.761
358.52	0.764
358.73	0.753
358.94	0.755
359.15	0.760
359.36	0.760
359.56	0.754
359.77	0.751
359.98	0.758
360.19	0.758
360.40	0.754
360.61	0.755
360.81	0.754
361.02	0.755
361.23	0.745
361.44	0.744
361.65	0.745
361.85	0.745
362.06	0.743
362.27	0.745
362.48	0.745
362.69	0.748
362.89	0.741
363.10	0.742
363.31	0.747
363.52	0.751
363.73	0.745
363.93	0.745
364.14	0.749
364.35	0.750
364.56	0.739
364.77	0.742
364.97	0.745
365.18	0.746
365.39	0.740
365.60	0.737
365.81	0.738
366.01	0.738
366.22	0.734
366.43	0.734
366.64	0.736
366.84	0.742
367.05	0.738
367.26	0.738
367.47	0.741
367.68	0.741
367.88	0.737
368.09	0.735
368.30	0.739
368.51	0.739
368.71	0.737
368.92	0.742
369.13	0.741
369.34	0.739
369.55	0.737
369.75	0.736
369.96	0.743
370.17	0.743
370.38	0.739
370.58	0.738
370.79	0.744
371.00	0.743
371.21	0.734
371.41	0.739
371.62	0.744
371.83	0.739
372.04	0.737
372.24	0.730
372.45	0.732
372.66	0.732
372.87	0.728
373.07	0.725
373.28	0.726
373.49	0.729
373.70	0.719
373.90	0.718
374.11	0.727
374.32	0.726
374.53	0.725
374.73	0.725
374.94	0.728
375.15	0.727
375.36	0.724
375.56	0.733
375.77	0.733
375.98	0.734
376.19	0.730
376.39	0.724
376.60	0.728
376.81	0.728
377.02	0.726
377.22	0.725
377.43	0.726
377.64	0.726
377.84	0.716
378.05	0.720
378.26	0.728
378.47	0.727
378.67	0.723
378.88	0.720
379.09	0.722
379.30	0.722
379.50	0.718
379.71	0.721
379.92	0.724
380.12	0.724
380.33	0.715
380.54	0.710
380.75	0.718
380.95	0.718
381.16	0.716
381.37	0.716
381.57	0.718
381.78	0.719
381.99	0.717
382.20	0.716
382.40	0.719
382.61	0.720
382.82	0.716
383.02	0.709
383.23	0.712
383.44	0.712
383.64	0.709
383.85	0.712
384.06	0.715
384.27	0.712
384.47	0.710
384.68	0.711
384.89	0.717
385.09	0.716
385.30	0.714
385.51	0.714
385.71	0.718
385.92	0.719
386.13	0.717
386.33	0.719
386.54	0.720
386.75	0.718
386.95	0.714
387.16	0.709
387.37	0.712
387.58	0.712
387.78	0.710
387.99	0.707
388.20	0.710
388.40	0.706
388.61	0.701
388.82	0.704
389.02	0.708
389.23	0.708
389.44	0.705
389.64	0.706
389.85	0.717
390.06	0.716
390.26	0.716
390.47	0.715
390.68	0.718
390.88	0.716
391.09	0.710
391.30	0.709
391.50	0.709
391.71	0.709
391.92	0.705
392.12	0.697
392.33	0.697
392.53	0.696
392.74	0.696
392.95	0.696
393.15	0.699
393.36	0.701
393.57	0.698
393.77	0.701
393.98	0.702
394.19	0.702
394.39	0.702
394.60	0.704
394.81	0.706
395.01	0.703
395.22	0.700
395.43	0.701
395.63	0.707
395.84	0.709
396.04	0.704
396.25	0.706
396.46	0.708
396.66	0.706
396.87	0.703
397.08	0.700
397.28	0.702
397.49	0.703
397.69	0.699
397.90	0.693
398.11	0.694
398.31	0.695
398.52	0.690
398.73	0.691
398.93	0.691
399.14	0.690
399.34	0.689
399.55	0.690
399.76	0.690
399.96	0.691
400.17	0.689
400.37	0.687
400.58	0.694
400.79	0.696
400.99	0.693
401.20	0.698
401.41	0.701
401.61	0.702
401.82	0.706
402.02	0.705
402.23	0.706
402.44	0.706
402.64	0.705
402.85	0.699
403.05	0.698
403.26	0.697
403.47	0.690
403.67	0.689
403.88	0.690
404.08	0.684
404.29	0.682
404.50	0.682
404.70	0.683
404.91	0.682
405.11	0.678
405.32	0.678
405.52	0.679
405.73	0.679
405.94	0.677
406.14	0.679
406.35	0.682
406.55	0.681
406.76	0.678
406.97	0.679
407.17	0.682
407.38	0.682
407.58	0.680
407.79	0.682
407.99	0.685
408.20	0.686
408.41	0.681
408.61	0.679
408.82	0.681
409.02	0.681
409.23	0.678
409.43	0.678
409.64	0.679
409.84	0.679
410.05	0.675
410.26	0.673
410.46	0.673
410.67	0.672
410.87	0.674
411.08	0.675
411.28	0.676
411.49	0.678
411.69	0.675
411.90	0.676
412.11	0.678
412.31	0.680
412.52	0.678
412.72	0.679
412.93	0.680
413.13	0.678
413.34	0.675
413.54	0.676
413.75	0.677
413.95	0.677
414.16	0.673
414.37	0.676
414.57	0.676
414.78	0.679
414.98	0.676
415.19	0.677
415.39	0.675
415.60	0.678
415.80	0.677
416.01	0.676
416.21	0.678
416.42	0.678
416.62	0.673
416.83	0.673
417.03	0.673
417.24	0.674
417.44	0.671
417.65	0.671
417.86	0.671
418.06	0.669
418.27	0.667
418.47	0.668
418.68	0.669
418.88	0.670
419.09	0.667
419.29	0.668
419.50	0.669
419.70	0.669
419.91	0.667
420.11	0.665
420.32	0.668
420.52	0.668
420.73	0.666
420.93	0.667
421.14	0.669
421.34	0.668
421.55	0.664
421.75	0.664
421.96	0.665
422.16	0.665
422.37	0.664
422.57	0.661
422.78	0.663
422.98	0.660
423.19	0.658
423.39	0.657
423.60	0.661
423.80	0.663
424.01	0.661
424.21	0.663
424.42	0.665
424.62	0.665
424.83	0.665
425.03	0.665
425.23	0.667
425.44	0.668
425.64	0.667
425.85	0.666
426.05	0.667
426.26	0.668
426.46	0.664
426.67	0.663
426.87	0.668
427.08	0.669
427.28	0.666
427.49	0.667
427.69	0.668
427.90	0.666
428.10	0.663
428.31	0.663
428.51	0.665
428.71	0.665
428.92	0.666
429.12	0.663
429.33	0.663
429.53	0.667
429.74	0.670
429.94	0.671
430.15	0.671
430.35	0.671
430.56	0.668
430.76	0.668
430.96	0.669
431.17	0.666
431.37	0.663
431.58	0.662
431.78	0.659
431.99	0.652
432.19	0.654
432.40	0.656
432.60	0.657
432.80	0.660
433.01	0.658
433.21	0.658
433.42	0.661
433.62	0.661
433.83	0.661
434.03	0.664
434.23	0.667
434.44	0.666
434.64	0.663
434.85	0.669
435.05	0.670
435.26	0.670
435.46	0.668
435.66	0.667
435.87	0.668
436.07	0.667
436.28	0.663
436.48	0.660
436.69	0.659
436.89	0.660
437.09	0.653
437.30	0.652
437.50	0.653
437.71	0.665
437.91	0.664
438.11	0.665
438.32	0.669
438.52	0.670
438.73	0.669
438.93	0.667
439.13	0.668
439.34	0.671
439.54	0.669
439.75	0.668
439.95	0.659
440.15	0.663
440.36	0.662
440.56	0.660
440.77	0.662
440.97	0.662
441.17	0.661
441.38	0.662
441.58	0.660
441.79	0.660
441.99	0.658
442.19	0.658
442.40	0.655
442.60	0.655
442.81	0.652
443.01	0.653
443.21	0.654
443.42	0.653
443.62	0.651
443.82	0.651
444.03	0.653
444.23	0.653
444.44	0.652
444.64	0.652
444.84	0.653
445.05	0.653
445.25	0.651
445.45	0.651
445.66	0.654
445.86	0.653
446.06	0.654
446.27	0.654
446.47	0.657
446.68	0.656
446.88	0.654
447.08	0.654
447.29	0.656
447.49	0.657
447.69	0.657
447.90	0.655
448.10	0.659
448.30	0.657
448.51	0.658
448.71	0.655
448.91	0.657
449.12	0.656
449.32	0.657
449.52	0.655
449.73	0.658
449.93	0.657
450.14	0.658
450.34	0.657
450.54	0.659
450.75	0.656
450.95	0.656
451.15	0.656
451.36	0.659
451.56	0.656
451.76	0.656
451.97	0.653
452.17	0.654
452.37	0.653
452.58	0.649
452.78	0.649
452.98	0.652
453.19	0.651
453.39	0.651
453.59	0.650
453.79	0.651
454.00	0.651
454.20	0.650
454.40	0.651
454.61	0.654
454.81	0.654
455.01	0.652
455.22	0.654
455.42	0.656
455.62	0.654
455.83	0.653
456.03	0.656
456.23	0.657
456.44	0.658
456.64	0.656
456.84	0.657
457.04	0.658
457.25	0.657
457.45	0.653
457.65	0.652
457.86	0.653
458.06	0.652
458.26	0.647
458.47	0.647
458.67	0.648
458.87	0.649
459.07	0.646
459.28	0.648
459.48	0.651
459.68	0.651
459.89	0.650
460.09	0.649
460.29	0.650
460.49	0.652
460.70	0.651
460.90	0.650
461.10	0.651
461.31	0.651
461.51	0.648
461.71	0.650
461.91	0.651
462.12	0.651
462.32	0.650
462.52	0.651
462.72	0.655
462.93	0.655
463.13	0.653
463.33	0.654
463.53	0.656
463.74	0.655
463.94	0.649
464.14	0.650
464.35	0.651
464.55	0.652
464.75	0.649
464.95	0.646
465.16	0.648
465.36	0.648
465.56	0.647
465.76	0.646
465.97	0.646
466.17	0.648
466.37	0.645
466.57	0.646
466.78	0.647
466.98	0.648
467.18	0.646
467.38	0.644
467.59	0.646
467.79	0.648
467.99	0.647
468.19	0.648
468.39	0.651
468.60	0.651
468.80	0.649
469.00	0.651
469.20	0.652
469.41	0.652
469.61	0.651
469.81	0.651
470.01	0.651
470.22	0.652
470.42	0.650
470.62	0.648
470.82	0.650
471.02	0.649
471.23	0.647
471.43	0.647
471.63	0.649
471.83	0.649
472.04	0.647
472.24	0.645
472.44	0.650
472.64	0.650
472.84	0.648
473.05	0.647
473.25	0.650
473.45	0.649
473.65	0.647
473.85	0.648
474.06	0.649
474.26	0.650
474.46	0.650
474.66	0.647
474.86	0.649
475.07	0.649
475.27	0.647
475.47	0.644
475.67	0.645
475.87	0.647
476.08	0.643
476.28	0.644
476.48	0.646
476.68	0.644
476.88	0.642
477.09	0.643
477.29	0.645
477.49	0.645
477.69	0.644
477.89	0.644
478.09	0.644
478.30	0.647
478.50	0.644
478.70	0.644
478.90	0.644
479.10	0.646
479.31	0.647
479.51	0.645
479.71	0.647
479.91	0.647
480.11	0.645
480.31	0.645
480.52	0.645
480.72	0.645
480.92	0.643
481.12	0.643
481.32	0.641
481.52	0.639
481.72	0.639
481.93	0.642
482.13	0.643
482.33	0.643
482.53	0.640
482.73	0.641
482.93	0.642
483.14	0.642
483.34	0.640
483.54	0.641
483.74	0.641
483.94	0.640
484.14	0.635
484.34	0.635
484.55	0.636
484.75	0.637
484.95	0.634
485.15	0.634
485.35	0.634
485.55	0.634
485.75	0.632
485.96	0.632
486.16	0.634
486.36	0.634
486.56	0.632
486.76	0.632
486.96	0.633
487.16	0.632
487.36	0.630
487.57	0.630
487.77	0.631
487.97	0.632
488.17	0.629
488.37	0.629
488.57	0.629
488.77	0.630
488.97	0.628
489.18	0.627
489.38	0.630
489.58	0.631
489.78	0.630
489.98	0.630
490.18	0.630
490.38	0.631
490.58	0.629
490.78	0.630
490.98	0.632
491.19	0.632
491.39	0.631
491.59	0.630
491.79	0.633
491.99	0.633
492.19	0.632
492.39	0.636
492.59	0.635
492.79	0.637
492.99	0.637
493.20	0.637
493.40	0.638
493.60	0.640
493.80	0.638
494.00	0.636
494.20	0.636
494.40	0.636
494.60	0.633
494.80	0.638
495.00	0.637
495.20	0.635
495.40	0.633
495.61	0.635
495.81	0.635
496.01	0.639
496.21	0.639
496.41	0.639
496.61	0.639
496.81	0.638
497.01	0.632
497.21	0.632
497.41	0.633
497.61	0.633
497.81	0.631
498.01	0.631
498.21	0.629
498.41	0.627
498.61	0.627
498.82	0.629
499.02	0.631
499.22	0.632
499.42	0.631
499.62	0.632
499.82	0.634
500.02	0.635
500.22	0.633
500.42	0.635
500.62	0.636
500.82	0.636
501.02	0.634
501.22	0.634
501.42	0.634
501.62	0.636
501.82	0.635
502.02	0.635
502.22	0.635
502.42	0.637
502.62	0.634
502.82	0.634
503.02	0.635
503.22	0.635
503.42	0.633
503.63	0.633
503.83	0.631
504.03	0.630
504.23	0.628
504.43	0.628
504.63	0.629
504.83	0.629
505.03	0.627
505.23	0.629
505.43	0.631
505.63	0.632
505.83	0.632
506.03	0.634
506.23	0.636
506.43	0.637
506.63	0.636
506.83	0.634
507.03	0.637
507.23	0.637
507.43	0.634
507.63	0.635
507.83	0.635
508.03	0.636
508.23	0.634
508.43	0.633
508.63	0.635
508.83	0.636
509.03	0.637
509.23	0.636
509.43	0.637
509.63	0.637
509.83	0.636
510.03	0.639
510.23	0.641
510.43	0.641
510.63	0.642
510.83	0.642
511.03	0.643
511.23	0.641
511.43	0.640
511.63	0.641
511.83	0.644
512.03	0.644
512.22	0.640
512.42	0.639
512.62	0.640
512.82	0.640
513.02	0.639
513.22	0.638
513.42	0.641
513.62	0.643
513.82	0.641
514.02	0.640
514.22	0.641
514.42	0.642
514.62	0.641
514.82	0.642
515.02	0.645
515.22	0.648
515.42	0.646
515.62	0.649
515.82	0.648
516.02	0.649
516.22	0.649
516.42	0.651
516.62	0.653
516.82	0.654
517.01	0.651
517.21	0.651
517.41	0.655
517.61	0.656
517.81	0.651
518.01	0.651
518.21	0.651
518.41	0.650
518.61	0.649
518.81	0.649
519.01	0.650
519.21	0.651
519.41	0.650
519.61	0.644
519.81	0.646
520.00	0.647
520.20	0.647
520.40	0.650
520.60	0.651
520.80	0.650
521.00	0.650
521.20	0.651
521.40	0.656
521.60	0.656
521.80	0.655
522.00	0.655
522.20	0.658
522.39	0.657
522.59	0.654
522.79	0.655
522.99	0.658
523.19	0.656
523.39	0.653
523.59	0.652
523.79	0.655
523.99	0.658
524.19	0.656
524.38	0.655
524.58	0.657
524.78	0.657
524.98	0.655
525.18	0.657
525.38	0.659
525.58	0.660
525.78	0.656
525.98	0.654
526.18	0.655
526.37	0.654
526.57	0.655
526.77	0.655
526.97	0.655
527.17	0.656
527.37	0.651
527.57	0.654
527.77	0.656
527.96	0.656
528.16	0.655
528.36	0.656
528.56	0.658
528.76	0.656
528.96	0.656
529.16	0.657
529.36	0.660
529.55	0.661
529.75	0.657
529.95	0.657
530.15	0.659
530.35	0.661
530.55	0.659
530.75	0.659
530.94	0.661
531.14	0.660
531.34	0.658
531.54	0.656
531.74	0.660
531.94	0.663
532.13	0.661
532.33	0.662
532.53	0.661
532.73	0.661
532.93	0.658
533.13	0.660
533.33	0.660
533.52	0.661
533.72	0.663
533.92	0.661
534.12	0.659
534.32	0.659
534.52	0.657
534.71	0.659
534.91	0.662
535.11	0.665
535.31	0.662
535.51	0.664
535.71	0.667
535.90	0.664
536.10	0.666
536.30	0.668
536.50	0.669
536.70	0.670
536.89	0.667
537.09	0.667
537.29	0.668
537.49	0.669
537.69	0.666
537.89	0.666
538.08	0.666
538.28	0.664
538.48	0.664
538.68	0.665
538.88	0.666
539.07	0.666
539.27	0.664
539.47	0.663
539.67	0.664
539.87	0.665
540.06	0.663
540.26	0.664
540.46	0.667
540.66	0.665
540.86	0.662
541.05	0.663
541.25	0.665
541.45	0.665
541.65	0.663
541.84	0.666
542.04	0.666
542.24	0.667
542.44	0.666
542.64	0.667
542.83	0.669
543.03	0.670
543.23	0.667
543.43	0.668
543.62	0.669
543.82	0.670
544.02	0.668
544.22	0.668
544.42	0.672
544.61	0.672
544.81	0.669
545.01	0.668
545.21	0.670
545.40	0.670
545.60	0.668
545.80	0.672
546.00	0.672
546.19	0.671
546.39	0.670
546.59	0.667
546.79	0.669
546.98	0.669
547.18	0.669
547.38	0.669
547.58	0.672
547.77	0.672
547.97	0.667
548.17	0.669
548.37	0.670
548.56	0.669
548.76	0.668
548.96	0.670
549.16	0.672
549.35	0.672
549.55	0.670
549.75	0.671
549.95	0.675
550.14	0.676
550.34	0.674
550.54	0.679
550.73	0.683
550.93	0.684
551.13	0.680
551.33	0.679
551.52	0.680
551.72	0.681
551.92	0.678
552.12	0.678
552.31	0.679
552.51	0.679
552.71	0.674
552.90	0.674
553.10	0.676
553.30	0.676
553.50	0.675
553.69	0.676
553.89	0.678
554.09	0.678
554.28	0.675
554.48	0.677
554.68	0.679
554.87	0.679
555.07	0.675
555.27	0.675
555.47	0.677
555.66	0.677
555.86	0.675
556.06	0.677
556.25	0.678
556.45	0.686
556.65	0.683
556.84	0.686
557.04	0.690
557.24	0.691
557.43	0.690
557.63	0.693
557.83	0.696
558.02	0.696
558.22	0.700
558.42	0.701
558.61	0.694
558.81	0.694
559.01	0.690
559.21	0.690
559.40	0.691
559.60	0.692
559.80	0.688
559.99	0.689
560.19	0.691
560.39	0.685
560.58	0.683
560.78	0.683
560.97	0.687
561.17	0.686
561.37	0.684
561.56	0.685
561.76	0.686
561.96	0.686
562.15	0.683
562.35	0.685
562.55	0.687
562.74	0.686
562.94	0.685
563.14	0.683
563.33	0.683
563.53	0.683
563.73	0.680
563.92	0.682
564.12	0.685
564.31	0.688
564.51	0.685
564.71	0.687
564.90	0.690
565.10	0.691
565.30	0.693
565.49	0.695
565.69	0.698
565.89	0.698
566.08	0.695
566.28	0.696
566.47	0.699
566.67	0.697
566.87	0.693
567.06	0.694
567.26	0.700
567.46	0.696
567.65	0.695
567.85	0.696
568.04	0.698
568.24	0.697
568.44	0.694
568.63	0.692
568.83	0.694
569.02	0.693
569.22	0.688
569.42	0.684
569.61	0.687
569.81	0.685
570.00	0.683
570.20	0.684
570.40	0.686
570.59	0.685
570.79	0.683
570.98	0.681
571.18	0.683
571.38	0.682
571.57	0.679
571.77	0.677
571.96	0.681
572.16	0.678
572.35	0.673
572.55	0.674
572.75	0.672
572.94	0.672
573.14	0.670
573.33	0.670
573.53	0.672
573.73	0.671
573.92	0.669
574.12	0.667
574.31	0.670
574.51	0.671
574.70	0.668
574.90	0.669
575.09	0.671
575.29	0.671
575.49	0.668
575.68	0.669
575.88	0.671
576.07	0.672
576.27	0.670
576.46	0.669
576.66	0.669
576.86	0.668
577.05	0.666
577.25	0.664
577.44	0.666
577.64	0.666
577.83	0.664
578.03	0.664
578.22	0.663
578.42	0.662
578.61	0.660
578.81	0.661
579.00	0.662
579.20	0.662
579.40	0.660
579.59	0.659
579.79	0.659
579.98	0.659
580.18	0.658
580.37	0.659
580.57	0.662
580.76	0.666
580.96	0.664
581.15	0.665
581.35	0.667
581.54	0.667
581.74	0.666
581.93	0.667
582.13	0.669
582.32	0.666
582.52	0.664
582.71	0.664
582.91	0.660
583.10	0.660
583.30	0.659
583.49	0.658
583.69	0.662
583.88	0.663
584.08	0.663
584.27	0.664
584.47	0.668
584.66	0.668
584.86	0.667
585.05	0.668
585.25	0.671
585.44	0.670
585.64	0.668
585.83	0.666
586.03	0.667
586.22	0.665
586.42	0.662
586.61	0.664
586.81	0.666
587.00	0.666
587.20	0.664
587.39	0.665
587.59	0.667
587.78	0.668
587.98	0.668
588.17	0.669
588.37	0.671
588.56	0.673
588.76	0.669
588.95	0.669
589.15	0.673
589.34	0.675
589.54	0.673
589.73	0.674
589.92	0.677
590.12	0.677
590.31	0.674
590.51	0.679
590.70	0.681
590.90	0.682
591.09	0.679
591.29	0.678
591.48	0.678
591.68	0.678
591.87	0.676
592.06	0.675
592.26	0.679
592.45	0.678
592.65	0.672
592.84	0.671
593.04	0.673
593.23	0.676
593.43	0.673
593.62	0.673
593.81	0.674
594.01	0.673
594.20	0.671
594.40	0.670
594.59	0.672
594.79	0.674
594.98	0.673
595.17	0.672
595.37	0.674
595.56	0.676
595.76	0.674
595.95	0.676
596.14	0.679
596.34	0.680
596.53	0.678
596.73	0.679
596.92	0.680
597.12	0.683
597.31	0.683
597.50	0.681
597.70	0.684
597.89	0.684
598.09	0.679
598.28	0.681
598.47	0.684
598.67	0.683
598.86	0.679
599.06	0.681
599.25	0.681
599.44	0.679
599.64	0.677
599.83	0.675
600.03	0.678
600.22	0.679
600.41	0.678
600.61	0.676
600.80	0.679
601.00	0.680
601.19	0.675
601.38	0.674
601.58	0.677
601.77	0.677
601.96	0.679
602.16	0.679
602.35	0.689
602.55	0.685
602.74	0.685
602.93	0.686
603.13	0.691
603.32	0.693
603.51	0.692
603.71	0.694
603.90	0.696
604.09	0.696
604.29	0.693
604.48	0.688
604.68	0.690
604.87	0.690
605.06	0.686
605.26	0.682
605.45	0.684
605.64	0.683
605.84	0.678
606.03	0.678
606.22	0.678
606.42	0.677
606.61	0.672
606.80	0.672
607.00	0.675
607.19	0.675
607.38	0.674
607.58	0.675
607.77	0.678
607.96	0.678
608.16	0.676
608.35	0.681
608.54	0.685
608.74	0.688
608.93	0.694
609.12	0.696
609.32	0.699
609.51	0.702
609.70	0.700
609.90	0.702
610.09	0.707
610.28	0.712
610.48	0.705
610.67	0.706
610.86	0.706
611.06	0.700
611.25	0.697
611.44	0.698
611.64	0.699
611.83	0.702
612.02	0.698
612.21	0.697
612.41	0.696
612.60	0.695
612.79	0.690
612.99	0.691
613.18	0.693
613.37	0.691
613.57	0.688
613.76	0.690
613.95	0.687
614.14	0.686
614.34	0.683
614.53	0.684
614.72	0.687
614.92	0.688
615.11	0.685
615.30	0.682
615.49	0.684
615.69	0.687
615.88	0.683
616.07	0.685
616.26	0.688
616.46	0.690
616.65	0.686
616.84	0.685
617.04	0.687
617.23	0.690
617.42	0.690
617.61	0.694
617.81	0.696
618.00	0.698
618.19	0.696
618.38	0.699
618.58	0.704
618.77	0.705
618.96	0.704
619.15	0.706
619.35	0.708
619.54	0.708
619.73	0.702
619.92	0.703
620.12	0.708
620.31	0.708
620.50	0.702
620.69	0.701
620.89	0.705
621.08	0.705
621.27	0.704
621.46	0.703
621.66	0.708
621.85	0.708
622.04	0.705
622.23	0.705
622.43	0.707
622.62	0.707
622.81	0.706
623.00	0.705
623.19	0.710
623.39	0.709
623.58	0.706
623.77	0.704
623.96	0.708
624.16	0.707
624.35	0.702
624.54	0.705
624.73	0.709
624.92	0.707
625.12	0.704
625.31	0.705
625.50	0.708
625.69	0.709
625.88	0.705
626.08	0.705
626.27	0.707
626.46	0.708
626.65	0.705
626.84	0.704
627.04	0.711
627.23	0.711
627.42	0.705
627.61	0.707
627.80	0.711
628.00	0.711
628.19	0.709
628.38	0.712
628.57	0.716
628.76	0.715
628.96	0.711
629.15	0.711
629.34	0.715
629.53	0.716
629.72	0.709
629.91	0.709
630.11	0.715
630.30	0.715
630.49	0.716
630.68	0.717
630.87	0.722
631.06	0.725
631.26	0.719
631.45	0.721
631.64	0.729
631.83	0.733
632.02	0.729
632.21	0.728
632.41	0.737
632.60	0.731
632.79	0.728
632.98	0.728
633.17	0.729
633.36	0.731
633.55	0.726
633.75	0.721
633.94	0.723
634.13	0.723
634.32	0.720
634.51	0.714
634.70	0.716
634.89	0.716
635.09	0.712
635.28	0.713
635.47	0.715
635.66	0.718
635.85	0.714
636.04	0.715
636.23	0.720
636.43	0.722
636.62	0.720
636.81	0.719
637.00	0.724
637.19	0.726
637.38	0.722
637.57	0.721
637.76	0.723
637.95	0.724
638.15	0.720
638.34	0.717
638.53	0.720
638.72	0.722
638.91	0.720
639.10	0.717
639.29	0.719
639.48	0.721
639.67	0.721
639.87	0.719
640.06	0.726
640.25	0.725
640.44	0.725
640.63	0.726
640.82	0.729
641.01	0.728
641.20	0.728
641.39	0.729
641.58	0.731
641.78	0.730
641.97	0.725
642.16	0.740
642.35	0.742
642.54	0.741
642.73	0.735
642.92	0.733
643.11	0.738
643.30	0.737
643.49	0.731
643.68	0.735
643.87	0.736
644.06	0.737
644.25	0.715
644.45	0.717
644.64	0.719
644.83	0.720
645.02	0.716
645.21	0.715
645.40	0.717
645.59	0.716
645.78	0.709
645.97	0.712
646.16	0.713
646.35	0.713
646.54	0.711
646.73	0.711
646.92	0.713
647.11	0.713
647.30	0.708
647.49	0.710
647.68	0.711
647.88	0.709
648.07	0.701
648.26	0.704
648.45	0.706
648.64	0.702
648.83	0.699
649.02	0.702
649.21	0.714
649.40	0.713
649.59	0.707
649.78	0.708
649.97	0.724
650.16	0.724
650.35	0.718
650.54	0.720
650.73	0.731
650.92	0.727
651.11	0.720
651.30	0.716
651.49	0.721
651.68	0.722
651.87	0.717
652.06	0.706
652.25	0.709
652.44	0.711
652.63	0.705
652.82	0.703
653.01	0.702
653.20	0.699
653.39	0.686
653.58	0.683
653.77	0.683
653.96	0.678
654.15	0.670
654.34	0.668
654.53	0.665
654.72	0.661
654.91	0.652
655.10	0.648
655.29	0.647
655.48	0.646
655.67	0.641
655.86	0.639
656.05	0.638
656.24	0.637
656.43	0.632
656.62	0.632
656.81	0.632
657.00	0.631
657.19	0.629
657.38	0.629
657.57	0.629
657.76	0.633
657.95	0.631
658.14	0.635
658.33	0.638
658.51	0.644
658.70	0.644
658.89	0.646
659.08	0.655
659.27	0.662
659.46	0.662
659.65	0.668
659.84	0.671
660.03	0.674
660.22	0.674
660.41	0.678
660.60	0.679
660.79	0.681
660.98	0.685
661.17	0.683
661.36	0.683
661.55	0.683
661.74	0.680
661.92	0.684
662.11	0.686
662.30	0.685
662.49	0.677
662.68	0.676
662.87	0.679
663.06	0.673
663.25	0.674
663.44	0.675
663.63	0.677
663.82	0.675
664.01	0.669
664.20	0.668
664.38	0.669
664.57	0.670
664.76	0.669
664.95	0.669
665.14	0.675
665.33	0.670
665.52	0.676
665.71	0.679
665.90	0.679
666.09	0.681
666.28	0.678
666.46	0.677
666.65	0.678
666.84	0.677
667.03	0.671
667.22	0.668
667.41	0.672
667.60	0.661
667.79	0.654
667.98	0.657
668.16	0.658
668.35	0.658
668.54	0.654
668.73	0.655
668.92	0.656
669.11	0.654
669.30	0.648
669.49	0.644
669.67	0.647
669.86	0.649
670.05	0.645
670.24	0.643
670.43	0.640
670.62	0.639
670.81	0.633
671.00	0.635
671.18	0.635
671.37	0.634
671.56	0.631
671.75	0.630
671.94	0.628
672.13	0.626
672.32	0.621
672.50	0.621
672.69	0.622
672.88	0.623
673.07	0.618
673.26	0.621
673.45	0.623
673.63	0.623
673.82	0.619
674.01	0.621
674.20	0.621
674.39	0.619
674.58	0.618
674.76	0.617
674.95	0.616
675.14	0.615
675.33	0.610
675.52	0.609
675.71	0.609
675.89	0.608
676.08	0.603
676.27	0.603
676.46	0.605
676.65	0.605
676.84	0.604
677.02	0.606
677.21	0.609
677.40	0.609
677.59	0.606
677.78	0.606
677.96	0.609
678.15	0.609
678.34	0.605
678.53	0.606
678.72	0.606
678.90	0.603
679.09	0.598
679.28	0.595
679.47	0.595
679.66	0.595
679.84	0.591
680.03	0.589
680.22	0.588
680.41	0.590
680.60	0.586
680.78	0.586
680.97	0.589
681.16	0.589
681.35	0.587
681.53	0.586
681.72	0.588
681.91	0.590
682.10	0.588
682.29	0.591
682.47	0.589
682.66	0.588
682.85	0.586
683.04	0.584
683.22	0.584
683.41	0.586
683.60	0.585
683.79	0.585
683.97	0.584
684.16	0.583
684.35	0.579
684.54	0.581
684.72	0.581
684.91	0.582
685.10	0.580
685.29	0.582
685.47	0.579
685.66	0.578
685.85	0.575
686.04	0.574
686.22	0.578
686.41	0.581
686.60	0.577
686.79	0.580
686.97	0.581
687.16	0.583
687.35	0.579
687.54	0.583
687.72	0.587
687.91	0.587
688.10	0.587
688.29	0.587
688.47	0.585
688.66	0.585
688.85	0.581
689.03	0.578
689.22	0.583
689.41	0.583
689.60	0.577
689.78	0.575
689.97	0.576
690.16	0.573
690.34	0.569
690.53	0.569
690.72	0.569
690.91	0.567
691.09	0.565
691.28	0.560
691.47	0.558
691.65	0.558
691.84	0.554
692.03	0.553
692.21	0.551
692.40	0.551
692.59	0.548
692.77	0.547
692.96	0.549
693.15	0.550
693.34	0.547
693.52	0.547
693.71	0.548
693.90	0.549
694.08	0.549
694.27	0.550
694.46	0.560
694.64	0.561
694.83	0.561
695.02	0.560
695.20	0.559
695.39	0.559
695.58	0.558
695.76	0.559
695.95	0.559
696.14	0.558
696.32	0.555
696.51	0.545
696.70	0.545
696.88	0.546
697.07	0.544
697.26	0.546
697.44	0.549
697.63	0.548
697.81	0.545
698.00	0.545
698.19	0.545
698.37	0.545
698.56	0.545
698.75	0.545
698.93	0.545
699.12	0.544
699.31	0.542
699.49	0.542
699.68	0.543
699.87	0.545
700.05	0.546
700.24	0.545
700.42	0.546
700.61	0.545
700.80	0.542
700.98	0.543
701.17	0.545
701.36	0.544
701.54	0.542
701.73	0.544
701.91	0.542
702.10	0.541
702.29	0.538
702.47	0.537
702.66	0.540
702.84	0.542
703.03	0.539
703.22	0.541
703.40	0.541
703.59	0.542
703.77	0.541
703.96	0.541
704.15	0.542
704.33	0.543
704.52	0.541
704.70	0.541
704.89	0.540
705.08	0.539
705.26	0.534
705.45	0.534
705.63	0.534
705.82	0.531
706.00	0.529
706.19	0.528
706.38	0.528
706.56	0.528
706.75	0.525
706.93	0.524
707.12	0.526
707.30	0.527
707.49	0.524
707.68	0.523
707.86	0.522
708.05	0.522
708.23	0.519
708.42	0.520
708.60	0.524
708.79	0.524
708.98	0.523
709.16	0.522
709.35	0.524
709.53	0.528
709.72	0.526
709.90	0.528
710.09	0.530
710.27	0.532
710.46	0.536
710.64	0.533
710.83	0.535
711.02	0.536
711.20	0.534
711.39	0.533
711.57	0.530
711.76	0.531
711.94	0.528
712.13	0.529
712.31	0.529
712.50	0.524
712.68	0.521
712.87	0.522
713.05	0.523
713.24	0.523
713.42	0.522
713.61	0.523
713.79	0.525
713.98	0.525
714.16	0.525
714.35	0.525
714.54	0.526
714.72	0.527
714.91	0.524
715.09	0.531
715.28	0.534
715.46	0.534
715.65	0.531
715.83	0.531
716.02	0.534
716.20	0.530
716.39	0.529
716.57	0.530
716.76	0.534
716.94	0.534
717.12	0.526
717.31	0.528
717.49	0.531
717.68	0.533
717.86	0.532
718.05	0.535
718.23	0.538
718.42	0.541
718.60	0.541
718.79	0.549
718.97	0.552
719.16	0.552
719.34	0.549
719.53	0.549
719.71	0.550
719.90	0.551
720.08	0.547
720.27	0.548
720.45	0.548
720.63	0.546
720.82	0.539
721.00	0.542
721.19	0.545
721.37	0.544
721.56	0.544
721.74	0.547
721.93	0.556
722.11	0.563
722.30	0.561
722.48	0.566
722.66	0.568
722.85	0.568
723.03	0.567
723.22	0.565
723.40	0.569
723.59	0.569
723.77	0.572
723.95	0.566
724.14	0.568
724.32	0.571
724.51	0.569
724.69	0.571
724.88	0.572
725.06	0.570
725.24	0.571
725.43	0.573
725.61	0.576
725.80	0.570
725.98	0.567
726.16	0.563
726.35	0.570
726.53	0.570
726.72	0.568
726.90	0.578
727.09	0.579
727.27	0.586
727.45	0.582
727.64	0.592
727.82	0.601
728.01	0.606
728.19	0.602
728.37	0.606
728.56	0.611
728.74	0.618
728.92	0.605
729.11	0.608
729.29	0.607
729.48	0.608
729.66	0.597
729.84	0.597
730.03	0.602
730.21	0.604
730.40	0.593
730.58	0.596
730.76	0.598
730.95	0.601
731.13	0.600
731.31	0.614
731.50	0.626
731.68	0.630
731.86	0.625
732.05	0.639
732.23	0.644
732.42	0.648
732.60	0.650
732.78	0.654
732.97	0.673
733.15	0.680
733.33	0.667
733.52	0.672
733.70	0.685
733.88	0.694
734.07	0.679
734.25	0.707
734.43	0.717
734.62	0.717
734.80	0.711
734.98	0.702
735.17	0.711
735.35	0.717
735.53	0.705
735.72	0.708
735.90	0.734
736.08	0.753
736.27	0.725
736.45	0.735
736.63	0.752
736.82	0.761
737.00	0.760
737.18	0.769
737.37	0.807
737.55	0.833
737.73	0.826
737.92	0.830
738.10	0.830
738.28	0.856
738.46	0.843
738.65	0.856
738.83	0.884
739.01	0.945
739.20	0.933
739.38	0.910
739.56	0.901
739.75	0.906
739.93	0.862
740.11	0.892
740.29	0.892
740.48	0.897
740.66	0.873
740.84	0.866
741.03	0.830
741.21	0.843
741.39	0.822
741.57	0.837
741.76	0.861
741.94	0.870
742.12	0.825
742.31	0.832
742.49	0.861
742.67	0.888
742.85	0.903
743.04	0.905
743.22	0.920
743.40	0.981
743.58	0.956
743.77	0.974
743.95	1.022
744.13	1.088
744.31	1.062
744.50	1.044
744.68	1.053
744.86	1.025
745.04	1.038
745.23	1.115
745.41	1.098
745.59	1.102
745.77	1.051
745.96	1.034
746.14	1.051
746.32	1.039
746.50	1.026
746.69	0.999
746.87	1.011
747.05	0.997
747.23	0.914
747.42	0.900
747.60	0.943
747.78	0.947
747.96	0.978
748.14	0.927
748.33	0.966
748.51	0.966
748.69	0.955
748.87	0.993
749.06	0.995
749.24	0.990
749.42	0.969
749.60	0.943
749.78	0.957
749.97	0.902
750.15	0.893
750.33	0.899
750.51	0.930
750.69	0.938
750.88	0.934
751.06	0.946
751.24	0.985
751.42	0.971
751.60	0.958
751.79	1.046
751.97	1.107
752.15	1.101
752.33	1.047
752.51	1.126
752.69	1.148
752.88	1.109
753.06	1.155
753.24	1.119
753.42	1.177
753.60	1.409
753.78	1.198
753.97	1.229
754.15	1.260
754.33	1.307
754.51	1.128
754.69	1.114
754.87	1.156
755.06	1.066
755.24	1.060
755.42	1.063
755.60	0.949
755.78	0.955
755.96	0.890
756.15	0.893
756.33	0.901
756.51	0.921
756.69	0.899
756.87	0.863
757.05	0.886
757.23	0.871
757.42	0.832
757.60	0.835
757.78	0.824
757.96	0.820
758.14	0.800
758.32	0.785
758.50	0.801
758.69	0.800
758.87	0.790
759.05	0.797
759.23	0.812
759.41	0.813
759.59	0.800
759.77	0.829
759.95	0.862
760.13	0.919
760.32	0.917
760.50	0.908
760.68	0.940
760.86	0.941
761.04	0.902
761.22	0.904
761.40	0.961
761.58	0.966
761.76	0.929
761.95	0.913
762.13	0.863
762.31	0.861
762.49	0.824
762.67	0.839
762.85	0.855
763.03	0.851
763.21	0.828
763.39	0.806
763.57	0.808
763.75	0.801
763.94	0.781
764.12	0.780
764.30	0.808
764.48	0.816
764.66	0.776
764.84	0.772
765.02	0.813
765.20	0.821
765.38	0.800
765.56	0.808
765.74	0.855
765.92	0.857
766.10	0.863
766.28	0.857
766.46	0.895
766.65	0.897
766.83	0.883
767.01	0.869
767.19	0.883
767.37	0.883
767.55	0.864
767.73	0.844
767.91	0.850
768.09	0.838
768.27	0.824
768.45	0.810
768.63	0.816
768.81	0.816
768.99	0.782
769.17	0.809
769.35	0.827
769.53	0.829
769.71	0.801
769.89	0.813
770.07	0.821
770.25	0.799
770.43	0.773
770.61	0.802
770.79	0.812
770.97	0.823
771.15	0.781
771.33	0.786
771.51	0.787
771.69	0.801
771.87	0.803
772.05	0.808
772.24	0.823
772.42	0.834
772.60	0.809
772.78	0.876
772.96	0.914
773.14	0.912
773.32	0.884
773.49	0.897
773.67	0.896
773.85	0.872
774.03	0.859
774.21	0.897
774.39	0.913
774.57	0.940
774.75	0.852
774.93	0.845
775.11	0.879
775.29	0.883
775.47	0.878
775.65	0.890
775.83	0.916
776.01	0.944
776.19	0.882
776.37	0.881
776.55	0.881
776.73	0.879
776.91	0.868
777.09	0.843
777.27	0.845
777.45	0.830
777.63	0.804
777.81	0.799
777.99	0.786
778.17	0.783
778.35	0.758
778.53	0.745
778.71	0.754
778.89	0.743
779.07	0.731
779.24	0.739
779.42	0.743
779.60	0.763
779.78	0.756
779.96	0.762
780.14	0.775
780.32	0.797
780.50	0.776
780.68	0.776
780.86	0.766
781.04	0.784
781.22	0.786
781.40	0.802
781.58	0.793
781.75	0.785
781.93	0.766
782.11	0.766
782.29	0.752
782.47	0.752
782.65	0.736
782.83	0.769
783.01	0.764
783.19	0.754
783.37	0.735
783.55	0.738
783.72	0.761
783.90	0.772
784.08	0.759
784.26	0.773
784.44	0.798
784.62	0.801
784.80	0.760
784.98	0.767
785.16	0.776
785.33	0.791
785.51	0.772
785.69	0.758
785.87	0.759
786.05	0.773
786.23	0.764
786.41	0.761
786.59	0.769
786.77	0.771
786.94	0.755
787.12	0.757
787.30	0.762
787.48	0.759
787.66	0.743
787.84	0.742
788.02	0.733
788.19	0.731
788.37	0.713
788.55	0.715
788.73	0.717
788.91	0.713
789.09	0.695
789.27	0.683
789.44	0.698
789.62	0.704
789.80	0.714
789.98	0.740
790.16	0.728
790.34	0.724
790.51	0.707
790.69	0.729
790.87	0.737
791.05	0.731
791.23	0.724
791.41	0.722
791.58	0.731
791.76	0.707
791.94	0.672
792.12	0.681
792.30	0.685
792.48	0.684
792.65	0.674
792.83	0.681
793.01	0.694
793.19	0.691
793.37	0.675
793.54	0.671
793.72	0.685
793.90	0.685
794.08	0.674
794.26	0.674
794.43	0.685
794.61	0.668
794.79	0.653
794.97	0.652
795.15	0.659
795.32	0.663
795.50	0.650
795.68	0.645
795.86	0.651
796.04	0.653
796.21	0.647
796.39	0.644
796.57	0.662
796.75	0.672
796.92	0.669
797.10	0.676
797.28	0.681
797.46	0.684
797.64	0.683
797.81	0.692
797.99	0.697
798.17	0.700
798.35	0.695
798.52	0.697
798.70	0.694
798.88	0.704
799.06	0.701
799.23	0.702
799.41	0.712
799.59	0.703
799.77	0.688
799.94	0.697
800.12	0.708
800.30	0.725
800.48	0.721
800.65	0.722
800.83	0.713
801.01	0.705
801.19	0.704
801.36	0.702
801.54	0.710
801.72	0.720
801.90	0.705
802.07	0.701
802.25	0.687
802.43	0.670
802.60	0.663
802.78	0.670
802.96	0.675
803.14	0.667
803.31	0.663
803.49	0.662
803.67	0.659
803.84	0.664
804.02	0.653
804.20	0.655
804.38	0.664
804.55	0.661
804.73	0.646
804.91	0.645
805.08	0.661
805.26	0.658
805.44	0.718
805.61	0.721
805.79	0.721
805.97	0.721
806.15	0.712
806.32	0.706
806.50	0.716
806.68	0.715
806.85	0.706
807.03	0.696
807.21	0.715
807.38	0.651
807.56	0.639
807.74	0.651
807.91	0.658
808.09	0.659
808.27	0.676
808.44	0.705
808.62	0.717
808.80	0.719
808.97	0.712
809.15	0.704
809.33	0.724
809.50	0.731
809.68	0.715
809.86	0.724
810.03	0.762
810.21	0.739
810.39	0.715
810.56	0.719
810.74	0.748
810.91	0.826
811.09	0.815
811.27	0.838
811.44	0.851
811.62	0.851
811.80	0.829
811.97	0.794
812.15	0.797
812.33	0.794
812.50	0.777
812.68	0.761
812.85	0.703
813.03	0.705
813.21	0.670
813.38	0.662
813.56	0.669
813.74	0.680
813.91	0.685
814.09	0.718
814.26	0.714
814.44	0.718
814.62	0.708
814.79	0.710
814.97	0.718
815.14	0.722
815.32	0.726
815.50	0.743
815.67	0.750
815.85	0.740
816.02	0.726
816.20	0.734
816.38	0.753
816.55	0.755
816.73	0.755
816.90	0.766
817.08	0.804
817.26	0.811
817.43	0.787
817.61	0.816
817.78	0.844
817.96	0.820
818.13	0.807
818.31	0.808
818.49	0.828
818.66	0.817
818.84	0.796
819.01	0.770
819.19	0.778
819.36	0.779
819.54	0.742
819.71	0.788
819.89	0.808
820.07	0.821
820.24	0.809
820.42	0.810
820.59	0.833
820.77	0.860
820.94	0.847
821.12	0.868
821.29	0.887
821.47	0.891
821.64	0.813
821.82	0.826
822.00	0.826
822.17	0.824
822.35	0.814
822.52	0.816
822.70	0.807
822.87	0.816
823.05	0.788
823.22	0.806
823.40	0.836
823.57	0.863
823.75	0.842
823.92	0.871
824.10	0.904
824.27	0.948
824.45	0.935
824.62	1.014
824.80	1.045
824.97	1.075
825.15	1.051
825.32	1.071
825.50	1.081
825.67	1.094
825.85	1.062
826.02	1.090
826.20	1.135
826.37	1.337
826.55	1.209
826.72	1.606
826.90	1.863
827.07	2.186
827.25	1.845
827.42	-0.000
827.60	-0.000
827.77	-0.000
827.95	-0.000
828.12	-0.000
828.30	-0.000
828.47	-0.000
828.65	2.027
828.82	2.747
829.00	-0.000
829.17	-0.000
829.34	-0.000
829.52	-0.000
829.69	-0.000
829.87	-0.000
830.04	-0.000
830.22	-0.000
830.39	-0.000
830.57	-0.000
830.74	-0.000
830.92	-0.000
831.09	-0.000
831.26	-0.000
831.44	-0.000
831.61	-0.000
831.79	-0.000
831.96	-0.000
832.14	-0.000
832.31	-0.000
832.49	-0.000
832.66	-0.000
832.83	-0.000
833.01	-0.000
833.18	-0.000
833.36	-0.000
833.53	-0.000
833.70	-0.000
833.88	-0.000
834.05	-0.000
834.23	-0.000
834.40	-0.000
834.58	-0.000
834.75	-0.000
834.92	-0.000
835.10	-0.000
835.27	-0.000
835.45	-0.000
835.62	-0.000
835.79	-0.000
835.97	-0.000
836.14	-0.000
836.32	-0.000
836.49	-0.000
836.66	-0.000
836.84	-0.000
837.01	-0.000
837.18	-0.000
837.36	-0.000
837.53	-0.000
837.71	-0.000
837.88	-0.000
838.05	-0.000
838.23	-0.000
838.40	-0.000
838.58	-0.000
838.75	-0.000
838.92	-0.000
839.10	-0.000
839.27	-0.000
839.44	-0.000
839.62	-0.000
839.79	-0.000
839.96	-0.000
840.14	-0.000
840.31	-0.000
840.48	-0.000
840.66	-0.000
840.83	-0.000
841.01	-0.000
841.18	-0.000
841.35	-0.000
841.53	-0.000
841.70	-0.000
841.87	-0.000
842.05	-0.000
842.22	-0.000
842.39	-0.000
842.57	-0.000
842.74	-0.000
842.91	-0.000
843.09	-0.000
843.26	-0.000
843.43	-0.000
843.60	-0.000
843.78	-0.000
843.95	-0.000
844.12	-0.000
844.30	-0.000
844.47	-0.000
844.64	-0.000
844.82	-0.000
844.99	-0.000
845.16	-0.000
845.34	-0.000
845.51	-0.000
845.68	-0.000
845.85	-0.000
846.03	-0.000
846.20	-0.000
846.37	-0.000
846.55	-0.000
846.72	-0.000
846.89	-0.000
847.06	-0.000
847.24	-0.000
847.41	-0.000
847.58	-0.000
847.76	-0.000
847.93	-0.000
848.10	-0.000
848.27	-0.000
848.45	-0.000
848.62	-0.000
848.79	-0.000
848.97	-0.000
849.14	-0.000
849.31	-0.000
849.48	-0.000
849.66	-0.000
849.83	-0.000
850.00	-0.000
850.17	-0.000
850.35	-0.000
850.52	-0.000
850.69	-0.000
850.86	-0.000
851.04	-0.000
851.21	-0.000
851.38	-0.000
851.55	-0.000
851.72	-0.000
851.90	-0.000
852.07	-0.000
852.24	-0.000
852.41	-0.000
852.59	-0.000
852.76	-0.000
852.93	-0.000
853.10	-0.000
853.28	-0.000
853.45	-0.000
853.62	-0.000
853.79	-0.000
853.96	-0.000
854.14	-0.000
854.31	-0.000
854.48	-0.000
854.65	-0.000
854.82	-0.000
855.00	-0.000
855.17	-0.000
855.34	-0.000
855.51	-0.000
855.68	-0.000
855.86	-0.000
856.03	-0.000
856.20	-0.000
856.37	-0.000
856.54	-0.000
856.72	-0.000
856.89	-0.000
857.06	-0.000
857.23	-0.000
857.40	-0.000
857.57	-0.000
857.75	-0.000
857.92	-0.000
858.09	-0.000
858.26	-0.000
858.43	-0.000
858.60	-0.000
858.78	-0.000
858.95	-0.000
859.12	-0.000
859.29	-0.000
859.46	-0.000
859.63	-0.000
859.81	-0.000
859.98	-0.000
860.15	-0.000
860.32	-0.000
860.49	-0.000
860.66	-0.000
860.83	-0.000
861.01	-0.000
861.18	-0.000
861.35	-0.000
861.52	-0.000
861.69	-0.000
861.86	-0.000
862.03	-0.000
862.21	-0.000
862.38	-0.000
862.55	-0.000
862.72	-0.000
862.89	-0.000
863.06	-0.000
863.23	-0.000
863.40	-0.000
863.58	-0.000
863.75	-0.000
863.92	-0.000
864.09	-0.000
864.26	-0.000
864.43	-0.000
864.60	-0.000
864.77	-0.000
864.94	-0.000
865.11	-0.000
865.29	-0.000
865.46	-0.000
865.63	-0.000
865.80	-0.000
865.97	-0.000
866.14	-0.000
866.31	-0.000
866.48	-0.000
866.65	-0.000
866.82	-0.000
866.99	-0.000
867.16	-0.000
867.34	-0.000
867.51	-0.000
867.68	-0.000
867.85	-0.000
868.02	-0.000
868.19	-0.000
868.36	-0.000
868.53	-0.000
868.70	-0.000
868.87	-0.000
869.04	-0.000
869.21	-0.000
869.38	-0.000
869.55	-0.000
869.72	-0.000
869.89	-0.000
870.06	-0.000
870.24	-0.000
870.41	-0.000
870.58	-0.000
870.75	-0.000
870.92	-0.000
871.09	-0.000
871.26	-0.000
871.43	-0.000
871.60	-0.000
871.77	-0.000
871.94	-0.000
872.11	-0.000
872.28	-0.000
872.45	-0.000
872.62	-0.000
872.79	-0.000
872.96	-0.000
873.13	-0.000
873.30	-0.000
873.47	-0.000
873.64	-0.000
873.81	-0.000
873.98	-0.000
874.15	-0.000
874.32	-0.000
874.49	-0.000
874.66	-0.000
874.83	-0.000
875.00	-0.000
875.17	-0.000
875.34	-0.000
875.51	-0.000
875.68	-0.000
875.85	-0.000
876.02	-0.000
876.19	-0.000
876.36	-0.000
876.53	-0.000
876.70	-0.000
876.87	-0.000
877.04	-0.000
877.21	-0.000
877.38	-0.000
877.55	-0.000
877.72	-0.000
877.89	-0.000
878.06	-0.000
878.23	-0.000
878.39	-0.000
878.56	-0.000
878.73	-0.000
878.90	-0.000
879.07	-0.000
879.24	-0.000
879.41	-0.000
879.58	-0.000
879.75	-0.000
879.92	-0.000
880.09	-0.000
880.26	-0.000
880.43	-0.000
880.60	-0.000
880.77	-0.000
880.94	-0.000
881.11	-0.000
881.27	-0.000
881.44	-0.000
881.61	-0.000
881.78	-0.000
881.95	-0.000
882.12	-0.000
882.29	-0.000
882.46	-0.000
882.63	-0.000
882.80	-0.000
882.97	-0.000
883.14	-0.000
883.30	-0.000
883.47	-0.000
883.64	-0.000
883.81	-0.000
883.98	-0.000
884.15	-0.000
884.32	-0.000
884.49	-0.000
884.66	-0.000
884.82	-0.000
884.99	-0.000
885.16	-0.000
885.33	-0.000
885.50	-0.000
885.67	-0.000
885.84	-0.000
886.01	-0.000
886.17	-0.000
886.34	-0.000
886.51	-0.000
886.68	-0.000
886.85	-0.000
887.02	-0.000
887.19	-0.000
887.36	-0.000
887.52	-0.000
887.69	-0.000
887.86	-0.000
888.03	-0.000
888.20	-0.000
888.37	-0.000
888.54	-0.000
888.70	-0.000
888.87	-0.000
889.04	-0.000
889.21	-0.000
889.38	-0.000
889.55	-0.000
889.71	-0.000
889.88	-0.000
890.05	-0.000
890.22	-0.000
890.39	-0.000
>>>>>End Processed Spectral Data<<<<<
