SpectraSuite Data File
++++++++++++++++++++++++++++++++++++
Date: Fri Jun 19 11:41:37 CEST 2015
User: introlabs
Dark Spectrum Present: Yes
Reference Spectrum Present: Yes
Number of Sampled Component Spectra: 1
Spectrometers: USB4H08886
Integration Time (usec): 5245692 (USB4H08886)
Spectra Averaged: 5 (USB4H08886)
Boxcar Smoothing: 5 (USB4H08886)
Correct for Electrical Dark: Yes (USB4H08886)
Strobe/Lamp Enabled: No (USB4H08886)
Correct for Detector Non-linearity: Yes (USB4H08886)
Correct for Stray Light: Yes (USB4H08886)
Number of Pixels in Processed Spectrum: 3648
>>>>>Begin Processed Spectral Data<<<<<
178.14	-0.000
178.36	-0.000
178.57	-0.000
178.79	-0.000
179.01	-0.000
179.22	-0.000
179.44	-0.000
179.65	-0.000
179.87	-0.000
180.08	-0.000
180.30	-0.000
180.52	-0.000
180.73	-0.000
180.95	-0.000
181.16	-0.000
181.38	-0.000
181.59	-0.000
181.81	-0.000
182.03	-0.000
182.24	-0.000
182.46	-0.000
182.67	-0.000
182.89	-0.000
183.10	-0.000
183.32	-0.000
183.54	-0.000
183.75	-0.000
183.97	-0.000
184.18	-0.000
184.40	-0.000
184.61	-0.000
184.83	-0.000
185.04	-0.000
185.26	-0.000
185.48	-0.000
185.69	-0.000
185.91	-0.000
186.12	-0.000
186.34	-0.000
186.55	-0.000
186.77	-0.000
186.98	-0.000
187.20	-0.000
187.42	-0.000
187.63	-0.000
187.85	-0.000
188.06	-0.000
188.28	-0.000
188.49	-0.000
188.71	-0.000
188.92	-0.000
189.14	-0.000
189.36	-0.000
189.57	-0.000
189.79	-0.000
190.00	-0.000
190.22	-0.000
190.43	-0.000
190.65	-0.000
190.86	-0.000
191.08	-0.000
191.29	-0.000
191.51	-0.000
191.72	-0.000
191.94	-0.000
192.16	-0.000
192.37	-0.000
192.59	-0.000
192.80	-0.000
193.02	-0.000
193.23	-0.000
193.45	-0.000
193.66	-0.000
193.88	-0.000
194.09	-0.000
194.31	-0.000
194.52	-0.000
194.74	-0.000
194.95	-0.000
195.17	-0.000
195.38	-0.000
195.60	-0.000
195.81	-0.000
196.03	-0.000
196.25	-0.000
196.46	-0.000
196.68	-0.000
196.89	-0.000
197.11	-0.000
197.32	-0.000
197.54	-0.000
197.75	-0.000
197.97	-0.000
198.18	-0.000
198.40	-0.000
198.61	-0.000
198.83	-0.000
199.04	-0.000
199.26	-0.000
199.47	-0.000
199.69	-0.000
199.90	-0.000
200.12	-0.000
200.33	-0.000
200.55	-0.000
200.76	-0.000
200.98	-0.000
201.19	-0.000
201.41	-0.000
201.62	-0.000
201.84	-0.000
202.05	-0.000
202.27	-0.000
202.48	-0.000
202.70	-0.000
202.91	-0.000
203.13	-0.000
203.34	-0.000
203.56	-0.000
203.77	-0.000
203.99	-0.000
204.20	-0.000
204.42	-0.000
204.63	-0.000
204.85	-0.000
205.06	-0.000
205.28	-0.000
205.49	-0.000
205.71	-0.000
205.92	-0.000
206.14	-0.000
206.35	-0.000
206.56	-0.000
206.78	-0.000
206.99	-0.000
207.21	-0.000
207.42	-0.000
207.64	-0.000
207.85	-0.000
208.07	-0.000
208.28	-0.000
208.50	-0.000
208.71	-0.000
208.93	-0.000
209.14	-0.000
209.36	-0.000
209.57	-0.000
209.79	-0.000
210.00	-0.000
210.22	-0.000
210.43	-0.000
210.64	-0.000
210.86	-0.000
211.07	-0.000
211.29	-0.000
211.50	-0.000
211.72	-0.000
211.93	-0.000
212.15	-0.000
212.36	-0.000
212.58	-0.000
212.79	-0.000
213.01	-0.000
213.22	-0.000
213.43	-0.000
213.65	-0.000
213.86	-0.000
214.08	-0.000
214.29	-0.000
214.51	-0.000
214.72	-0.000
214.94	-0.000
215.15	-0.000
215.36	-0.000
215.58	-0.000
215.79	-0.000
216.01	-0.000
216.22	-0.000
216.44	-0.000
216.65	-0.000
216.87	-0.000
217.08	-0.000
217.29	-0.000
217.51	-0.000
217.72	-0.000
217.94	-0.000
218.15	-0.000
218.37	-0.000
218.58	-0.000
218.80	-0.000
219.01	-0.000
219.22	-0.000
219.44	-0.000
219.65	-0.000
219.87	-0.000
220.08	-0.000
220.30	-0.000
220.51	-0.000
220.72	-0.000
220.94	-0.000
221.15	-0.000
221.37	-0.000
221.58	-0.000
221.79	-0.000
222.01	-0.000
222.22	-0.000
222.44	-0.000
222.65	-0.000
222.87	-0.000
223.08	-0.000
223.29	-0.000
223.51	-0.000
223.72	-0.000
223.94	-0.000
224.15	-0.000
224.36	-0.000
224.58	-0.000
224.79	-0.000
225.01	-0.000
225.22	-0.000
225.44	-0.000
225.65	-0.000
225.86	-0.000
226.08	-0.000
226.29	-0.000
226.51	-0.000
226.72	-0.000
226.93	-0.000
227.15	-0.000
227.36	-0.000
227.58	-0.000
227.79	-0.000
228.00	-0.000
228.22	-0.000
228.43	-0.000
228.65	-0.000
228.86	-0.000
229.07	-0.000
229.29	-0.000
229.50	-0.000
229.72	-0.000
229.93	-0.000
230.14	-0.000
230.36	-0.000
230.57	-0.000
230.78	-0.000
231.00	-0.000
231.21	-0.000
231.43	-0.000
231.64	-0.000
231.85	-0.000
232.07	-0.000
232.28	-0.000
232.50	-0.000
232.71	-0.000
232.92	-0.000
233.14	-0.000
233.35	-0.000
233.56	-0.000
233.78	-0.000
233.99	-0.000
234.21	-0.000
234.42	-0.000
234.63	-0.000
234.85	-0.000
235.06	-0.000
235.27	-0.000
235.49	-0.000
235.70	-0.000
235.91	-0.000
236.13	-0.000
236.34	-0.000
236.56	-0.000
236.77	-0.000
236.98	-0.000
237.20	-0.000
237.41	-0.000
237.62	-0.000
237.84	-0.000
238.05	-0.000
238.26	-0.000
238.48	-0.000
238.69	-0.000
238.91	-0.000
239.12	-0.000
239.33	-0.000
239.55	-0.000
239.76	-0.000
239.97	-0.000
240.19	-0.000
240.40	-0.000
240.61	-0.000
240.83	-0.000
241.04	-0.000
241.25	-0.000
241.47	-0.000
241.68	-0.000
241.89	-0.000
242.11	-0.000
242.32	-0.000
242.53	-0.000
242.75	-0.000
242.96	-0.000
243.17	-0.000
243.39	-0.000
243.60	-0.000
243.81	-0.000
244.03	-0.000
244.24	-0.000
244.45	-0.000
244.67	-0.000
244.88	-0.000
245.09	-0.000
245.31	-0.000
245.52	-0.000
245.73	-0.000
245.95	-0.000
246.16	-0.000
246.37	-0.000
246.59	-0.000
246.80	-0.000
247.01	-0.000
247.23	-0.000
247.44	-0.000
247.65	-0.000
247.87	-0.000
248.08	-0.000
248.29	-0.000
248.51	-0.000
248.72	-0.000
248.93	-0.000
249.15	-0.000
249.36	-0.000
249.57	-0.000
249.78	-0.000
250.00	-0.000
250.21	-0.000
250.42	-0.000
250.64	-0.000
250.85	-0.000
251.06	-0.000
251.28	-0.000
251.49	-0.000
251.70	-0.000
251.92	-0.000
252.13	-0.000
252.34	-0.000
252.55	-0.000
252.77	-0.000
252.98	-0.000
253.19	-0.000
253.41	-0.000
253.62	-0.000
253.83	-0.000
254.05	-0.000
254.26	-0.000
254.47	-0.000
254.68	-0.000
254.90	-0.000
255.11	-0.000
255.32	-0.000
255.54	-0.000
255.75	-0.000
255.96	-0.000
256.17	-0.000
256.39	-0.000
256.60	-0.000
256.81	-0.000
257.03	-0.000
257.24	-0.000
257.45	-0.000
257.66	-0.000
257.88	-0.000
258.09	-0.000
258.30	-0.000
258.51	-0.000
258.73	-0.000
258.94	-0.000
259.15	-0.000
259.37	-0.000
259.58	-0.000
259.79	-0.000
260.00	-0.000
260.22	-0.000
260.43	-0.000
260.64	-0.000
260.85	-0.000
261.07	-0.000
261.28	-0.000
261.49	-0.000
261.71	-0.000
261.92	-0.000
262.13	-0.000
262.34	-0.000
262.56	-0.000
262.77	-0.000
262.98	-0.000
263.19	-0.000
263.41	-0.000
263.62	-0.000
263.83	-0.000
264.04	-0.000
264.26	-0.000
264.47	-0.000
264.68	-0.000
264.89	-0.000
265.11	-0.000
265.32	-0.000
265.53	-0.000
265.74	-0.000
265.96	-0.000
266.17	-0.000
266.38	-0.000
266.59	-0.000
266.81	-0.000
267.02	-0.000
267.23	-0.000
267.44	-0.000
267.65	-0.000
267.87	-0.000
268.08	-0.000
268.29	-0.000
268.50	-0.000
268.72	-0.000
268.93	-0.000
269.14	-0.000
269.35	-0.000
269.57	-0.000
269.78	-0.000
269.99	-0.000
270.20	-0.000
270.41	-0.000
270.63	-0.000
270.84	-0.000
271.05	-0.000
271.26	-0.000
271.48	-0.000
271.69	-0.000
271.90	-0.000
272.11	-0.000
272.32	-0.000
272.54	-0.000
272.75	-0.000
272.96	-0.000
273.17	-0.000
273.39	-0.000
273.60	-0.000
273.81	-0.000
274.02	-0.000
274.23	-0.000
274.45	-0.000
274.66	-0.000
274.87	-0.000
275.08	-0.000
275.29	-0.000
275.51	-0.000
275.72	-0.000
275.93	-0.000
276.14	-0.000
276.35	-0.000
276.57	-0.000
276.78	-0.000
276.99	-0.000
277.20	-0.000
277.41	-0.000
277.63	-0.000
277.84	-0.000
278.05	-0.000
278.26	-0.000
278.47	-0.000
278.69	-0.000
278.90	-0.000
279.11	-0.000
279.32	-0.000
279.53	-0.000
279.74	-0.000
279.96	-0.000
280.17	-0.000
280.38	-0.000
280.59	-0.000
280.80	-0.000
281.02	-0.000
281.23	-0.000
281.44	-0.000
281.65	-0.000
281.86	-0.000
282.07	-0.000
282.29	-0.000
282.50	-0.000
282.71	-0.000
282.92	-0.000
283.13	-0.000
283.35	-0.000
283.56	-0.000
283.77	-0.000
283.98	-0.000
284.19	-0.000
284.40	-0.000
284.62	-0.000
284.83	2.467
285.04	1.964
285.25	1.862
285.46	1.642
285.67	1.523
285.88	1.541
286.10	1.482
286.31	1.559
286.52	1.685
286.73	1.617
286.94	1.593
287.15	1.469
287.37	1.565
287.58	1.559
287.79	1.556
288.00	1.612
288.21	1.561
288.42	1.392
288.63	1.315
288.85	1.208
289.06	1.123
289.27	1.115
289.48	1.097
289.69	1.033
289.90	1.014
290.11	1.011
290.33	0.973
290.54	0.953
290.75	0.980
290.96	0.954
291.17	0.964
291.38	0.972
291.59	0.953
291.81	0.970
292.02	0.971
292.23	0.972
292.44	0.959
292.65	0.964
292.86	0.942
293.07	0.914
293.28	0.923
293.50	0.899
293.71	0.896
293.92	0.897
294.13	0.872
294.34	0.863
294.55	0.852
294.76	0.852
294.97	0.853
295.19	0.850
295.40	0.840
295.61	0.833
295.82	0.854
296.03	0.854
296.24	0.846
296.45	0.855
296.66	0.873
296.87	0.873
297.09	0.877
297.30	0.854
297.51	0.861
297.72	0.855
297.93	0.843
298.14	0.828
298.35	0.816
298.56	0.827
298.77	0.816
298.99	0.806
299.20	0.798
299.41	0.790
299.62	0.796
299.83	0.788
300.04	0.785
300.25	0.791
300.46	0.791
300.67	0.794
300.88	0.784
301.10	0.781
301.31	0.769
301.52	0.770
301.73	0.768
301.94	0.767
302.15	0.769
302.36	0.777
302.57	0.774
302.78	0.763
302.99	0.766
303.20	0.756
303.41	0.758
303.63	0.767
303.84	0.777
304.05	0.769
304.26	0.770
304.47	0.761
304.68	0.755
304.89	0.751
305.10	0.763
305.31	0.752
305.52	0.752
305.73	0.757
305.94	0.748
306.15	0.738
306.37	0.736
306.58	0.727
306.79	0.730
307.00	0.728
307.21	0.730
307.42	0.721
307.63	0.723
307.84	0.735
308.05	0.726
308.26	0.721
308.47	0.727
308.68	0.723
308.89	0.725
309.10	0.721
309.31	0.726
309.52	0.717
309.73	0.714
309.95	0.717
310.16	0.705
310.37	0.704
310.58	0.701
310.79	0.693
311.00	0.692
311.21	0.691
311.42	0.698
311.63	0.691
311.84	0.690
312.05	0.684
312.26	0.675
312.47	0.674
312.68	0.674
312.89	0.680
313.10	0.686
313.31	0.688
313.52	0.683
313.73	0.674
313.94	0.677
314.15	0.683
314.36	0.683
314.57	0.687
314.78	0.694
314.99	0.691
315.21	0.684
315.42	0.677
315.63	0.673
315.84	0.676
316.05	0.676
316.26	0.669
316.47	0.663
316.68	0.668
316.89	0.668
317.10	0.661
317.31	0.664
317.52	0.665
317.73	0.669
317.94	0.669
318.15	0.663
318.36	0.667
318.57	0.675
318.78	0.678
318.99	0.669
319.20	0.671
319.41	0.674
319.62	0.673
319.83	0.677
320.04	0.673
320.25	0.671
320.46	0.675
320.67	0.671
320.88	0.667
321.09	0.666
321.30	0.667
321.51	0.662
321.72	0.662
321.93	0.661
322.14	0.653
322.35	0.649
322.56	0.649
322.77	0.647
322.98	0.643
323.19	0.637
323.40	0.633
323.61	0.633
323.82	0.630
324.03	0.630
324.24	0.632
324.45	0.632
324.66	0.636
324.87	0.637
325.08	0.636
325.29	0.643
325.50	0.644
325.71	0.648
325.92	0.646
326.13	0.647
326.34	0.648
326.55	0.649
326.76	0.650
326.97	0.650
327.18	0.653
327.39	0.650
327.60	0.645
327.80	0.642
328.01	0.638
328.22	0.641
328.43	0.640
328.64	0.637
328.85	0.632
329.06	0.630
329.27	0.629
329.48	0.626
329.69	0.629
329.90	0.628
330.11	0.633
330.32	0.632
330.53	0.630
330.74	0.629
330.95	0.629
331.16	0.629
331.37	0.630
331.58	0.627
331.79	0.627
332.00	0.625
332.21	0.626
332.42	0.624
332.63	0.627
332.83	0.630
333.04	0.634
333.25	0.630
333.46	0.633
333.67	0.632
333.88	0.633
334.09	0.629
334.30	0.633
334.51	0.634
334.72	0.633
334.93	0.633
335.14	0.629
335.35	0.623
335.56	0.625
335.77	0.619
335.98	0.621
336.18	0.619
336.39	0.619
336.60	0.617
336.81	0.618
337.02	0.615
337.23	0.612
337.44	0.612
337.65	0.611
337.86	0.611
338.07	0.611
338.28	0.607
338.49	0.610
338.70	0.610
338.91	0.608
339.11	0.606
339.32	0.606
339.53	0.611
339.74	0.614
339.95	0.615
340.16	0.618
340.37	0.621
340.58	0.623
340.79	0.619
341.00	0.617
341.21	0.616
341.41	0.612
341.62	0.613
341.83	0.609
342.04	0.606
342.25	0.605
342.46	0.600
342.67	0.600
342.88	0.600
343.09	0.598
343.30	0.597
343.50	0.597
343.71	0.598
343.92	0.598
344.13	0.597
344.34	0.596
344.55	0.596
344.76	0.598
344.97	0.595
345.18	0.595
345.38	0.595
345.59	0.599
345.80	0.600
346.01	0.604
346.22	0.606
346.43	0.606
346.64	0.605
346.85	0.605
347.06	0.606
347.26	0.606
347.47	0.604
347.68	0.608
347.89	0.604
348.10	0.606
348.31	0.600
348.52	0.598
348.73	0.597
348.93	0.599
349.14	0.599
349.35	0.599
349.56	0.599
349.77	0.600
349.98	0.599
350.19	0.601
350.39	0.600
350.60	0.604
350.81	0.600
351.02	0.601
351.23	0.599
351.44	0.598
351.65	0.598
351.86	0.600
352.06	0.597
352.27	0.594
352.48	0.595
352.69	0.594
352.90	0.591
353.11	0.592
353.31	0.592
353.52	0.595
353.73	0.597
353.94	0.593
354.15	0.592
354.36	0.592
354.57	0.594
354.77	0.592
354.98	0.592
355.19	0.593
355.40	0.594
355.61	0.593
355.82	0.590
356.02	0.589
356.23	0.588
356.44	0.588
356.65	0.586
356.86	0.584
357.07	0.585
357.27	0.583
357.48	0.581
357.69	0.582
357.90	0.582
358.11	0.583
358.32	0.582
358.52	0.582
358.73	0.583
358.94	0.583
359.15	0.585
359.36	0.583
359.56	0.585
359.77	0.585
359.98	0.583
360.19	0.583
360.40	0.584
360.61	0.585
360.81	0.585
361.02	0.584
361.23	0.585
361.44	0.586
361.65	0.586
361.85	0.586
362.06	0.588
362.27	0.588
362.48	0.587
362.69	0.584
362.89	0.585
363.10	0.587
363.31	0.587
363.52	0.586
363.73	0.583
363.93	0.585
364.14	0.585
364.35	0.582
364.56	0.586
364.77	0.586
364.97	0.586
365.18	0.584
365.39	0.585
365.60	0.584
365.81	0.584
366.01	0.584
366.22	0.582
366.43	0.581
366.64	0.582
366.84	0.578
367.05	0.578
367.26	0.577
367.47	0.579
367.68	0.577
367.88	0.578
368.09	0.578
368.30	0.578
368.51	0.579
368.71	0.577
368.92	0.576
369.13	0.578
369.34	0.579
369.55	0.579
369.75	0.578
369.96	0.577
370.17	0.578
370.38	0.579
370.58	0.579
370.79	0.577
371.00	0.578
371.21	0.580
371.41	0.577
371.62	0.576
371.83	0.578
372.04	0.577
372.24	0.578
372.45	0.576
372.66	0.574
372.87	0.577
373.07	0.578
373.28	0.579
373.49	0.576
373.70	0.577
373.90	0.576
374.11	0.574
374.32	0.574
374.53	0.574
374.73	0.576
374.94	0.575
375.15	0.574
375.36	0.573
375.56	0.572
375.77	0.572
375.98	0.571
376.19	0.571
376.39	0.574
376.60	0.573
376.81	0.571
377.02	0.570
377.22	0.573
377.43	0.573
377.64	0.574
377.84	0.573
378.05	0.573
378.26	0.572
378.47	0.573
378.67	0.571
378.88	0.571
379.09	0.571
379.30	0.570
379.50	0.568
379.71	0.566
379.92	0.564
380.12	0.565
380.33	0.568
380.54	0.569
380.75	0.567
380.95	0.567
381.16	0.569
381.37	0.569
381.57	0.569
381.78	0.570
381.99	0.569
382.20	0.571
382.40	0.572
382.61	0.570
382.82	0.569
383.02	0.572
383.23	0.571
383.44	0.571
383.64	0.572
383.85	0.571
384.06	0.570
384.27	0.571
384.47	0.572
384.68	0.571
384.89	0.570
385.09	0.571
385.30	0.571
385.51	0.572
385.71	0.570
385.92	0.568
386.13	0.567
386.33	0.568
386.54	0.568
386.75	0.566
386.95	0.567
387.16	0.568
387.37	0.568
387.58	0.567
387.78	0.566
387.99	0.568
388.20	0.567
388.40	0.569
388.61	0.567
388.82	0.568
389.02	0.567
389.23	0.565
389.44	0.565
389.64	0.566
389.85	0.563
390.06	0.563
390.26	0.561
390.47	0.562
390.68	0.562
390.88	0.564
391.09	0.561
391.30	0.563
391.50	0.564
391.71	0.564
391.92	0.562
392.12	0.563
392.33	0.563
392.53	0.563
392.74	0.563
392.95	0.561
393.15	0.560
393.36	0.560
393.57	0.560
393.77	0.559
393.98	0.559
394.19	0.559
394.39	0.559
394.60	0.558
394.81	0.559
395.01	0.560
395.22	0.560
395.43	0.559
395.63	0.558
395.84	0.556
396.04	0.558
396.25	0.556
396.46	0.556
396.66	0.556
396.87	0.555
397.08	0.556
397.28	0.556
397.49	0.556
397.69	0.557
397.90	0.558
398.11	0.558
398.31	0.556
398.52	0.556
398.73	0.557
398.93	0.558
399.14	0.558
399.34	0.557
399.55	0.557
399.76	0.557
399.96	0.555
400.17	0.556
400.37	0.556
400.58	0.555
400.79	0.555
400.99	0.553
401.20	0.552
401.41	0.553
401.61	0.552
401.82	0.550
402.02	0.551
402.23	0.553
402.44	0.552
402.64	0.551
402.85	0.551
403.05	0.551
403.26	0.552
403.47	0.552
403.67	0.552
403.88	0.552
404.08	0.551
404.29	0.551
404.50	0.551
404.70	0.550
404.91	0.551
405.11	0.551
405.32	0.552
405.52	0.553
405.73	0.553
405.94	0.553
406.14	0.552
406.35	0.552
406.55	0.552
406.76	0.551
406.97	0.551
407.17	0.551
407.38	0.552
407.58	0.551
407.79	0.549
407.99	0.548
408.20	0.547
408.41	0.548
408.61	0.549
408.82	0.548
409.02	0.548
409.23	0.549
409.43	0.548
409.64	0.546
409.84	0.548
410.05	0.548
410.26	0.549
410.46	0.549
410.67	0.550
410.87	0.549
411.08	0.548
411.28	0.547
411.49	0.546
411.69	0.546
411.90	0.547
412.11	0.547
412.31	0.547
412.52	0.546
412.72	0.546
412.93	0.545
413.13	0.545
413.34	0.546
413.54	0.547
413.75	0.548
413.95	0.549
414.16	0.548
414.37	0.547
414.57	0.548
414.78	0.548
414.98	0.548
415.19	0.548
415.39	0.548
415.60	0.548
415.80	0.546
416.01	0.545
416.21	0.544
416.42	0.544
416.62	0.544
416.83	0.543
417.03	0.543
417.24	0.543
417.44	0.542
417.65	0.543
417.86	0.543
418.06	0.544
418.27	0.544
418.47	0.544
418.68	0.544
418.88	0.543
419.09	0.543
419.29	0.544
419.50	0.544
419.70	0.546
419.91	0.545
420.11	0.545
420.32	0.544
420.52	0.545
420.73	0.544
420.93	0.544
421.14	0.546
421.34	0.546
421.55	0.546
421.75	0.546
421.96	0.545
422.16	0.545
422.37	0.544
422.57	0.545
422.78	0.544
422.98	0.545
423.19	0.546
423.39	0.546
423.60	0.545
423.80	0.544
424.01	0.544
424.21	0.544
424.42	0.543
424.62	0.544
424.83	0.543
425.03	0.543
425.23	0.542
425.44	0.541
425.64	0.539
425.85	0.539
426.05	0.539
426.26	0.538
426.46	0.538
426.67	0.538
426.87	0.537
427.08	0.536
427.28	0.536
427.49	0.536
427.69	0.536
427.90	0.537
428.10	0.539
428.31	0.539
428.51	0.541
428.71	0.541
428.92	0.541
429.12	0.543
429.33	0.543
429.53	0.543
429.74	0.543
429.94	0.544
430.15	0.545
430.35	0.542
430.56	0.542
430.76	0.541
430.96	0.542
431.17	0.542
431.37	0.543
431.58	0.543
431.78	0.543
431.99	0.544
432.19	0.543
432.40	0.543
432.60	0.545
432.80	0.545
433.01	0.545
433.21	0.544
433.42	0.544
433.62	0.544
433.83	0.545
434.03	0.545
434.23	0.544
434.44	0.544
434.64	0.543
434.85	0.542
435.05	0.543
435.26	0.543
435.46	0.544
435.66	0.544
435.87	0.544
436.07	0.543
436.28	0.544
436.48	0.546
436.69	0.548
436.89	0.548
437.09	0.548
437.30	0.548
437.50	0.547
437.71	0.545
437.91	0.545
438.11	0.546
438.32	0.545
438.52	0.543
438.73	0.543
438.93	0.543
439.13	0.543
439.34	0.544
439.54	0.542
439.75	0.544
439.95	0.546
440.15	0.546
440.36	0.545
440.56	0.546
440.77	0.547
440.97	0.547
441.17	0.546
441.38	0.546
441.58	0.547
441.79	0.547
441.99	0.547
442.19	0.546
442.40	0.546
442.60	0.546
442.81	0.546
443.01	0.545
443.21	0.545
443.42	0.546
443.62	0.545
443.82	0.544
444.03	0.545
444.23	0.545
444.44	0.544
444.64	0.546
444.84	0.548
445.05	0.548
445.25	0.548
445.45	0.547
445.66	0.546
445.86	0.547
446.06	0.546
446.27	0.545
446.47	0.544
446.68	0.545
446.88	0.544
447.08	0.543
447.29	0.542
447.49	0.543
447.69	0.542
447.90	0.542
448.10	0.541
448.30	0.541
448.51	0.541
448.71	0.542
448.91	0.541
449.12	0.543
449.32	0.541
449.52	0.541
449.73	0.539
449.93	0.540
450.14	0.540
450.34	0.541
450.54	0.540
450.75	0.541
450.95	0.540
451.15	0.540
451.36	0.539
451.56	0.541
451.76	0.541
451.97	0.544
452.17	0.544
452.37	0.545
452.58	0.546
452.78	0.548
452.98	0.549
453.19	0.550
453.39	0.549
453.59	0.550
453.79	0.549
454.00	0.549
454.20	0.548
454.40	0.549
454.61	0.549
454.81	0.548
455.01	0.547
455.22	0.547
455.42	0.547
455.62	0.547
455.83	0.546
456.03	0.545
456.23	0.545
456.44	0.544
456.64	0.544
456.84	0.543
457.04	0.544
457.25	0.546
457.45	0.546
457.65	0.547
457.86	0.549
458.06	0.550
458.26	0.552
458.47	0.552
458.67	0.552
458.87	0.551
459.07	0.551
459.28	0.548
459.48	0.547
459.68	0.546
459.89	0.544
460.09	0.544
460.29	0.543
460.49	0.542
460.70	0.542
460.90	0.542
461.10	0.542
461.31	0.544
461.51	0.545
461.71	0.546
461.91	0.546
462.12	0.548
462.32	0.548
462.52	0.548
462.72	0.548
462.93	0.547
463.13	0.546
463.33	0.547
463.53	0.547
463.74	0.548
463.94	0.547
464.14	0.548
464.35	0.548
464.55	0.547
464.75	0.549
464.95	0.549
465.16	0.549
465.36	0.550
465.56	0.549
465.76	0.550
465.97	0.550
466.17	0.549
466.37	0.548
466.57	0.546
466.78	0.547
466.98	0.545
467.18	0.545
467.38	0.545
467.59	0.545
467.79	0.545
467.99	0.544
468.19	0.543
468.39	0.543
468.60	0.543
468.80	0.543
469.00	0.542
469.20	0.543
469.41	0.544
469.61	0.544
469.81	0.544
470.01	0.545
470.22	0.545
470.42	0.546
470.62	0.547
470.82	0.547
471.02	0.549
471.23	0.548
471.43	0.548
471.63	0.548
471.83	0.550
472.04	0.549
472.24	0.548
472.44	0.547
472.64	0.548
472.84	0.548
473.05	0.547
473.25	0.546
473.45	0.547
473.65	0.547
473.85	0.545
474.06	0.544
474.26	0.544
474.46	0.543
474.66	0.545
474.86	0.544
475.07	0.544
475.27	0.545
475.47	0.546
475.67	0.545
475.87	0.544
476.08	0.544
476.28	0.545
476.48	0.546
476.68	0.547
476.88	0.547
477.09	0.545
477.29	0.545
477.49	0.545
477.69	0.546
477.89	0.546
478.09	0.547
478.30	0.546
478.50	0.546
478.70	0.545
478.90	0.545
479.10	0.545
479.31	0.545
479.51	0.545
479.71	0.545
479.91	0.544
480.11	0.543
480.31	0.542
480.52	0.543
480.72	0.543
480.92	0.542
481.12	0.542
481.32	0.543
481.52	0.544
481.72	0.543
481.93	0.542
482.13	0.543
482.33	0.545
482.53	0.545
482.73	0.547
482.93	0.546
483.14	0.547
483.34	0.546
483.54	0.547
483.74	0.547
483.94	0.547
484.14	0.547
484.34	0.547
484.55	0.546
484.75	0.545
484.95	0.543
485.15	0.544
485.35	0.543
485.55	0.544
485.75	0.543
485.96	0.542
486.16	0.542
486.36	0.543
486.56	0.543
486.76	0.544
486.96	0.545
487.16	0.546
487.36	0.547
487.57	0.547
487.77	0.547
487.97	0.547
488.17	0.547
488.37	0.548
488.57	0.548
488.77	0.549
488.97	0.548
489.18	0.547
489.38	0.546
489.58	0.545
489.78	0.546
489.98	0.546
490.18	0.547
490.38	0.547
490.58	0.546
490.78	0.547
490.98	0.546
491.19	0.546
491.39	0.546
491.59	0.547
491.79	0.546
491.99	0.545
492.19	0.546
492.39	0.545
492.59	0.545
492.79	0.544
492.99	0.544
493.20	0.543
493.40	0.543
493.60	0.542
493.80	0.543
494.00	0.544
494.20	0.544
494.40	0.543
494.60	0.543
494.80	0.542
495.00	0.542
495.20	0.543
495.40	0.543
495.61	0.542
495.81	0.542
496.01	0.541
496.21	0.541
496.41	0.542
496.61	0.542
496.81	0.543
497.01	0.543
497.21	0.543
497.41	0.543
497.61	0.543
497.81	0.544
498.01	0.545
498.21	0.545
498.41	0.546
498.61	0.545
498.82	0.545
499.02	0.544
499.22	0.544
499.42	0.544
499.62	0.544
499.82	0.546
500.02	0.545
500.22	0.545
500.42	0.545
500.62	0.545
500.82	0.545
501.02	0.545
501.22	0.545
501.42	0.546
501.62	0.545
501.82	0.544
502.02	0.544
502.22	0.543
502.42	0.544
502.62	0.544
502.82	0.544
503.02	0.545
503.22	0.545
503.42	0.545
503.63	0.545
503.83	0.545
504.03	0.546
504.23	0.546
504.43	0.548
504.63	0.547
504.83	0.547
505.03	0.547
505.23	0.546
505.43	0.546
505.63	0.546
505.83	0.546
506.03	0.546
506.23	0.545
506.43	0.544
506.63	0.544
506.83	0.545
507.03	0.545
507.23	0.544
507.43	0.545
507.63	0.545
507.83	0.546
508.03	0.546
508.23	0.547
508.43	0.548
508.63	0.548
508.83	0.548
509.03	0.547
509.23	0.548
509.43	0.549
509.63	0.549
509.83	0.549
510.03	0.549
510.23	0.546
510.43	0.546
510.63	0.545
510.83	0.545
511.03	0.545
511.23	0.546
511.43	0.544
511.63	0.543
511.83	0.542
512.03	0.543
512.22	0.544
512.42	0.546
512.62	0.547
512.82	0.548
513.02	0.548
513.22	0.548
513.42	0.548
513.62	0.548
513.82	0.549
514.02	0.549
514.22	0.548
514.42	0.549
514.62	0.547
514.82	0.545
515.02	0.545
515.22	0.545
515.42	0.546
515.62	0.544
515.82	0.546
516.02	0.546
516.22	0.546
516.42	0.548
516.62	0.546
516.82	0.546
517.01	0.547
517.21	0.548
517.41	0.548
517.61	0.549
517.81	0.550
518.01	0.550
518.21	0.551
518.41	0.552
518.61	0.551
518.81	0.552
519.01	0.552
519.21	0.553
519.41	0.553
519.61	0.554
519.81	0.555
520.00	0.556
520.20	0.555
520.40	0.554
520.60	0.553
520.80	0.554
521.00	0.554
521.20	0.553
521.40	0.552
521.60	0.552
521.80	0.552
522.00	0.550
522.20	0.547
522.39	0.548
522.59	0.549
522.79	0.551
522.99	0.550
523.19	0.552
523.39	0.553
523.59	0.555
523.79	0.554
523.99	0.553
524.19	0.552
524.38	0.553
524.58	0.554
524.78	0.554
524.98	0.552
525.18	0.552
525.38	0.551
525.58	0.550
525.78	0.549
525.98	0.549
526.18	0.549
526.37	0.551
526.57	0.550
526.77	0.550
526.97	0.549
527.17	0.549
527.37	0.550
527.57	0.549
527.77	0.549
527.96	0.549
528.16	0.551
528.36	0.552
528.56	0.551
528.76	0.553
528.96	0.553
529.16	0.554
529.36	0.553
529.55	0.554
529.75	0.556
529.95	0.557
530.15	0.556
530.35	0.555
530.55	0.554
530.75	0.553
530.94	0.554
531.14	0.555
531.34	0.555
531.54	0.557
531.74	0.555
531.94	0.553
532.13	0.554
532.33	0.555
532.53	0.555
532.73	0.557
532.93	0.557
533.13	0.556
533.33	0.555
533.52	0.555
533.72	0.554
533.92	0.556
534.12	0.558
534.32	0.558
534.52	0.556
534.71	0.556
534.91	0.554
535.11	0.556
535.31	0.555
535.51	0.555
535.71	0.555
535.90	0.555
536.10	0.553
536.30	0.551
536.50	0.552
536.70	0.553
536.89	0.552
537.09	0.554
537.29	0.553
537.49	0.553
537.69	0.553
537.89	0.554
538.08	0.555
538.28	0.555
538.48	0.555
538.68	0.555
538.88	0.555
539.07	0.556
539.27	0.555
539.47	0.556
539.67	0.557
539.87	0.557
540.06	0.556
540.26	0.556
540.46	0.556
540.66	0.557
540.86	0.558
541.05	0.559
541.25	0.559
541.45	0.561
541.65	0.559
541.84	0.560
542.04	0.559
542.24	0.560
542.44	0.560
542.64	0.561
542.83	0.560
543.03	0.559
543.23	0.561
543.43	0.560
543.62	0.561
543.82	0.561
544.02	0.559
544.22	0.560
544.42	0.559
544.61	0.561
544.81	0.562
545.01	0.562
545.21	0.560
545.40	0.558
545.60	0.558
545.80	0.557
546.00	0.556
546.19	0.558
546.39	0.557
546.59	0.559
546.79	0.558
546.98	0.559
547.18	0.558
547.38	0.558
547.58	0.559
547.77	0.559
547.97	0.560
548.17	0.561
548.37	0.561
548.56	0.563
548.76	0.562
548.96	0.561
549.16	0.559
549.35	0.562
549.55	0.563
549.75	0.563
549.95	0.563
550.14	0.564
550.34	0.564
550.54	0.563
550.73	0.561
550.93	0.562
551.13	0.564
551.33	0.564
551.52	0.563
551.72	0.563
551.92	0.563
552.12	0.565
552.31	0.563
552.51	0.564
552.71	0.564
552.90	0.565
553.10	0.563
553.30	0.562
553.50	0.563
553.69	0.563
553.89	0.563
554.09	0.563
554.28	0.561
554.48	0.561
554.68	0.560
554.87	0.560
555.07	0.562
555.27	0.562
555.47	0.562
555.66	0.562
555.86	0.563
556.06	0.563
556.25	0.566
556.45	0.566
556.65	0.569
556.84	0.569
557.04	0.570
557.24	0.569
557.43	0.569
557.63	0.571
557.83	0.572
558.02	0.572
558.22	0.571
558.42	0.570
558.61	0.572
558.81	0.571
559.01	0.570
559.21	0.568
559.40	0.568
559.60	0.569
559.80	0.568
559.99	0.568
560.19	0.566
560.39	0.569
560.58	0.569
560.78	0.569
560.97	0.568
561.17	0.569
561.37	0.570
561.56	0.570
561.76	0.570
561.96	0.570
562.15	0.569
562.35	0.569
562.55	0.566
562.74	0.567
562.94	0.565
563.14	0.566
563.33	0.567
563.53	0.566
563.73	0.567
563.92	0.567
564.12	0.566
564.31	0.565
564.51	0.564
564.71	0.565
564.90	0.564
565.10	0.565
565.30	0.565
565.49	0.565
565.69	0.564
565.89	0.565
566.08	0.566
566.28	0.565
566.47	0.565
566.67	0.567
566.87	0.569
567.06	0.569
567.26	0.568
567.46	0.569
567.65	0.567
567.85	0.568
568.04	0.567
568.24	0.566
568.44	0.566
568.63	0.568
568.83	0.568
569.02	0.567
569.22	0.568
569.42	0.570
569.61	0.568
569.81	0.569
570.00	0.567
570.20	0.566
570.40	0.566
570.59	0.565
570.79	0.563
570.98	0.562
571.18	0.561
571.38	0.561
571.57	0.561
571.77	0.562
571.96	0.560
572.16	0.562
572.35	0.562
572.55	0.562
572.75	0.563
572.94	0.563
573.14	0.562
573.33	0.562
573.53	0.561
573.73	0.560
573.92	0.561
574.12	0.562
574.31	0.561
574.51	0.561
574.70	0.560
574.90	0.559
575.09	0.559
575.29	0.559
575.49	0.558
575.68	0.559
575.88	0.559
576.07	0.557
576.27	0.556
576.46	0.556
576.66	0.556
576.86	0.557
577.05	0.558
577.25	0.560
577.44	0.559
577.64	0.559
577.83	0.560
578.03	0.560
578.22	0.560
578.42	0.561
578.61	0.561
578.81	0.560
579.00	0.559
579.20	0.559
579.40	0.557
579.59	0.558
579.79	0.559
579.98	0.558
580.18	0.557
580.37	0.557
580.57	0.557
580.76	0.557
580.96	0.557
581.15	0.558
581.35	0.557
581.54	0.558
581.74	0.557
581.93	0.557
582.13	0.556
582.32	0.557
582.52	0.556
582.71	0.556
582.91	0.557
583.10	0.558
583.30	0.557
583.49	0.558
583.69	0.557
583.88	0.557
584.08	0.557
584.27	0.557
584.47	0.556
584.66	0.557
584.86	0.557
585.05	0.556
585.25	0.556
585.44	0.557
585.64	0.557
585.83	0.558
586.03	0.558
586.22	0.559
586.42	0.559
586.61	0.559
586.81	0.559
587.00	0.559
587.20	0.558
587.39	0.558
587.59	0.558
587.78	0.558
587.98	0.557
588.17	0.557
588.37	0.557
588.56	0.556
588.76	0.557
588.95	0.557
589.15	0.558
589.34	0.559
589.54	0.559
589.73	0.560
589.92	0.560
590.12	0.561
590.31	0.562
590.51	0.563
590.70	0.564
590.90	0.563
591.09	0.564
591.29	0.563
591.48	0.562
591.68	0.562
591.87	0.562
592.06	0.562
592.26	0.562
592.45	0.561
592.65	0.559
592.84	0.559
593.04	0.559
593.23	0.559
593.43	0.559
593.62	0.560
593.81	0.559
594.01	0.559
594.20	0.559
594.40	0.560
594.59	0.560
594.79	0.560
594.98	0.560
595.17	0.560
595.37	0.562
595.56	0.561
595.76	0.563
595.95	0.564
596.14	0.563
596.34	0.563
596.53	0.562
596.73	0.562
596.92	0.562
597.12	0.561
597.31	0.560
597.50	0.558
597.70	0.557
597.89	0.556
598.09	0.556
598.28	0.555
598.47	0.553
598.67	0.553
598.86	0.554
599.06	0.554
599.25	0.553
599.44	0.554
599.64	0.553
599.83	0.555
600.03	0.553
600.22	0.552
600.41	0.552
600.61	0.553
600.80	0.553
601.00	0.552
601.19	0.552
601.38	0.553
601.58	0.553
601.77	0.555
601.96	0.553
602.16	0.554
602.35	0.555
602.55	0.557
602.74	0.556
602.93	0.557
603.13	0.557
603.32	0.557
603.51	0.558
603.71	0.558
603.90	0.556
604.09	0.557
604.29	0.556
604.48	0.557
604.68	0.556
604.87	0.557
605.06	0.557
605.26	0.557
605.45	0.555
605.64	0.555
605.84	0.555
606.03	0.555
606.22	0.555
606.42	0.556
606.61	0.556
606.80	0.557
607.00	0.557
607.19	0.556
607.38	0.557
607.58	0.559
607.77	0.559
607.96	0.559
608.16	0.561
608.35	0.560
608.54	0.561
608.74	0.561
608.93	0.560
609.12	0.558
609.32	0.559
609.51	0.558
609.70	0.557
609.90	0.557
610.09	0.557
610.28	0.555
610.48	0.557
610.67	0.558
610.86	0.559
611.06	0.559
611.25	0.559
611.44	0.559
611.64	0.561
611.83	0.561
612.02	0.561
612.21	0.562
612.41	0.562
612.60	0.563
612.79	0.561
612.99	0.561
613.18	0.561
613.37	0.562
613.57	0.564
613.76	0.562
613.95	0.563
614.14	0.562
614.34	0.562
614.53	0.562
614.72	0.560
614.92	0.562
615.11	0.562
615.30	0.563
615.49	0.564
615.69	0.562
615.88	0.564
616.07	0.564
616.26	0.566
616.46	0.567
616.65	0.569
616.84	0.572
617.04	0.571
617.23	0.570
617.42	0.569
617.61	0.567
617.81	0.567
618.00	0.568
618.19	0.568
618.38	0.566
618.58	0.568
618.77	0.568
618.96	0.567
619.15	0.569
619.35	0.572
619.54	0.573
619.73	0.574
619.92	0.575
620.12	0.573
620.31	0.574
620.50	0.573
620.69	0.572
620.89	0.572
621.08	0.574
621.27	0.569
621.46	0.569
621.66	0.568
621.85	0.568
622.04	0.570
622.23	0.573
622.43	0.572
622.62	0.573
622.81	0.571
623.00	0.571
623.19	0.568
623.39	0.569
623.58	0.568
623.77	0.570
623.96	0.570
624.16	0.570
624.35	0.570
624.54	0.570
624.73	0.568
624.92	0.571
625.12	0.570
625.31	0.570
625.50	0.569
625.69	0.569
625.88	0.570
626.08	0.571
626.27	0.571
626.46	0.571
626.65	0.569
626.84	0.569
627.04	0.567
627.23	0.570
627.42	0.571
627.61	0.572
627.80	0.570
628.00	0.571
628.19	0.569
628.38	0.566
628.57	0.566
628.76	0.568
628.96	0.569
629.15	0.570
629.34	0.572
629.53	0.573
629.72	0.575
629.91	0.577
630.11	0.574
630.30	0.575
630.49	0.575
630.68	0.575
630.87	0.577
631.06	0.577
631.26	0.578
631.45	0.577
631.64	0.575
631.83	0.575
632.02	0.576
632.21	0.578
632.41	0.579
632.60	0.581
632.79	0.581
632.98	0.580
633.17	0.582
633.36	0.581
633.55	0.581
633.75	0.586
633.94	0.586
634.13	0.584
634.32	0.585
634.51	0.587
634.70	0.586
634.89	0.587
635.09	0.587
635.28	0.585
635.47	0.587
635.66	0.583
635.85	0.583
636.04	0.585
636.23	0.586
636.43	0.584
636.62	0.585
636.81	0.585
637.00	0.583
637.19	0.581
637.38	0.584
637.57	0.585
637.76	0.590
637.95	0.586
638.15	0.584
638.34	0.585
638.53	0.586
638.72	0.583
638.91	0.585
639.10	0.587
639.29	0.589
639.48	0.586
639.67	0.584
639.87	0.583
640.06	0.588
640.25	0.590
640.44	0.585
640.63	0.587
640.82	0.589
641.01	0.590
641.20	0.591
641.39	0.593
641.58	0.596
641.78	0.596
641.97	0.597
642.16	0.592
642.35	0.590
642.54	0.591
642.73	0.591
642.92	0.590
643.11	0.590
643.30	0.590
643.49	0.588
643.68	0.586
643.87	0.586
644.06	0.584
644.25	0.589
644.45	0.593
644.64	0.597
644.83	0.595
645.02	0.597
645.21	0.596
645.40	0.592
645.59	0.595
645.78	0.595
645.97	0.596
646.16	0.593
646.35	0.590
646.54	0.585
646.73	0.582
646.92	0.584
647.11	0.582
647.30	0.582
647.49	0.581
647.68	0.580
647.88	0.579
648.07	0.582
648.26	0.581
648.45	0.578
648.64	0.582
648.83	0.580
649.02	0.577
649.21	0.573
649.40	0.572
649.59	0.572
649.78	0.574
649.97	0.571
650.16	0.567
650.35	0.567
650.54	0.569
650.73	0.564
650.92	0.566
651.11	0.569
651.30	0.570
651.49	0.569
651.68	0.570
651.87	0.569
652.06	0.571
652.25	0.574
652.44	0.577
652.63	0.576
652.82	0.576
653.01	0.574
653.20	0.569
653.39	0.569
653.58	0.566
653.77	0.562
653.96	0.560
654.15	0.558
654.34	0.554
654.53	0.552
654.72	0.550
654.91	0.551
655.10	0.550
655.29	0.550
655.48	0.549
655.67	0.549
655.86	0.549
656.05	0.548
656.24	0.548
656.43	0.548
656.62	0.548
656.81	0.547
657.00	0.545
657.19	0.546
657.38	0.545
657.57	0.546
657.76	0.546
657.95	0.549
658.14	0.550
658.33	0.552
658.51	0.553
658.70	0.554
658.89	0.557
659.08	0.560
659.27	0.559
659.46	0.562
659.65	0.563
659.84	0.567
660.03	0.568
660.22	0.568
660.41	0.567
660.60	0.572
660.79	0.574
660.98	0.574
661.17	0.573
661.36	0.575
661.55	0.576
661.74	0.573
661.92	0.570
662.11	0.571
662.30	0.570
662.49	0.572
662.68	0.570
662.87	0.566
663.06	0.568
663.25	0.567
663.44	0.565
663.63	0.564
663.82	0.565
664.01	0.564
664.20	0.564
664.38	0.565
664.57	0.562
664.76	0.558
664.95	0.558
665.14	0.556
665.33	0.560
665.52	0.558
665.71	0.555
665.90	0.558
666.09	0.558
666.28	0.557
666.46	0.552
666.65	0.552
666.84	0.556
667.03	0.559
667.22	0.559
667.41	0.557
667.60	0.560
667.79	0.560
667.98	0.557
668.16	0.555
668.35	0.554
668.54	0.559
668.73	0.558
668.92	0.558
669.11	0.556
669.30	0.558
669.49	0.559
669.67	0.560
669.86	0.559
670.05	0.558
670.24	0.558
670.43	0.560
670.62	0.559
670.81	0.558
671.00	0.556
671.18	0.553
671.37	0.552
671.56	0.550
671.75	0.548
671.94	0.551
672.13	0.553
672.32	0.554
672.50	0.553
672.69	0.553
672.88	0.552
673.07	0.552
673.26	0.554
673.45	0.552
673.63	0.552
673.82	0.554
674.01	0.551
674.20	0.550
674.39	0.551
674.58	0.551
674.76	0.554
674.95	0.556
675.14	0.557
675.33	0.557
675.52	0.558
675.71	0.559
675.89	0.558
676.08	0.560
676.27	0.560
676.46	0.560
676.65	0.559
676.84	0.556
677.02	0.554
677.21	0.552
677.40	0.552
677.59	0.552
677.78	0.550
677.96	0.547
678.15	0.547
678.34	0.548
678.53	0.546
678.72	0.543
678.90	0.545
679.09	0.546
679.28	0.548
679.47	0.548
679.66	0.547
679.84	0.549
680.03	0.550
680.22	0.550
680.41	0.548
680.60	0.549
680.78	0.550
680.97	0.550
681.16	0.549
681.35	0.547
681.53	0.546
681.72	0.546
681.91	0.543
682.10	0.543
682.29	0.542
682.47	0.542
682.66	0.542
682.85	0.541
683.04	0.541
683.22	0.538
683.41	0.538
683.60	0.538
683.79	0.537
683.97	0.536
684.16	0.536
684.35	0.537
684.54	0.537
684.72	0.536
684.91	0.536
685.10	0.535
685.29	0.536
685.47	0.536
685.66	0.538
685.85	0.537
686.04	0.538
686.22	0.536
686.41	0.534
686.60	0.533
686.79	0.532
686.97	0.531
687.16	0.530
687.35	0.530
687.54	0.528
687.72	0.526
687.91	0.527
688.10	0.526
688.29	0.527
688.47	0.527
688.66	0.528
688.85	0.528
689.03	0.530
689.22	0.528
689.41	0.529
689.60	0.530
689.78	0.532
689.97	0.531
690.16	0.532
690.34	0.533
690.53	0.533
690.72	0.530
690.91	0.530
691.09	0.531
691.28	0.532
691.47	0.534
691.65	0.534
691.84	0.533
692.03	0.533
692.21	0.533
692.40	0.531
692.59	0.532
692.77	0.533
692.96	0.533
693.15	0.531
693.34	0.530
693.52	0.529
693.71	0.528
693.90	0.527
694.08	0.525
694.27	0.526
694.46	0.525
694.64	0.524
694.83	0.523
695.02	0.524
695.20	0.526
695.39	0.527
695.58	0.525
695.76	0.525
695.95	0.524
696.14	0.524
696.32	0.522
696.51	0.523
696.70	0.522
696.88	0.521
697.07	0.519
697.26	0.517
697.44	0.516
697.63	0.517
697.81	0.516
698.00	0.518
698.19	0.517
698.37	0.518
698.56	0.517
698.75	0.518
698.93	0.518
699.12	0.520
699.31	0.519
699.49	0.518
699.68	0.518
699.87	0.518
700.05	0.516
700.24	0.516
700.42	0.515
700.61	0.516
700.80	0.516
700.98	0.516
701.17	0.515
701.36	0.515
701.54	0.514
701.73	0.513
701.91	0.513
702.10	0.512
702.29	0.514
702.47	0.515
702.66	0.516
702.84	0.515
703.03	0.514
703.22	0.514
703.40	0.514
703.59	0.515
703.77	0.514
703.96	0.516
704.15	0.517
704.33	0.516
704.52	0.513
704.70	0.512
704.89	0.512
705.08	0.514
705.26	0.514
705.45	0.512
705.63	0.511
705.82	0.512
706.00	0.511
706.19	0.510
706.38	0.509
706.56	0.509
706.75	0.509
706.93	0.509
707.12	0.507
707.30	0.506
707.49	0.506
707.68	0.507
707.86	0.505
708.05	0.504
708.23	0.504
708.42	0.503
708.60	0.502
708.79	0.501
708.98	0.501
709.16	0.500
709.35	0.501
709.53	0.500
709.72	0.500
709.90	0.499
710.09	0.499
710.27	0.498
710.46	0.496
710.64	0.496
710.83	0.495
711.02	0.495
711.20	0.496
711.39	0.496
711.57	0.495
711.76	0.493
711.94	0.495
712.13	0.495
712.31	0.495
712.50	0.497
712.68	0.498
712.87	0.498
713.05	0.497
713.24	0.495
713.42	0.494
713.61	0.495
713.79	0.495
713.98	0.494
714.16	0.492
714.35	0.492
714.54	0.492
714.72	0.491
714.91	0.491
715.09	0.489
715.28	0.487
715.46	0.486
715.65	0.486
715.83	0.485
716.02	0.485
716.20	0.486
716.39	0.486
716.57	0.485
716.76	0.484
716.94	0.484
717.12	0.484
717.31	0.484
717.49	0.484
717.68	0.482
717.86	0.481
718.05	0.478
718.23	0.476
718.42	0.474
718.60	0.470
718.79	0.469
718.97	0.466
719.16	0.466
719.34	0.465
719.53	0.464
719.71	0.465
719.90	0.464
720.08	0.463
720.27	0.462
720.45	0.461
720.63	0.462
720.82	0.460
721.00	0.460
721.19	0.459
721.37	0.460
721.56	0.457
721.74	0.456
721.93	0.453
722.11	0.452
722.30	0.453
722.48	0.451
722.66	0.450
722.85	0.450
723.03	0.448
723.22	0.448
723.40	0.449
723.59	0.450
723.77	0.447
723.95	0.448
724.14	0.446
724.32	0.444
724.51	0.443
724.69	0.445
724.88	0.446
725.06	0.446
725.24	0.445
725.43	0.444
725.61	0.445
725.80	0.448
725.98	0.450
726.16	0.450
726.35	0.449
726.53	0.448
726.72	0.445
726.90	0.441
727.09	0.440
727.27	0.436
727.45	0.434
727.64	0.426
727.82	0.422
728.01	0.415
728.19	0.416
728.37	0.413
728.56	0.409
728.74	0.406
728.92	0.407
729.11	0.407
729.29	0.407
729.48	0.405
729.66	0.408
729.84	0.406
730.03	0.405
730.21	0.401
730.40	0.401
730.58	0.403
730.76	0.403
730.95	0.399
731.13	0.396
731.31	0.391
731.50	0.384
731.68	0.381
731.86	0.381
732.05	0.375
732.23	0.373
732.42	0.373
732.60	0.367
732.78	0.363
732.97	0.356
733.15	0.351
733.33	0.350
733.52	0.348
733.70	0.345
733.88	0.338
734.07	0.338
734.25	0.332
734.43	0.330
734.62	0.330
734.80	0.330
734.98	0.331
735.17	0.328
735.35	0.327
735.53	0.330
735.72	0.324
735.90	0.322
736.08	0.319
736.27	0.319
736.45	0.316
736.63	0.317
736.82	0.312
737.00	0.310
737.18	0.311
737.37	0.304
737.55	0.299
737.73	0.299
737.92	0.298
738.10	0.303
738.28	0.301
738.46	0.297
738.65	0.292
738.83	0.294
739.01	0.291
739.20	0.289
739.38	0.290
739.56	0.294
739.75	0.296
739.93	0.302
740.11	0.295
740.29	0.295
740.48	0.297
740.66	0.300
740.84	0.301
741.03	0.306
741.21	0.307
741.39	0.316
741.57	0.316
741.76	0.317
741.94	0.314
742.12	0.321
742.31	0.325
742.49	0.328
742.67	0.327
742.85	0.319
743.04	0.326
743.22	0.328
743.40	0.317
743.58	0.322
743.77	0.323
743.95	0.330
744.13	0.323
744.31	0.323
744.50	0.317
744.68	0.316
744.86	0.320
745.04	0.311
745.23	0.310
745.41	0.312
745.59	0.308
745.77	0.313
745.96	0.314
746.14	0.315
746.32	0.324
746.50	0.324
746.69	0.331
746.87	0.337
747.05	0.340
747.23	0.354
747.42	0.361
747.60	0.358
747.78	0.352
747.96	0.338
748.14	0.341
748.33	0.335
748.51	0.338
748.69	0.343
748.87	0.339
749.06	0.342
749.24	0.330
749.42	0.325
749.60	0.327
749.78	0.328
749.97	0.337
750.15	0.343
750.33	0.338
750.51	0.336
750.69	0.326
750.88	0.319
751.06	0.318
751.24	0.317
751.42	0.322
751.60	0.319
751.79	0.313
751.97	0.317
752.15	0.312
752.33	0.316
752.51	0.309
752.69	0.316
752.88	0.318
753.06	0.312
753.24	0.315
753.42	0.310
753.60	0.301
753.78	0.310
753.97	0.299
754.15	0.302
754.33	0.297
754.51	0.305
754.69	0.300
754.87	0.297
755.06	0.302
755.24	0.295
755.42	0.298
755.60	0.309
755.78	0.298
755.96	0.299
756.15	0.297
756.33	0.296
756.51	0.287
756.69	0.290
756.87	0.295
757.05	0.291
757.23	0.293
757.42	0.290
757.60	0.288
757.78	0.293
757.96	0.294
758.14	0.291
758.32	0.291
758.50	0.289
758.69	0.285
758.87	0.285
759.05	0.284
759.23	0.283
759.41	0.281
759.59	0.282
759.77	0.279
759.95	0.279
760.13	0.273
760.32	0.272
760.50	0.274
760.68	0.271
760.86	0.271
761.04	0.271
761.22	0.275
761.40	0.270
761.58	0.265
761.76	0.265
761.95	0.260
762.13	0.266
762.31	0.266
762.49	0.269
762.67	0.266
762.85	0.268
763.03	0.272
763.21	0.272
763.39	0.274
763.57	0.277
763.75	0.279
763.94	0.284
764.12	0.281
764.30	0.280
764.48	0.279
764.66	0.287
764.84	0.284
765.02	0.278
765.20	0.273
765.38	0.276
765.56	0.277
765.74	0.272
765.92	0.272
766.10	0.272
766.28	0.273
766.46	0.272
766.65	0.272
766.83	0.271
767.01	0.273
767.19	0.275
767.37	0.275
767.55	0.277
767.73	0.279
767.91	0.281
768.09	0.286
768.27	0.285
768.45	0.288
768.63	0.284
768.81	0.283
768.99	0.284
769.17	0.283
769.35	0.281
769.53	0.278
769.71	0.280
769.89	0.279
770.07	0.280
770.25	0.285
770.43	0.292
770.61	0.292
770.79	0.291
770.97	0.290
771.15	0.291
771.33	0.292
771.51	0.295
771.69	0.293
771.87	0.291
772.05	0.290
772.24	0.288
772.42	0.282
772.60	0.282
772.78	0.281
772.96	0.282
773.14	0.287
773.32	0.294
773.49	0.293
773.67	0.294
773.85	0.297
774.03	0.297
774.21	0.295
774.39	0.303
774.57	0.303
774.75	0.308
774.93	0.309
775.11	0.306
775.29	0.301
775.47	0.298
775.65	0.301
775.83	0.307
776.01	0.305
776.19	0.313
776.37	0.312
776.55	0.316
776.73	0.316
776.91	0.316
777.09	0.320
777.27	0.327
777.45	0.336
777.63	0.341
777.81	0.340
777.99	0.343
778.17	0.343
778.35	0.345
778.53	0.351
778.71	0.352
778.89	0.354
779.07	0.356
779.24	0.354
779.42	0.347
779.60	0.340
779.78	0.333
779.96	0.330
780.14	0.330
780.32	0.322
780.50	0.319
780.68	0.318
780.86	0.321
781.04	0.315
781.22	0.309
781.40	0.307
781.58	0.310
781.75	0.314
781.93	0.318
782.11	0.316
782.29	0.319
782.47	0.320
782.65	0.324
782.83	0.321
783.01	0.326
783.19	0.329
783.37	0.332
783.55	0.331
783.72	0.332
783.90	0.326
784.08	0.327
784.26	0.335
784.44	0.331
784.62	0.331
784.80	0.335
784.98	0.332
785.16	0.339
785.33	0.338
785.51	0.345
785.69	0.347
785.87	0.356
786.05	0.354
786.23	0.346
786.41	0.354
786.59	0.354
786.77	0.355
786.94	0.355
787.12	0.350
787.30	0.350
787.48	0.345
787.66	0.348
787.84	0.343
788.02	0.349
788.19	0.350
788.37	0.347
788.55	0.343
788.73	0.343
788.91	0.347
789.09	0.349
789.27	0.357
789.44	0.361
789.62	0.358
789.80	0.356
789.98	0.352
790.16	0.358
790.34	0.361
790.51	0.367
790.69	0.367
790.87	0.371
791.05	0.377
791.23	0.372
791.41	0.369
791.58	0.367
791.76	0.376
791.94	0.379
792.12	0.376
792.30	0.374
792.48	0.374
792.65	0.371
792.83	0.365
793.01	0.362
793.19	0.366
793.37	0.367
793.54	0.371
793.72	0.365
793.90	0.365
794.08	0.366
794.26	0.370
794.43	0.370
794.61	0.380
794.79	0.379
794.97	0.383
795.15	0.382
795.32	0.381
795.50	0.385
795.68	0.391
795.86	0.392
796.04	0.395
796.21	0.397
796.39	0.397
796.57	0.392
796.75	0.396
796.92	0.391
797.10	0.392
797.28	0.401
797.46	0.399
797.64	0.396
797.81	0.397
797.99	0.395
798.17	0.395
798.35	0.396
798.52	0.395
798.70	0.397
798.88	0.398
799.06	0.397
799.23	0.393
799.41	0.392
799.59	0.396
799.77	0.397
799.94	0.396
800.12	0.396
800.30	0.391
800.48	0.393
800.65	0.399
800.83	0.405
801.01	0.409
801.19	0.407
801.36	0.410
801.54	0.414
801.72	0.412
801.90	0.416
802.07	0.416
802.25	0.423
802.43	0.433
802.60	0.430
802.78	0.426
802.96	0.431
803.14	0.439
803.31	0.436
803.49	0.435
803.67	0.439
803.84	0.434
804.02	0.437
804.20	0.436
804.38	0.429
804.55	0.428
804.73	0.432
804.91	0.431
805.08	0.424
805.26	0.428
805.44	0.416
805.61	0.416
805.79	0.422
805.97	0.421
806.15	0.422
806.32	0.427
806.50	0.430
806.68	0.428
806.85	0.421
807.03	0.427
807.21	0.420
807.38	0.428
807.56	0.434
807.74	0.428
807.91	0.432
808.09	0.430
808.27	0.423
808.44	0.418
808.62	0.418
808.80	0.426
808.97	0.426
809.15	0.428
809.33	0.427
809.50	0.422
809.68	0.428
809.86	0.424
810.03	0.418
810.21	0.425
810.39	0.426
810.56	0.423
810.74	0.416
810.91	0.408
811.09	0.414
811.27	0.413
811.44	0.415
811.62	0.417
811.80	0.419
811.97	0.427
812.15	0.430
812.33	0.430
812.50	0.439
812.68	0.442
812.85	0.451
813.03	0.449
813.21	0.456
813.38	0.462
813.56	0.458
813.74	0.453
813.91	0.447
814.09	0.439
814.26	0.444
814.44	0.436
814.62	0.436
814.79	0.435
814.97	0.435
815.14	0.433
815.32	0.411
815.50	0.407
815.67	0.412
815.85	0.417
816.02	0.417
816.20	0.412
816.38	0.417
816.55	0.417
816.73	0.414
816.90	0.411
817.08	0.407
817.26	0.422
817.43	0.431
817.61	0.424
817.78	0.419
817.96	0.429
818.13	0.431
818.31	0.427
818.49	0.427
818.66	0.435
818.84	0.437
819.01	0.442
819.19	0.443
819.36	0.442
819.54	0.448
819.71	0.447
819.89	0.440
820.07	0.438
820.24	0.430
820.42	0.434
820.59	0.429
820.77	0.426
820.94	0.425
821.12	0.421
821.29	0.417
821.47	0.423
821.64	0.429
821.82	0.429
822.00	0.428
822.17	0.439
822.35	0.435
822.52	0.436
822.70	0.442
822.87	0.443
823.05	0.448
823.22	0.450
823.40	0.446
823.57	0.443
823.75	0.454
823.92	0.454
824.10	0.449
824.27	0.442
824.45	0.448
824.62	0.438
824.80	0.435
824.97	0.437
825.15	0.431
825.32	0.428
825.50	0.427
825.67	0.414
825.85	0.414
826.02	0.415
826.20	0.417
826.37	0.401
826.55	0.417
826.72	0.412
826.90	0.402
827.07	0.397
827.25	0.398
827.42	0.393
827.60	0.392
827.77	0.390
827.95	0.394
828.12	0.397
828.30	0.410
828.47	0.392
828.65	0.399
828.82	0.413
829.00	0.422
829.17	0.425
829.34	0.430
829.52	0.434
829.69	0.420
829.87	0.423
830.04	0.417
830.22	0.411
830.39	0.413
830.57	0.420
830.74	0.407
830.92	0.398
831.09	0.376
831.26	0.387
831.44	0.384
831.61	0.409
831.79	0.394
831.96	0.391
832.14	0.419
832.31	0.411
832.49	0.400
832.66	0.406
832.83	0.437
833.01	0.468
833.18	0.491
833.36	0.479
833.53	0.464
833.70	0.463
833.88	0.488
834.05	0.450
834.23	0.487
834.40	0.492
834.58	0.476
834.75	0.452
834.92	0.430
835.10	0.409
835.27	0.436
835.45	0.446
835.62	0.464
835.79	0.449
835.97	0.463
836.14	0.463
836.32	0.478
836.49	0.531
836.66	0.515
836.84	0.510
837.01	0.503
837.18	0.490
837.36	0.527
837.53	0.520
837.71	0.561
837.88	0.579
838.05	0.529
838.23	0.528
838.40	0.523
838.58	0.547
838.75	0.563
838.92	0.604
839.10	0.629
839.27	0.588
839.44	0.609
839.62	0.562
839.79	0.516
839.96	0.538
840.14	0.515
840.31	0.512
840.48	0.548
840.66	0.577
840.83	0.520
841.01	0.527
841.18	0.588
841.35	0.535
841.53	0.556
841.70	0.564
841.87	0.580
842.05	0.609
842.22	0.570
842.39	0.521
842.57	0.551
842.74	0.568
842.91	0.527
843.09	0.476
843.26	0.482
843.43	0.505
843.60	0.520
843.78	0.498
843.95	0.504
844.12	0.544
844.30	0.546
844.47	0.533
844.64	0.538
844.82	0.571
844.99	0.562
845.16	0.562
845.34	0.598
845.51	0.607
845.68	0.636
845.85	0.601
846.03	0.568
846.20	0.630
846.37	0.660
846.55	0.647
846.72	0.631
846.89	0.657
847.06	0.664
847.24	0.669
847.41	0.662
847.58	0.669
847.76	0.694
847.93	0.638
848.10	0.616
848.27	0.605
848.45	0.736
848.62	0.739
848.79	0.850
848.97	1.063
849.14	0.801
849.31	0.849
849.48	1.078
849.66	1.439
849.83	1.577
850.00	1.193
850.17	0.897
850.35	0.734
850.52	0.781
850.69	0.735
850.86	0.648
851.04	0.681
851.21	0.764
851.38	0.671
851.55	0.696
851.72	0.691
851.90	0.710
852.07	0.739
852.24	0.881
852.41	0.769
852.59	0.714
852.76	0.711
852.93	0.696
853.10	0.582
853.28	0.670
853.45	0.568
853.62	0.594
853.79	0.591
853.96	0.653
854.14	0.609
854.31	0.708
854.48	0.738
854.65	0.743
854.82	0.811
855.00	1.027
855.17	0.816
855.34	0.877
855.51	0.905
855.68	1.089
855.86	0.897
856.03	0.910
856.20	0.808
856.37	0.797
856.54	0.881
856.72	0.830
856.89	0.879
857.06	1.030
857.23	0.995
857.40	0.951
857.57	1.170
857.75	1.782
857.92	1.461
858.09	-0.000
858.26	-0.000
858.43	-0.000
858.60	-0.000
858.78	-0.000
858.95	-0.000
859.12	-0.000
859.29	-0.000
859.46	-0.000
859.63	-0.000
859.81	-0.000
859.98	-0.000
860.15	-0.000
860.32	-0.000
860.49	-0.000
860.66	-0.000
860.83	-0.000
861.01	-0.000
861.18	-0.000
861.35	-0.000
861.52	-0.000
861.69	-0.000
861.86	-0.000
862.03	-0.000
862.21	-0.000
862.38	-0.000
862.55	-0.000
862.72	-0.000
862.89	-0.000
863.06	-0.000
863.23	-0.000
863.40	-0.000
863.58	-0.000
863.75	-0.000
863.92	-0.000
864.09	-0.000
864.26	-0.000
864.43	-0.000
864.60	-0.000
864.77	-0.000
864.94	-0.000
865.11	-0.000
865.29	-0.000
865.46	-0.000
865.63	-0.000
865.80	-0.000
865.97	-0.000
866.14	-0.000
866.31	-0.000
866.48	-0.000
866.65	-0.000
866.82	-0.000
866.99	-0.000
867.16	-0.000
867.34	-0.000
867.51	-0.000
867.68	-0.000
867.85	-0.000
868.02	-0.000
868.19	-0.000
868.36	-0.000
868.53	-0.000
868.70	-0.000
868.87	-0.000
869.04	-0.000
869.21	-0.000
869.38	-0.000
869.55	-0.000
869.72	-0.000
869.89	-0.000
870.06	-0.000
870.24	-0.000
870.41	-0.000
870.58	-0.000
870.75	-0.000
870.92	-0.000
871.09	-0.000
871.26	-0.000
871.43	-0.000
871.60	-0.000
871.77	-0.000
871.94	-0.000
872.11	-0.000
872.28	-0.000
872.45	-0.000
872.62	-0.000
872.79	-0.000
872.96	-0.000
873.13	-0.000
873.30	-0.000
873.47	-0.000
873.64	-0.000
873.81	-0.000
873.98	-0.000
874.15	-0.000
874.32	-0.000
874.49	-0.000
874.66	-0.000
874.83	-0.000
875.00	-0.000
875.17	-0.000
875.34	-0.000
875.51	-0.000
875.68	-0.000
875.85	-0.000
876.02	-0.000
876.19	-0.000
876.36	-0.000
876.53	-0.000
876.70	-0.000
876.87	-0.000
877.04	-0.000
877.21	-0.000
877.38	-0.000
877.55	-0.000
877.72	-0.000
877.89	-0.000
878.06	-0.000
878.23	-0.000
878.39	-0.000
878.56	-0.000
878.73	-0.000
878.90	-0.000
879.07	-0.000
879.24	-0.000
879.41	-0.000
879.58	-0.000
879.75	-0.000
879.92	-0.000
880.09	-0.000
880.26	-0.000
880.43	-0.000
880.60	-0.000
880.77	-0.000
880.94	-0.000
881.11	-0.000
881.27	-0.000
881.44	-0.000
881.61	-0.000
881.78	-0.000
881.95	-0.000
882.12	-0.000
882.29	-0.000
882.46	-0.000
882.63	-0.000
882.80	-0.000
882.97	-0.000
883.14	-0.000
883.30	-0.000
883.47	-0.000
883.64	-0.000
883.81	-0.000
883.98	-0.000
884.15	-0.000
884.32	-0.000
884.49	-0.000
884.66	-0.000
884.82	-0.000
884.99	-0.000
885.16	-0.000
885.33	-0.000
885.50	-0.000
885.67	-0.000
885.84	-0.000
886.01	-0.000
886.17	-0.000
886.34	-0.000
886.51	-0.000
886.68	-0.000
886.85	-0.000
887.02	-0.000
887.19	-0.000
887.36	-0.000
887.52	-0.000
887.69	-0.000
887.86	-0.000
888.03	-0.000
888.20	-0.000
888.37	-0.000
888.54	-0.000
888.70	-0.000
888.87	-0.000
889.04	-0.000
889.21	-0.000
889.38	-0.000
889.55	-0.000
889.71	-0.000
889.88	-0.000
890.05	-0.000
890.22	-0.000
890.39	-0.000
>>>>>End Processed Spectral Data<<<<<
