SpectraSuite Data File
++++++++++++++++++++++++++++++++++++
Date: Fri Jun 19 12:54:25 CEST 2015
User: introlabs
Dark Spectrum Present: Yes
Reference Spectrum Present: Yes
Number of Sampled Component Spectra: 1
Spectrometers: USB4H08886
Integration Time (usec): 745692 (USB4H08886)
Spectra Averaged: 5 (USB4H08886)
Boxcar Smoothing: 5 (USB4H08886)
Correct for Electrical Dark: Yes (USB4H08886)
Strobe/Lamp Enabled: No (USB4H08886)
Correct for Detector Non-linearity: Yes (USB4H08886)
Correct for Stray Light: Yes (USB4H08886)
Number of Pixels in Processed Spectrum: 3648
>>>>>Begin Processed Spectral Data<<<<<
178.14	-0.000
178.36	-0.000
178.57	-0.000
178.79	-0.000
179.01	-0.000
179.22	-0.000
179.44	-0.000
179.65	-0.000
179.87	-0.000
180.08	-0.000
180.30	-0.000
180.52	-0.000
180.73	-0.000
180.95	-0.000
181.16	-0.000
181.38	-0.000
181.59	-0.000
181.81	-0.000
182.03	-0.000
182.24	-0.000
182.46	-0.000
182.67	-0.000
182.89	-0.000
183.10	-0.000
183.32	-0.000
183.54	-0.000
183.75	-0.000
183.97	-0.000
184.18	-0.000
184.40	-0.000
184.61	-0.000
184.83	-0.000
185.04	-0.000
185.26	-0.000
185.48	-0.000
185.69	-0.000
185.91	-0.000
186.12	-0.000
186.34	-0.000
186.55	-0.000
186.77	-0.000
186.98	-0.000
187.20	-0.000
187.42	-0.000
187.63	-0.000
187.85	-0.000
188.06	-0.000
188.28	-0.000
188.49	-0.000
188.71	-0.000
188.92	-0.000
189.14	-0.000
189.36	-0.000
189.57	-0.000
189.79	-0.000
190.00	-0.000
190.22	-0.000
190.43	-0.000
190.65	-0.000
190.86	-0.000
191.08	-0.000
191.29	-0.000
191.51	-0.000
191.72	-0.000
191.94	-0.000
192.16	-0.000
192.37	-0.000
192.59	-0.000
192.80	-0.000
193.02	-0.000
193.23	-0.000
193.45	-0.000
193.66	-0.000
193.88	-0.000
194.09	-0.000
194.31	-0.000
194.52	-0.000
194.74	-0.000
194.95	-0.000
195.17	-0.000
195.38	-0.000
195.60	-0.000
195.81	-0.000
196.03	-0.000
196.25	-0.000
196.46	-0.000
196.68	-0.000
196.89	-0.000
197.11	-0.000
197.32	-0.000
197.54	-0.000
197.75	-0.000
197.97	-0.000
198.18	-0.000
198.40	-0.000
198.61	-0.000
198.83	-0.000
199.04	-0.000
199.26	-0.000
199.47	-0.000
199.69	-0.000
199.90	-0.000
200.12	-0.000
200.33	-0.000
200.55	-0.000
200.76	-0.000
200.98	-0.000
201.19	-0.000
201.41	-0.000
201.62	-0.000
201.84	-0.000
202.05	-0.000
202.27	-0.000
202.48	-0.000
202.70	-0.000
202.91	-0.000
203.13	-0.000
203.34	-0.000
203.56	-0.000
203.77	-0.000
203.99	-0.000
204.20	-0.000
204.42	-0.000
204.63	-0.000
204.85	-0.000
205.06	-0.000
205.28	-0.000
205.49	-0.000
205.71	-0.000
205.92	-0.000
206.14	-0.000
206.35	-0.000
206.56	-0.000
206.78	-0.000
206.99	-0.000
207.21	-0.000
207.42	-0.000
207.64	-0.000
207.85	-0.000
208.07	-0.000
208.28	-0.000
208.50	-0.000
208.71	-0.000
208.93	-0.000
209.14	-0.000
209.36	-0.000
209.57	-0.000
209.79	-0.000
210.00	-0.000
210.22	-0.000
210.43	-0.000
210.64	-0.000
210.86	-0.000
211.07	-0.000
211.29	-0.000
211.50	-0.000
211.72	-0.000
211.93	-0.000
212.15	-0.000
212.36	-0.000
212.58	-0.000
212.79	-0.000
213.01	-0.000
213.22	-0.000
213.43	-0.000
213.65	-0.000
213.86	-0.000
214.08	-0.000
214.29	-0.000
214.51	-0.000
214.72	-0.000
214.94	-0.000
215.15	-0.000
215.36	-0.000
215.58	-0.000
215.79	-0.000
216.01	-0.000
216.22	-0.000
216.44	-0.000
216.65	-0.000
216.87	-0.000
217.08	-0.000
217.29	-0.000
217.51	-0.000
217.72	-0.000
217.94	-0.000
218.15	-0.000
218.37	-0.000
218.58	-0.000
218.80	-0.000
219.01	-0.000
219.22	-0.000
219.44	-0.000
219.65	-0.000
219.87	-0.000
220.08	-0.000
220.30	-0.000
220.51	-0.000
220.72	-0.000
220.94	-0.000
221.15	-0.000
221.37	-0.000
221.58	-0.000
221.79	-0.000
222.01	-0.000
222.22	-0.000
222.44	-0.000
222.65	-0.000
222.87	-0.000
223.08	-0.000
223.29	-0.000
223.51	-0.000
223.72	-0.000
223.94	-0.000
224.15	-0.000
224.36	-0.000
224.58	-0.000
224.79	-0.000
225.01	-0.000
225.22	-0.000
225.44	-0.000
225.65	-0.000
225.86	-0.000
226.08	-0.000
226.29	-0.000
226.51	-0.000
226.72	-0.000
226.93	-0.000
227.15	-0.000
227.36	-0.000
227.58	-0.000
227.79	-0.000
228.00	-0.000
228.22	-0.000
228.43	-0.000
228.65	-0.000
228.86	-0.000
229.07	-0.000
229.29	-0.000
229.50	-0.000
229.72	-0.000
229.93	-0.000
230.14	-0.000
230.36	-0.000
230.57	-0.000
230.78	-0.000
231.00	-0.000
231.21	-0.000
231.43	-0.000
231.64	-0.000
231.85	-0.000
232.07	-0.000
232.28	-0.000
232.50	-0.000
232.71	-0.000
232.92	-0.000
233.14	-0.000
233.35	-0.000
233.56	-0.000
233.78	-0.000
233.99	-0.000
234.21	-0.000
234.42	-0.000
234.63	-0.000
234.85	-0.000
235.06	-0.000
235.27	-0.000
235.49	-0.000
235.70	-0.000
235.91	-0.000
236.13	-0.000
236.34	-0.000
236.56	-0.000
236.77	-0.000
236.98	-0.000
237.20	-0.000
237.41	-0.000
237.62	-0.000
237.84	-0.000
238.05	-0.000
238.26	-0.000
238.48	-0.000
238.69	-0.000
238.91	-0.000
239.12	-0.000
239.33	-0.000
239.55	-0.000
239.76	-0.000
239.97	-0.000
240.19	-0.000
240.40	-0.000
240.61	-0.000
240.83	-0.000
241.04	-0.000
241.25	-0.000
241.47	-0.000
241.68	-0.000
241.89	-0.000
242.11	-0.000
242.32	-0.000
242.53	-0.000
242.75	-0.000
242.96	-0.000
243.17	-0.000
243.39	-0.000
243.60	-0.000
243.81	-0.000
244.03	-0.000
244.24	-0.000
244.45	-0.000
244.67	-0.000
244.88	-0.000
245.09	-0.000
245.31	-0.000
245.52	-0.000
245.73	-0.000
245.95	-0.000
246.16	-0.000
246.37	-0.000
246.59	-0.000
246.80	-0.000
247.01	-0.000
247.23	-0.000
247.44	-0.000
247.65	-0.000
247.87	-0.000
248.08	-0.000
248.29	-0.000
248.51	-0.000
248.72	-0.000
248.93	-0.000
249.15	-0.000
249.36	-0.000
249.57	-0.000
249.78	-0.000
250.00	-0.000
250.21	-0.000
250.42	-0.000
250.64	-0.000
250.85	-0.000
251.06	-0.000
251.28	-0.000
251.49	-0.000
251.70	-0.000
251.92	-0.000
252.13	-0.000
252.34	-0.000
252.55	-0.000
252.77	-0.000
252.98	-0.000
253.19	-0.000
253.41	-0.000
253.62	-0.000
253.83	-0.000
254.05	-0.000
254.26	-0.000
254.47	-0.000
254.68	-0.000
254.90	-0.000
255.11	-0.000
255.32	-0.000
255.54	-0.000
255.75	-0.000
255.96	-0.000
256.17	-0.000
256.39	-0.000
256.60	-0.000
256.81	-0.000
257.03	-0.000
257.24	-0.000
257.45	-0.000
257.66	-0.000
257.88	-0.000
258.09	-0.000
258.30	-0.000
258.51	-0.000
258.73	-0.000
258.94	-0.000
259.15	-0.000
259.37	-0.000
259.58	-0.000
259.79	-0.000
260.00	-0.000
260.22	-0.000
260.43	-0.000
260.64	-0.000
260.85	-0.000
261.07	-0.000
261.28	-0.000
261.49	-0.000
261.71	-0.000
261.92	-0.000
262.13	-0.000
262.34	-0.000
262.56	-0.000
262.77	-0.000
262.98	-0.000
263.19	-0.000
263.41	-0.000
263.62	-0.000
263.83	-0.000
264.04	-0.000
264.26	-0.000
264.47	-0.000
264.68	-0.000
264.89	-0.000
265.11	-0.000
265.32	-0.000
265.53	-0.000
265.74	-0.000
265.96	-0.000
266.17	-0.000
266.38	-0.000
266.59	-0.000
266.81	-0.000
267.02	-0.000
267.23	-0.000
267.44	-0.000
267.65	-0.000
267.87	-0.000
268.08	-0.000
268.29	-0.000
268.50	-0.000
268.72	-0.000
268.93	-0.000
269.14	-0.000
269.35	-0.000
269.57	-0.000
269.78	-0.000
269.99	-0.000
270.20	-0.000
270.41	-0.000
270.63	-0.000
270.84	-0.000
271.05	-0.000
271.26	-0.000
271.48	-0.000
271.69	-0.000
271.90	-0.000
272.11	-0.000
272.32	-0.000
272.54	-0.000
272.75	-0.000
272.96	-0.000
273.17	-0.000
273.39	-0.000
273.60	-0.000
273.81	-0.000
274.02	-0.000
274.23	-0.000
274.45	-0.000
274.66	-0.000
274.87	-0.000
275.08	-0.000
275.29	-0.000
275.51	-0.000
275.72	-0.000
275.93	-0.000
276.14	-0.000
276.35	-0.000
276.57	-0.000
276.78	-0.000
276.99	-0.000
277.20	-0.000
277.41	-0.000
277.63	-0.000
277.84	-0.000
278.05	-0.000
278.26	-0.000
278.47	-0.000
278.69	-0.000
278.90	-0.000
279.11	-0.000
279.32	-0.000
279.53	-0.000
279.74	-0.000
279.96	-0.000
280.17	-0.000
280.38	-0.000
280.59	-0.000
280.80	-0.000
281.02	-0.000
281.23	-0.000
281.44	-0.000
281.65	-0.000
281.86	-0.000
282.07	-0.000
282.29	-0.000
282.50	-0.000
282.71	-0.000
282.92	-0.000
283.13	-0.000
283.35	-0.000
283.56	-0.000
283.77	-0.000
283.98	-0.000
284.19	-0.000
284.40	-0.000
284.62	-0.000
284.83	-0.000
285.04	-0.000
285.25	-0.000
285.46	-0.000
285.67	-0.000
285.88	-0.000
286.10	-0.000
286.31	-0.000
286.52	-0.000
286.73	-0.000
286.94	-0.000
287.15	-0.000
287.37	-0.000
287.58	-0.000
287.79	-0.000
288.00	-0.000
288.21	-0.000
288.42	-0.000
288.63	-0.000
288.85	-0.000
289.06	-0.000
289.27	-0.000
289.48	-0.000
289.69	-0.000
289.90	-0.000
290.11	-0.000
290.33	-0.000
290.54	-0.000
290.75	-0.000
290.96	-0.000
291.17	-0.000
291.38	-0.000
291.59	-0.000
291.81	-0.000
292.02	-0.000
292.23	-0.000
292.44	-0.000
292.65	-0.000
292.86	-0.000
293.07	-0.000
293.28	-0.000
293.50	-0.000
293.71	-0.000
293.92	-0.000
294.13	-0.000
294.34	-0.000
294.55	-0.000
294.76	-0.000
294.97	-0.000
295.19	-0.000
295.40	-0.000
295.61	-0.000
295.82	-0.000
296.03	-0.000
296.24	-0.000
296.45	-0.000
296.66	2.756
296.87	2.984
297.09	-0.000
297.30	-0.000
297.51	2.281
297.72	2.144
297.93	2.576
298.14	2.345
298.35	2.144
298.56	2.064
298.77	2.601
298.99	2.464
299.20	2.247
299.41	2.169
299.62	2.077
299.83	2.055
300.04	1.891
300.25	1.872
300.46	1.962
300.67	1.904
300.88	1.785
301.10	1.780
301.31	1.934
301.52	1.805
301.73	1.699
301.94	1.695
302.15	1.720
302.36	1.641
302.57	1.541
302.78	1.554
302.99	1.623
303.20	1.640
303.41	1.507
303.63	1.482
303.84	1.498
304.05	1.490
304.26	1.408
304.47	1.415
304.68	1.426
304.89	1.410
305.10	1.354
305.31	1.338
305.52	1.395
305.73	1.391
305.94	1.336
306.15	1.327
306.37	1.354
306.58	1.363
306.79	1.321
307.00	1.347
307.21	1.400
307.42	1.390
307.63	1.340
307.84	1.301
308.05	1.341
308.26	1.338
308.47	1.306
308.68	1.300
308.89	1.308
309.10	1.307
309.31	1.254
309.52	1.245
309.73	1.265
309.95	1.257
310.16	1.221
310.37	1.211
310.58	1.236
310.79	1.232
311.00	1.225
311.21	1.223
311.42	1.225
311.63	1.219
311.84	1.194
312.05	1.192
312.26	1.218
312.47	1.230
312.68	1.199
312.89	1.183
313.10	1.193
313.31	1.166
313.52	1.163
313.73	1.165
313.94	1.172
314.15	1.152
314.36	1.128
314.57	1.121
314.78	1.108
314.99	1.101
315.21	1.083
315.42	1.087
315.63	1.102
315.84	1.078
316.05	1.061
316.26	1.068
316.47	1.090
316.68	1.085
316.89	1.062
317.10	1.084
317.31	1.091
317.52	1.093
317.73	1.071
317.94	1.070
318.15	1.119
318.36	1.118
318.57	1.095
318.78	1.083
318.99	1.123
319.20	1.118
319.41	1.078
319.62	1.081
319.83	1.097
320.04	1.090
320.25	1.076
320.46	1.040
320.67	1.046
320.88	1.042
321.09	1.023
321.30	1.007
321.51	1.025
321.72	1.025
321.93	1.006
322.14	0.997
322.35	1.025
322.56	1.024
322.77	1.011
322.98	1.020
323.19	1.029
323.40	1.036
323.61	1.013
323.82	1.006
324.03	1.012
324.24	1.008
324.45	0.995
324.66	0.975
324.87	0.972
325.08	0.971
325.29	0.950
325.50	0.943
325.71	0.950
325.92	0.959
326.13	0.946
326.34	0.947
326.55	0.958
326.76	0.955
326.97	0.943
327.18	0.938
327.39	0.965
327.60	0.967
327.80	0.966
328.01	0.963
328.22	0.963
328.43	0.964
328.64	0.950
328.85	0.953
329.06	0.956
329.27	0.955
329.48	0.950
329.69	0.930
329.90	0.942
330.11	0.935
330.32	0.928
330.53	0.922
330.74	0.923
330.95	0.922
331.16	0.906
331.37	0.914
331.58	0.915
331.79	0.914
332.00	0.905
332.21	0.896
332.42	0.903
332.63	0.893
332.83	0.887
333.04	0.888
333.25	0.901
333.46	0.901
333.67	0.885
333.88	0.888
334.09	0.900
334.30	0.896
334.51	0.887
334.72	0.882
334.93	0.886
335.14	0.884
335.35	0.877
335.56	0.872
335.77	0.880
335.98	0.879
336.18	0.871
336.39	0.863
336.60	0.869
336.81	0.868
337.02	0.867
337.23	0.872
337.44	0.876
337.65	0.877
337.86	0.866
338.07	0.862
338.28	0.868
338.49	0.866
338.70	0.857
338.91	0.863
339.11	0.871
339.32	0.866
339.53	0.853
339.74	0.850
339.95	0.847
340.16	0.846
340.37	0.837
340.58	0.834
340.79	0.840
341.00	0.840
341.21	0.828
341.41	0.829
341.62	0.830
341.83	0.830
342.04	0.826
342.25	0.837
342.46	0.843
342.67	0.841
342.88	0.833
343.09	0.831
343.30	0.840
343.50	0.843
343.71	0.832
343.92	0.831
344.13	0.837
344.34	0.835
344.55	0.818
344.76	0.817
344.97	0.823
345.18	0.822
345.38	0.820
345.59	0.813
345.80	0.814
346.01	0.812
346.22	0.807
346.43	0.801
346.64	0.811
346.85	0.810
347.06	0.802
347.26	0.802
347.47	0.807
347.68	0.801
347.89	0.797
348.10	0.792
348.31	0.800
348.52	0.798
348.73	0.796
348.93	0.792
349.14	0.794
349.35	0.794
349.56	0.788
349.77	0.783
349.98	0.791
350.19	0.788
350.39	0.782
350.60	0.778
350.81	0.794
351.02	0.793
351.23	0.789
351.44	0.792
351.65	0.795
351.86	0.793
352.06	0.792
352.27	0.791
352.48	0.794
352.69	0.793
352.90	0.787
353.11	0.774
353.31	0.782
353.52	0.778
353.73	0.769
353.94	0.769
354.15	0.776
354.36	0.775
354.57	0.766
354.77	0.768
354.98	0.768
355.19	0.767
355.40	0.767
355.61	0.772
355.82	0.777
356.02	0.777
356.23	0.771
356.44	0.772
356.65	0.776
356.86	0.776
357.07	0.769
357.27	0.772
357.48	0.777
357.69	0.772
357.90	0.757
358.11	0.753
358.32	0.758
358.52	0.760
358.73	0.750
358.94	0.753
359.15	0.758
359.36	0.759
359.56	0.754
359.77	0.750
359.98	0.758
360.19	0.757
360.40	0.754
360.61	0.755
360.81	0.754
361.02	0.754
361.23	0.744
361.44	0.742
361.65	0.743
361.85	0.742
362.06	0.740
362.27	0.741
362.48	0.742
362.69	0.745
362.89	0.738
363.10	0.740
363.31	0.745
363.52	0.748
363.73	0.744
363.93	0.744
364.14	0.748
364.35	0.749
364.56	0.739
364.77	0.741
364.97	0.743
365.18	0.743
365.39	0.738
365.60	0.735
365.81	0.736
366.01	0.735
366.22	0.731
366.43	0.730
366.64	0.733
366.84	0.738
367.05	0.734
367.26	0.734
367.47	0.737
367.68	0.737
367.88	0.733
368.09	0.731
368.30	0.735
368.51	0.735
368.71	0.733
368.92	0.738
369.13	0.737
369.34	0.736
369.55	0.734
369.75	0.733
369.96	0.741
370.17	0.741
370.38	0.737
370.58	0.737
370.79	0.743
371.00	0.741
371.21	0.731
371.41	0.736
371.62	0.741
371.83	0.737
372.04	0.734
372.24	0.728
372.45	0.729
372.66	0.731
372.87	0.727
373.07	0.723
373.28	0.726
373.49	0.728
373.70	0.719
373.90	0.717
374.11	0.727
374.32	0.726
374.53	0.724
374.73	0.726
374.94	0.728
375.15	0.728
375.36	0.725
375.56	0.734
375.77	0.735
375.98	0.735
376.19	0.732
376.39	0.726
376.60	0.730
376.81	0.730
377.02	0.727
377.22	0.726
377.43	0.726
377.64	0.726
377.84	0.716
378.05	0.720
378.26	0.726
378.47	0.725
378.67	0.721
378.88	0.718
379.09	0.719
379.30	0.719
379.50	0.716
379.71	0.719
379.92	0.722
380.12	0.721
380.33	0.712
380.54	0.709
380.75	0.716
380.95	0.717
381.16	0.715
381.37	0.715
381.57	0.717
381.78	0.717
381.99	0.715
382.20	0.715
382.40	0.719
382.61	0.720
382.82	0.715
383.02	0.708
383.23	0.711
383.44	0.711
383.64	0.708
383.85	0.711
384.06	0.714
384.27	0.712
384.47	0.709
384.68	0.709
384.89	0.716
385.09	0.715
385.30	0.714
385.51	0.713
385.71	0.716
385.92	0.718
386.13	0.715
386.33	0.717
386.54	0.719
386.75	0.718
386.95	0.713
387.16	0.707
387.37	0.710
387.58	0.709
387.78	0.707
387.99	0.705
388.20	0.707
388.40	0.704
388.61	0.699
388.82	0.702
389.02	0.704
389.23	0.705
389.44	0.703
389.64	0.702
389.85	0.713
390.06	0.712
390.26	0.712
390.47	0.711
390.68	0.713
390.88	0.712
391.09	0.707
391.30	0.706
391.50	0.706
391.71	0.706
391.92	0.703
392.12	0.696
392.33	0.697
392.53	0.697
392.74	0.696
392.95	0.695
393.15	0.698
393.36	0.700
393.57	0.697
393.77	0.700
393.98	0.702
394.19	0.701
394.39	0.700
394.60	0.702
394.81	0.704
395.01	0.701
395.22	0.699
395.43	0.700
395.63	0.705
395.84	0.706
396.04	0.702
396.25	0.703
396.46	0.706
396.66	0.704
396.87	0.701
397.08	0.698
397.28	0.701
397.49	0.702
397.69	0.697
397.90	0.693
398.11	0.694
398.31	0.694
398.52	0.690
398.73	0.691
398.93	0.690
399.14	0.688
399.34	0.686
399.55	0.687
399.76	0.688
399.96	0.689
400.17	0.688
400.37	0.686
400.58	0.693
400.79	0.694
400.99	0.691
401.20	0.697
401.41	0.700
401.61	0.701
401.82	0.705
402.02	0.704
402.23	0.705
402.44	0.704
402.64	0.704
402.85	0.698
403.05	0.697
403.26	0.696
403.47	0.689
403.67	0.688
403.88	0.690
404.08	0.684
404.29	0.682
404.50	0.682
404.70	0.683
404.91	0.681
405.11	0.679
405.32	0.679
405.52	0.679
405.73	0.679
405.94	0.677
406.14	0.679
406.35	0.682
406.55	0.681
406.76	0.679
406.97	0.679
407.17	0.682
407.38	0.681
407.58	0.679
407.79	0.682
407.99	0.684
408.20	0.685
408.41	0.680
408.61	0.678
408.82	0.680
409.02	0.679
409.23	0.676
409.43	0.675
409.64	0.677
409.84	0.677
410.05	0.673
410.26	0.672
410.46	0.671
410.67	0.671
410.87	0.672
411.08	0.673
411.28	0.675
411.49	0.676
411.69	0.674
411.90	0.675
412.11	0.677
412.31	0.678
412.52	0.677
412.72	0.678
412.93	0.679
413.13	0.678
413.34	0.674
413.54	0.676
413.75	0.677
413.95	0.677
414.16	0.674
414.37	0.677
414.57	0.677
414.78	0.679
414.98	0.677
415.19	0.677
415.39	0.675
415.60	0.677
415.80	0.676
416.01	0.675
416.21	0.677
416.42	0.677
416.62	0.672
416.83	0.672
417.03	0.672
417.24	0.673
417.44	0.670
417.65	0.670
417.86	0.671
418.06	0.668
418.27	0.666
418.47	0.668
418.68	0.668
418.88	0.669
419.09	0.666
419.29	0.667
419.50	0.668
419.70	0.668
419.91	0.666
420.11	0.664
420.32	0.666
420.52	0.666
420.73	0.664
420.93	0.665
421.14	0.667
421.34	0.666
421.55	0.662
421.75	0.661
421.96	0.663
422.16	0.664
422.37	0.663
422.57	0.660
422.78	0.662
422.98	0.659
423.19	0.657
423.39	0.656
423.60	0.659
423.80	0.661
424.01	0.660
424.21	0.662
424.42	0.664
424.62	0.664
424.83	0.663
425.03	0.664
425.23	0.666
425.44	0.666
425.64	0.666
425.85	0.665
426.05	0.666
426.26	0.667
426.46	0.662
426.67	0.661
426.87	0.667
427.08	0.667
427.28	0.664
427.49	0.666
427.69	0.667
427.90	0.667
428.10	0.663
428.31	0.663
428.51	0.664
428.71	0.664
428.92	0.665
429.12	0.662
429.33	0.663
429.53	0.667
429.74	0.671
429.94	0.671
430.15	0.671
430.35	0.671
430.56	0.668
430.76	0.667
430.96	0.668
431.17	0.666
431.37	0.663
431.58	0.661
431.78	0.658
431.99	0.651
432.19	0.653
432.40	0.654
432.60	0.656
432.80	0.658
433.01	0.656
433.21	0.657
433.42	0.659
433.62	0.660
433.83	0.660
434.03	0.662
434.23	0.666
434.44	0.665
434.64	0.663
434.85	0.667
435.05	0.668
435.26	0.669
435.46	0.667
435.66	0.666
435.87	0.666
436.07	0.666
436.28	0.662
436.48	0.659
436.69	0.658
436.89	0.659
437.09	0.653
437.30	0.652
437.50	0.652
437.71	0.664
437.91	0.663
438.11	0.664
438.32	0.669
438.52	0.670
438.73	0.669
438.93	0.668
439.13	0.668
439.34	0.671
439.54	0.669
439.75	0.669
439.95	0.660
440.15	0.664
440.36	0.662
440.56	0.660
440.77	0.661
440.97	0.661
441.17	0.659
441.38	0.660
441.58	0.658
441.79	0.658
441.99	0.656
442.19	0.656
442.40	0.654
442.60	0.654
442.81	0.652
443.01	0.652
443.21	0.653
443.42	0.653
443.62	0.651
443.82	0.651
444.03	0.652
444.23	0.652
444.44	0.652
444.64	0.651
444.84	0.653
445.05	0.653
445.25	0.651
445.45	0.651
445.66	0.654
445.86	0.654
446.06	0.655
446.27	0.655
446.47	0.658
446.68	0.656
446.88	0.654
447.08	0.654
447.29	0.656
447.49	0.656
447.69	0.655
447.90	0.654
448.10	0.658
448.30	0.655
448.51	0.656
448.71	0.654
448.91	0.658
449.12	0.657
449.32	0.658
449.52	0.656
449.73	0.661
449.93	0.660
450.14	0.660
450.34	0.659
450.54	0.661
450.75	0.659
450.95	0.658
451.15	0.656
451.36	0.659
451.56	0.656
451.76	0.656
451.97	0.653
452.17	0.654
452.37	0.652
452.58	0.648
452.78	0.648
452.98	0.651
453.19	0.651
453.39	0.652
453.59	0.650
453.79	0.652
454.00	0.652
454.20	0.651
454.40	0.652
454.61	0.654
454.81	0.655
455.01	0.653
455.22	0.654
455.42	0.656
455.62	0.653
455.83	0.652
456.03	0.654
456.23	0.656
456.44	0.657
456.64	0.656
456.84	0.656
457.04	0.657
457.25	0.657
457.45	0.654
457.65	0.653
457.86	0.654
458.06	0.653
458.26	0.649
458.47	0.648
458.67	0.649
458.87	0.649
459.07	0.646
459.28	0.648
459.48	0.651
459.68	0.651
459.89	0.649
460.09	0.648
460.29	0.650
460.49	0.652
460.70	0.650
460.90	0.650
461.10	0.651
461.31	0.651
461.51	0.648
461.71	0.649
461.91	0.650
462.12	0.650
462.32	0.649
462.52	0.649
462.72	0.652
462.93	0.653
463.13	0.651
463.33	0.652
463.53	0.653
463.74	0.653
463.94	0.648
464.14	0.649
464.35	0.651
464.55	0.652
464.75	0.650
464.95	0.647
465.16	0.650
465.36	0.649
465.56	0.647
465.76	0.647
465.97	0.648
466.17	0.649
466.37	0.647
466.57	0.648
466.78	0.649
466.98	0.648
467.18	0.647
467.38	0.646
467.59	0.648
467.79	0.650
467.99	0.649
468.19	0.650
468.39	0.653
468.60	0.654
468.80	0.652
469.00	0.653
469.20	0.654
469.41	0.654
469.61	0.653
469.81	0.653
470.01	0.652
470.22	0.652
470.42	0.650
470.62	0.647
470.82	0.649
471.02	0.648
471.23	0.646
471.43	0.646
471.63	0.649
471.83	0.648
472.04	0.646
472.24	0.646
472.44	0.651
472.64	0.651
472.84	0.649
473.05	0.649
473.25	0.652
473.45	0.651
473.65	0.649
473.85	0.650
474.06	0.652
474.26	0.651
474.46	0.652
474.66	0.649
474.86	0.651
475.07	0.651
475.27	0.648
475.47	0.645
475.67	0.646
475.87	0.648
476.08	0.644
476.28	0.646
476.48	0.647
476.68	0.645
476.88	0.643
477.09	0.644
477.29	0.646
477.49	0.646
477.69	0.646
477.89	0.646
478.09	0.645
478.30	0.647
478.50	0.644
478.70	0.644
478.90	0.644
479.10	0.647
479.31	0.647
479.51	0.645
479.71	0.646
479.91	0.647
480.11	0.645
480.31	0.646
480.52	0.645
480.72	0.645
480.92	0.644
481.12	0.643
481.32	0.641
481.52	0.639
481.72	0.639
481.93	0.642
482.13	0.643
482.33	0.643
482.53	0.641
482.73	0.641
482.93	0.642
483.14	0.641
483.34	0.641
483.54	0.642
483.74	0.641
483.94	0.640
484.14	0.636
484.34	0.636
484.55	0.637
484.75	0.636
484.95	0.634
485.15	0.634
485.35	0.634
485.55	0.633
485.75	0.631
485.96	0.631
486.16	0.633
486.36	0.632
486.56	0.631
486.76	0.631
486.96	0.632
487.16	0.631
487.36	0.629
487.57	0.629
487.77	0.630
487.97	0.631
488.17	0.629
488.37	0.628
488.57	0.630
488.77	0.630
488.97	0.628
489.18	0.628
489.38	0.631
489.58	0.631
489.78	0.631
489.98	0.630
490.18	0.631
490.38	0.631
490.58	0.630
490.78	0.630
490.98	0.632
491.19	0.633
491.39	0.631
491.59	0.630
491.79	0.633
491.99	0.633
492.19	0.632
492.39	0.635
492.59	0.635
492.79	0.637
492.99	0.637
493.20	0.637
493.40	0.637
493.60	0.639
493.80	0.637
494.00	0.635
494.20	0.636
494.40	0.637
494.60	0.633
494.80	0.638
495.00	0.637
495.20	0.635
495.40	0.634
495.61	0.636
495.81	0.636
496.01	0.640
496.21	0.641
496.41	0.639
496.61	0.640
496.81	0.639
497.01	0.634
497.21	0.633
497.41	0.634
497.61	0.634
497.81	0.631
498.01	0.631
498.21	0.629
498.41	0.627
498.61	0.628
498.82	0.629
499.02	0.632
499.22	0.633
499.42	0.632
499.62	0.633
499.82	0.634
500.02	0.635
500.22	0.634
500.42	0.636
500.62	0.636
500.82	0.636
501.02	0.634
501.22	0.634
501.42	0.634
501.62	0.636
501.82	0.635
502.02	0.635
502.22	0.635
502.42	0.637
502.62	0.634
502.82	0.634
503.02	0.635
503.22	0.635
503.42	0.633
503.63	0.633
503.83	0.631
504.03	0.630
504.23	0.629
504.43	0.630
504.63	0.632
504.83	0.631
505.03	0.630
505.23	0.632
505.43	0.634
505.63	0.634
505.83	0.633
506.03	0.635
506.23	0.638
506.43	0.638
506.63	0.636
506.83	0.634
507.03	0.637
507.23	0.638
507.43	0.635
507.63	0.635
507.83	0.636
508.03	0.636
508.23	0.635
508.43	0.634
508.63	0.637
508.83	0.637
509.03	0.638
509.23	0.636
509.43	0.636
509.63	0.637
509.83	0.635
510.03	0.638
510.23	0.640
510.43	0.640
510.63	0.640
510.83	0.640
511.03	0.641
511.23	0.639
511.43	0.638
511.63	0.640
511.83	0.642
512.03	0.642
512.22	0.639
512.42	0.639
512.62	0.640
512.82	0.640
513.02	0.638
513.22	0.638
513.42	0.640
513.62	0.643
513.82	0.641
514.02	0.641
514.22	0.642
514.42	0.642
514.62	0.641
514.82	0.641
515.02	0.644
515.22	0.647
515.42	0.646
515.62	0.648
515.82	0.648
516.02	0.648
516.22	0.648
516.42	0.650
516.62	0.652
516.82	0.654
517.01	0.651
517.21	0.650
517.41	0.655
517.61	0.655
517.81	0.650
518.01	0.650
518.21	0.650
518.41	0.649
518.61	0.647
518.81	0.648
519.01	0.649
519.21	0.649
519.41	0.648
519.61	0.642
519.81	0.645
520.00	0.645
520.20	0.645
520.40	0.649
520.60	0.650
520.80	0.649
521.00	0.649
521.20	0.650
521.40	0.655
521.60	0.655
521.80	0.654
522.00	0.655
522.20	0.658
522.39	0.658
522.59	0.653
522.79	0.656
522.99	0.658
523.19	0.657
523.39	0.654
523.59	0.652
523.79	0.656
523.99	0.658
524.19	0.656
524.38	0.655
524.58	0.656
524.78	0.657
524.98	0.655
525.18	0.657
525.38	0.658
525.58	0.659
525.78	0.656
525.98	0.654
526.18	0.655
526.37	0.655
526.57	0.656
526.77	0.656
526.97	0.657
527.17	0.658
527.37	0.653
527.57	0.656
527.77	0.658
527.96	0.659
528.16	0.657
528.36	0.658
528.56	0.660
528.76	0.658
528.96	0.657
529.16	0.658
529.36	0.662
529.55	0.661
529.75	0.658
529.95	0.658
530.15	0.659
530.35	0.661
530.55	0.658
530.75	0.659
530.94	0.661
531.14	0.661
531.34	0.658
531.54	0.656
531.74	0.659
531.94	0.662
532.13	0.660
532.33	0.662
532.53	0.661
532.73	0.661
532.93	0.658
533.13	0.660
533.33	0.660
533.52	0.661
533.72	0.664
533.92	0.662
534.12	0.660
534.32	0.661
534.52	0.659
534.71	0.660
534.91	0.664
535.11	0.665
535.31	0.663
535.51	0.666
535.71	0.668
535.90	0.665
536.10	0.666
536.30	0.668
536.50	0.669
536.70	0.669
536.89	0.667
537.09	0.666
537.29	0.668
537.49	0.668
537.69	0.666
537.89	0.667
538.08	0.668
538.28	0.665
538.48	0.665
538.68	0.667
538.88	0.669
539.07	0.669
539.27	0.667
539.47	0.666
539.67	0.666
539.87	0.667
540.06	0.664
540.26	0.665
540.46	0.668
540.66	0.665
540.86	0.662
541.05	0.661
541.25	0.663
541.45	0.664
541.65	0.662
541.84	0.665
542.04	0.665
542.24	0.666
542.44	0.664
542.64	0.665
542.83	0.668
543.03	0.669
543.23	0.666
543.43	0.667
543.62	0.669
543.82	0.669
544.02	0.667
544.22	0.667
544.42	0.671
544.61	0.671
544.81	0.668
545.01	0.667
545.21	0.670
545.40	0.670
545.60	0.669
545.80	0.671
546.00	0.671
546.19	0.671
546.39	0.669
546.59	0.667
546.79	0.669
546.98	0.669
547.18	0.668
547.38	0.669
547.58	0.672
547.77	0.672
547.97	0.668
548.17	0.670
548.37	0.671
548.56	0.671
548.76	0.670
548.96	0.673
549.16	0.676
549.35	0.675
549.55	0.672
549.75	0.673
549.95	0.677
550.14	0.678
550.34	0.676
550.54	0.681
550.73	0.685
550.93	0.685
551.13	0.681
551.33	0.679
551.52	0.681
551.72	0.681
551.92	0.679
552.12	0.679
552.31	0.680
552.51	0.680
552.71	0.674
552.90	0.674
553.10	0.676
553.30	0.677
553.50	0.676
553.69	0.677
553.89	0.679
554.09	0.679
554.28	0.675
554.48	0.677
554.68	0.679
554.87	0.679
555.07	0.676
555.27	0.676
555.47	0.678
555.66	0.678
555.86	0.677
556.06	0.679
556.25	0.680
556.45	0.689
556.65	0.687
556.84	0.690
557.04	0.693
557.24	0.694
557.43	0.693
557.63	0.696
557.83	0.698
558.02	0.697
558.22	0.701
558.42	0.701
558.61	0.694
558.81	0.694
559.01	0.689
559.21	0.689
559.40	0.691
559.60	0.691
559.80	0.686
559.99	0.688
560.19	0.691
560.39	0.685
560.58	0.683
560.78	0.683
560.97	0.687
561.17	0.686
561.37	0.683
561.56	0.683
561.76	0.685
561.96	0.686
562.15	0.683
562.35	0.685
562.55	0.687
562.74	0.686
562.94	0.684
563.14	0.682
563.33	0.684
563.53	0.684
563.73	0.682
563.92	0.683
564.12	0.686
564.31	0.688
564.51	0.686
564.71	0.687
564.90	0.690
565.10	0.692
565.30	0.694
565.49	0.696
565.69	0.699
565.89	0.699
566.08	0.697
566.28	0.697
566.47	0.700
566.67	0.698
566.87	0.694
567.06	0.697
567.26	0.703
567.46	0.698
567.65	0.697
567.85	0.698
568.04	0.701
568.24	0.699
568.44	0.696
568.63	0.694
568.83	0.696
569.02	0.694
569.22	0.689
569.42	0.685
569.61	0.688
569.81	0.687
570.00	0.684
570.20	0.685
570.40	0.687
570.59	0.687
570.79	0.684
570.98	0.682
571.18	0.685
571.38	0.684
571.57	0.680
571.77	0.678
571.96	0.682
572.16	0.679
572.35	0.673
572.55	0.674
572.75	0.673
572.94	0.673
573.14	0.671
573.33	0.671
573.53	0.672
573.73	0.672
573.92	0.670
574.12	0.667
574.31	0.670
574.51	0.671
574.70	0.668
574.90	0.669
575.09	0.672
575.29	0.672
575.49	0.669
575.68	0.669
575.88	0.671
576.07	0.673
576.27	0.670
576.46	0.669
576.66	0.669
576.86	0.668
577.05	0.666
577.25	0.664
577.44	0.666
577.64	0.666
577.83	0.663
578.03	0.664
578.22	0.664
578.42	0.663
578.61	0.660
578.81	0.661
579.00	0.662
579.20	0.662
579.40	0.661
579.59	0.660
579.79	0.661
579.98	0.660
580.18	0.659
580.37	0.660
580.57	0.662
580.76	0.667
580.96	0.665
581.15	0.666
581.35	0.668
581.54	0.667
581.74	0.666
581.93	0.668
582.13	0.669
582.32	0.666
582.52	0.664
582.71	0.664
582.91	0.660
583.10	0.660
583.30	0.659
583.49	0.658
583.69	0.662
583.88	0.664
584.08	0.662
584.27	0.664
584.47	0.668
584.66	0.668
584.86	0.666
585.05	0.668
585.25	0.671
585.44	0.670
585.64	0.668
585.83	0.665
586.03	0.666
586.22	0.665
586.42	0.661
586.61	0.663
586.81	0.666
587.00	0.666
587.20	0.663
587.39	0.665
587.59	0.667
587.78	0.668
587.98	0.669
588.17	0.669
588.37	0.672
588.56	0.674
588.76	0.669
588.95	0.669
589.15	0.673
589.34	0.676
589.54	0.674
589.73	0.674
589.92	0.678
590.12	0.678
590.31	0.675
590.51	0.680
590.70	0.682
590.90	0.682
591.09	0.680
591.29	0.679
591.48	0.680
591.68	0.681
591.87	0.678
592.06	0.678
592.26	0.681
592.45	0.680
592.65	0.674
592.84	0.674
593.04	0.677
593.23	0.679
593.43	0.676
593.62	0.676
593.81	0.676
594.01	0.676
594.20	0.673
594.40	0.673
594.59	0.675
594.79	0.676
594.98	0.674
595.17	0.673
595.37	0.674
595.56	0.676
595.76	0.675
595.95	0.676
596.14	0.679
596.34	0.680
596.53	0.678
596.73	0.679
596.92	0.680
597.12	0.683
597.31	0.683
597.50	0.681
597.70	0.684
597.89	0.684
598.09	0.680
598.28	0.681
598.47	0.684
598.67	0.683
598.86	0.679
599.06	0.681
599.25	0.682
599.44	0.680
599.64	0.678
599.83	0.675
600.03	0.679
600.22	0.680
600.41	0.679
600.61	0.678
600.80	0.681
601.00	0.682
601.19	0.677
601.38	0.675
601.58	0.679
601.77	0.680
601.96	0.681
602.16	0.680
602.35	0.690
602.55	0.687
602.74	0.687
602.93	0.688
603.13	0.693
603.32	0.694
603.51	0.693
603.71	0.696
603.90	0.698
604.09	0.699
604.29	0.696
604.48	0.690
604.68	0.692
604.87	0.690
605.06	0.687
605.26	0.683
605.45	0.684
605.64	0.684
605.84	0.679
606.03	0.678
606.22	0.677
606.42	0.676
606.61	0.672
606.80	0.672
607.00	0.675
607.19	0.676
607.38	0.674
607.58	0.676
607.77	0.679
607.96	0.679
608.16	0.677
608.35	0.682
608.54	0.685
608.74	0.688
608.93	0.693
609.12	0.696
609.32	0.698
609.51	0.701
609.70	0.700
609.90	0.702
610.09	0.706
610.28	0.712
610.48	0.705
610.67	0.707
610.86	0.708
611.06	0.701
611.25	0.699
611.44	0.700
611.64	0.700
611.83	0.702
612.02	0.698
612.21	0.697
612.41	0.696
612.60	0.695
612.79	0.690
612.99	0.691
613.18	0.693
613.37	0.691
613.57	0.688
613.76	0.690
613.95	0.689
614.14	0.689
614.34	0.686
614.53	0.687
614.72	0.690
614.92	0.690
615.11	0.687
615.30	0.684
615.49	0.686
615.69	0.689
615.88	0.684
616.07	0.686
616.26	0.689
616.46	0.690
616.65	0.686
616.84	0.685
617.04	0.687
617.23	0.690
617.42	0.691
617.61	0.695
617.81	0.695
618.00	0.697
618.19	0.695
618.38	0.698
618.58	0.703
618.77	0.704
618.96	0.704
619.15	0.706
619.35	0.708
619.54	0.709
619.73	0.704
619.92	0.706
620.12	0.711
620.31	0.712
620.50	0.706
620.69	0.705
620.89	0.709
621.08	0.709
621.27	0.709
621.46	0.707
621.66	0.711
621.85	0.710
622.04	0.706
622.23	0.706
622.43	0.707
622.62	0.707
622.81	0.706
623.00	0.705
623.19	0.709
623.39	0.709
623.58	0.706
623.77	0.704
623.96	0.708
624.16	0.708
624.35	0.703
624.54	0.706
624.73	0.711
624.92	0.709
625.12	0.707
625.31	0.708
625.50	0.711
625.69	0.711
625.88	0.706
626.08	0.705
626.27	0.707
626.46	0.707
626.65	0.704
626.84	0.703
627.04	0.709
627.23	0.709
627.42	0.704
627.61	0.706
627.80	0.711
628.00	0.712
628.19	0.710
628.38	0.714
628.57	0.717
628.76	0.716
628.96	0.712
629.15	0.713
629.34	0.717
629.53	0.717
629.72	0.710
629.91	0.710
630.11	0.715
630.30	0.715
630.49	0.717
630.68	0.718
630.87	0.722
631.06	0.724
631.26	0.719
631.45	0.720
631.64	0.730
631.83	0.734
632.02	0.730
632.21	0.729
632.41	0.737
632.60	0.731
632.79	0.729
632.98	0.729
633.17	0.731
633.36	0.733
633.55	0.728
633.75	0.723
633.94	0.725
634.13	0.725
634.32	0.722
634.51	0.715
634.70	0.718
634.89	0.717
635.09	0.713
635.28	0.714
635.47	0.716
635.66	0.720
635.85	0.716
636.04	0.718
636.23	0.724
636.43	0.725
636.62	0.723
636.81	0.723
637.00	0.728
637.19	0.731
637.38	0.726
637.57	0.725
637.76	0.728
637.95	0.729
638.15	0.724
638.34	0.720
638.53	0.725
638.72	0.726
638.91	0.723
639.10	0.719
639.29	0.720
639.48	0.721
639.67	0.721
639.87	0.720
640.06	0.726
640.25	0.726
640.44	0.726
640.63	0.727
640.82	0.730
641.01	0.730
641.20	0.729
641.39	0.730
641.58	0.734
641.78	0.732
641.97	0.727
642.16	0.741
642.35	0.743
642.54	0.742
642.73	0.735
642.92	0.734
643.11	0.738
643.30	0.737
643.49	0.732
643.68	0.734
643.87	0.737
644.06	0.738
644.25	0.715
644.45	0.717
644.64	0.720
644.83	0.720
645.02	0.716
645.21	0.715
645.40	0.719
645.59	0.719
645.78	0.712
645.97	0.713
646.16	0.715
646.35	0.716
646.54	0.713
646.73	0.713
646.92	0.716
647.11	0.716
647.30	0.712
647.49	0.714
647.68	0.714
647.88	0.712
648.07	0.704
648.26	0.708
648.45	0.710
648.64	0.706
648.83	0.702
649.02	0.704
649.21	0.716
649.40	0.714
649.59	0.708
649.78	0.709
649.97	0.725
650.16	0.724
650.35	0.717
650.54	0.721
650.73	0.730
650.92	0.727
651.11	0.720
651.30	0.717
651.49	0.723
651.68	0.723
651.87	0.718
652.06	0.707
652.25	0.711
652.44	0.712
652.63	0.706
652.82	0.704
653.01	0.704
653.20	0.702
653.39	0.689
653.58	0.687
653.77	0.686
653.96	0.681
654.15	0.673
654.34	0.670
654.53	0.666
654.72	0.662
654.91	0.653
655.10	0.649
655.29	0.648
655.48	0.646
655.67	0.640
655.86	0.638
656.05	0.637
656.24	0.637
656.43	0.632
656.62	0.632
656.81	0.633
657.00	0.633
657.19	0.631
657.38	0.632
657.57	0.632
657.76	0.635
657.95	0.633
658.14	0.637
658.33	0.641
658.51	0.647
658.70	0.648
658.89	0.648
659.08	0.656
659.27	0.663
659.46	0.662
659.65	0.668
659.84	0.672
660.03	0.676
660.22	0.676
660.41	0.680
660.60	0.680
660.79	0.682
660.98	0.688
661.17	0.686
661.36	0.686
661.55	0.687
661.74	0.683
661.92	0.686
662.11	0.689
662.30	0.686
662.49	0.679
662.68	0.677
662.87	0.681
663.06	0.674
663.25	0.675
663.44	0.676
663.63	0.678
663.82	0.677
664.01	0.671
664.20	0.669
664.38	0.672
664.57	0.673
664.76	0.673
664.95	0.674
665.14	0.681
665.33	0.676
665.52	0.681
665.71	0.685
665.90	0.686
666.09	0.687
666.28	0.684
666.46	0.682
666.65	0.683
666.84	0.680
667.03	0.673
667.22	0.670
667.41	0.674
667.60	0.663
667.79	0.656
667.98	0.657
668.16	0.659
668.35	0.658
668.54	0.653
668.73	0.654
668.92	0.656
669.11	0.654
669.30	0.648
669.49	0.645
669.67	0.647
669.86	0.650
670.05	0.646
670.24	0.644
670.43	0.642
670.62	0.641
670.81	0.636
671.00	0.637
671.18	0.638
671.37	0.637
671.56	0.635
671.75	0.634
671.94	0.632
672.13	0.630
672.32	0.624
672.50	0.624
672.69	0.625
672.88	0.626
673.07	0.620
673.26	0.622
673.45	0.623
673.63	0.623
673.82	0.619
674.01	0.620
674.20	0.620
674.39	0.618
674.58	0.616
674.76	0.616
674.95	0.615
675.14	0.615
675.33	0.611
675.52	0.610
675.71	0.609
675.89	0.609
676.08	0.604
676.27	0.604
676.46	0.606
676.65	0.606
676.84	0.604
677.02	0.605
677.21	0.609
677.40	0.607
677.59	0.604
677.78	0.605
677.96	0.608
678.15	0.608
678.34	0.605
678.53	0.606
678.72	0.607
678.90	0.604
679.09	0.599
679.28	0.596
679.47	0.596
679.66	0.596
679.84	0.591
680.03	0.589
680.22	0.588
680.41	0.590
680.60	0.587
680.78	0.586
680.97	0.589
681.16	0.589
681.35	0.588
681.53	0.587
681.72	0.589
681.91	0.591
682.10	0.589
682.29	0.592
682.47	0.590
682.66	0.589
682.85	0.587
683.04	0.584
683.22	0.585
683.41	0.587
683.60	0.585
683.79	0.586
683.97	0.586
684.16	0.584
684.35	0.580
684.54	0.581
684.72	0.582
684.91	0.583
685.10	0.581
685.29	0.583
685.47	0.580
685.66	0.579
685.85	0.575
686.04	0.574
686.22	0.577
686.41	0.580
686.60	0.577
686.79	0.579
686.97	0.581
687.16	0.583
687.35	0.579
687.54	0.582
687.72	0.587
687.91	0.586
688.10	0.587
688.29	0.587
688.47	0.586
688.66	0.585
688.85	0.581
689.03	0.578
689.22	0.583
689.41	0.583
689.60	0.578
689.78	0.575
689.97	0.577
690.16	0.574
690.34	0.570
690.53	0.570
690.72	0.570
690.91	0.568
691.09	0.566
691.28	0.561
691.47	0.560
691.65	0.558
691.84	0.555
692.03	0.553
692.21	0.552
692.40	0.552
692.59	0.548
692.77	0.548
692.96	0.549
693.15	0.550
693.34	0.548
693.52	0.547
693.71	0.548
693.90	0.549
694.08	0.550
694.27	0.551
694.46	0.560
694.64	0.562
694.83	0.561
695.02	0.559
695.20	0.559
695.39	0.558
695.58	0.559
695.76	0.560
695.95	0.561
696.14	0.559
696.32	0.557
696.51	0.547
696.70	0.548
696.88	0.548
697.07	0.547
697.26	0.549
697.44	0.550
697.63	0.549
697.81	0.546
698.00	0.545
698.19	0.545
698.37	0.546
698.56	0.545
698.75	0.545
698.93	0.545
699.12	0.544
699.31	0.543
699.49	0.542
699.68	0.543
699.87	0.546
700.05	0.545
700.24	0.545
700.42	0.546
700.61	0.545
700.80	0.543
700.98	0.543
701.17	0.546
701.36	0.545
701.54	0.544
701.73	0.545
701.91	0.543
702.10	0.543
702.29	0.540
702.47	0.539
702.66	0.542
702.84	0.542
703.03	0.541
703.22	0.542
703.40	0.542
703.59	0.544
703.77	0.542
703.96	0.542
704.15	0.543
704.33	0.543
704.52	0.542
704.70	0.541
704.89	0.542
705.08	0.540
705.26	0.535
705.45	0.535
705.63	0.535
705.82	0.532
706.00	0.530
706.19	0.529
706.38	0.529
706.56	0.529
706.75	0.527
706.93	0.525
707.12	0.527
707.30	0.528
707.49	0.524
707.68	0.522
707.86	0.522
708.05	0.523
708.23	0.520
708.42	0.521
708.60	0.523
708.79	0.523
708.98	0.522
709.16	0.521
709.35	0.524
709.53	0.528
709.72	0.527
709.90	0.529
710.09	0.531
710.27	0.533
710.46	0.537
710.64	0.536
710.83	0.538
711.02	0.540
711.20	0.538
711.39	0.536
711.57	0.534
711.76	0.534
711.94	0.532
712.13	0.533
712.31	0.532
712.50	0.527
712.68	0.524
712.87	0.525
713.05	0.525
713.24	0.525
713.42	0.524
713.61	0.525
713.79	0.526
713.98	0.526
714.16	0.526
714.35	0.526
714.54	0.527
714.72	0.528
714.91	0.525
715.09	0.531
715.28	0.536
715.46	0.535
715.65	0.533
715.83	0.532
716.02	0.536
716.20	0.532
716.39	0.531
716.57	0.532
716.76	0.534
716.94	0.535
717.12	0.527
717.31	0.527
717.49	0.531
717.68	0.533
717.86	0.533
718.05	0.534
718.23	0.538
718.42	0.541
718.60	0.542
718.79	0.550
718.97	0.553
719.16	0.553
719.34	0.551
719.53	0.550
719.71	0.550
719.90	0.552
720.08	0.548
720.27	0.548
720.45	0.548
720.63	0.546
720.82	0.539
721.00	0.542
721.19	0.545
721.37	0.544
721.56	0.544
721.74	0.547
721.93	0.556
722.11	0.563
722.30	0.561
722.48	0.566
722.66	0.568
722.85	0.567
723.03	0.566
723.22	0.565
723.40	0.569
723.59	0.569
723.77	0.572
723.95	0.566
724.14	0.569
724.32	0.571
724.51	0.570
724.69	0.571
724.88	0.573
725.06	0.570
725.24	0.571
725.43	0.573
725.61	0.576
725.80	0.569
725.98	0.565
726.16	0.562
726.35	0.567
726.53	0.566
726.72	0.565
726.90	0.577
727.09	0.578
727.27	0.585
727.45	0.582
727.64	0.590
727.82	0.600
728.01	0.605
728.19	0.602
728.37	0.609
728.56	0.614
728.74	0.620
728.92	0.605
729.11	0.608
729.29	0.608
729.48	0.610
729.66	0.598
729.84	0.599
730.03	0.603
730.21	0.605
730.40	0.593
730.58	0.594
730.76	0.595
730.95	0.598
731.13	0.597
731.31	0.610
731.50	0.621
731.68	0.624
731.86	0.618
732.05	0.633
732.23	0.638
732.42	0.642
732.60	0.646
732.78	0.652
732.97	0.673
733.15	0.679
733.33	0.667
733.52	0.674
733.70	0.687
733.88	0.697
734.07	0.680
734.25	0.708
734.43	0.720
734.62	0.723
734.80	0.716
734.98	0.705
735.17	0.715
735.35	0.722
735.53	0.708
735.72	0.710
735.90	0.735
736.08	0.757
736.27	0.732
736.45	0.740
736.63	0.755
736.82	0.765
737.00	0.763
737.18	0.775
737.37	0.812
737.55	0.839
737.73	0.831
737.92	0.833
738.10	0.833
738.28	0.858
738.46	0.842
738.65	0.859
738.83	0.888
739.01	0.949
739.20	0.933
739.38	0.911
739.56	0.902
739.75	0.910
739.93	0.870
740.11	0.900
740.29	0.895
740.48	0.902
740.66	0.871
740.84	0.865
741.03	0.832
741.21	0.847
741.39	0.830
741.57	0.844
741.76	0.865
741.94	0.870
742.12	0.826
742.31	0.838
742.49	0.863
742.67	0.892
742.85	0.904
743.04	0.905
743.22	0.917
743.40	0.974
743.58	0.949
743.77	0.969
743.95	1.028
744.13	1.086
744.31	1.055
744.50	1.051
744.68	1.061
744.86	1.025
745.04	1.039
745.23	1.118
745.41	1.096
745.59	1.109
745.77	1.054
745.96	1.025
746.14	1.046
746.32	1.044
746.50	1.029
746.69	1.008
746.87	1.028
747.05	1.008
747.23	0.921
747.42	0.907
747.60	0.941
747.78	0.951
747.96	0.988
748.14	0.930
748.33	0.966
748.51	0.958
748.69	0.945
748.87	0.982
749.06	0.985
749.24	0.987
749.42	0.965
749.60	0.942
749.78	0.956
749.97	0.900
750.15	0.895
750.33	0.898
750.51	0.932
750.69	0.937
750.88	0.934
751.06	0.948
751.24	0.984
751.42	0.974
751.60	0.959
751.79	1.045
751.97	1.118
752.15	1.113
752.33	1.069
752.51	1.152
752.69	1.184
752.88	1.141
753.06	1.192
753.24	1.154
753.42	1.213
753.60	1.497
753.78	1.249
753.97	1.269
754.15	1.312
754.33	1.350
754.51	1.158
754.69	1.134
754.87	1.184
755.06	1.085
755.24	1.088
755.42	1.095
755.60	0.969
755.78	0.979
755.96	0.914
756.15	0.914
756.33	0.923
756.51	0.944
756.69	0.922
756.87	0.882
757.05	0.909
757.23	0.885
757.42	0.845
757.60	0.842
757.78	0.831
757.96	0.827
758.14	0.806
758.32	0.788
758.50	0.806
758.69	0.806
758.87	0.794
759.05	0.797
759.23	0.814
759.41	0.816
759.59	0.805
759.77	0.829
759.95	0.859
760.13	0.913
760.32	0.911
760.50	0.902
760.68	0.934
760.86	0.937
761.04	0.905
761.22	0.909
761.40	0.971
761.58	0.975
761.76	0.941
761.95	0.923
762.13	0.873
762.31	0.874
762.49	0.838
762.67	0.863
762.85	0.881
763.03	0.872
763.21	0.846
763.39	0.823
763.57	0.830
763.75	0.822
763.94	0.804
764.12	0.802
764.30	0.830
764.48	0.833
764.66	0.786
764.84	0.782
765.02	0.828
765.20	0.838
765.38	0.812
765.56	0.819
765.74	0.868
765.92	0.869
766.10	0.882
766.28	0.876
766.46	0.911
766.65	0.911
766.83	0.897
767.01	0.876
767.19	0.887
767.37	0.887
767.55	0.869
767.73	0.844
767.91	0.850
768.09	0.833
768.27	0.815
768.45	0.804
768.63	0.813
768.81	0.811
768.99	0.780
769.17	0.805
769.35	0.825
769.53	0.821
769.71	0.798
769.89	0.810
770.07	0.822
770.25	0.808
770.43	0.783
770.61	0.815
770.79	0.825
770.97	0.838
771.15	0.800
771.33	0.807
771.51	0.815
771.69	0.829
771.87	0.832
772.05	0.838
772.24	0.847
772.42	0.855
772.60	0.822
772.78	0.891
772.96	0.927
773.14	0.921
773.32	0.884
773.49	0.891
773.67	0.891
773.85	0.868
774.03	0.851
774.21	0.885
774.39	0.900
774.57	0.929
774.75	0.845
774.93	0.839
775.11	0.870
775.29	0.878
775.47	0.880
775.65	0.890
775.83	0.916
776.01	0.944
776.19	0.885
776.37	0.890
776.55	0.892
776.73	0.887
776.91	0.882
777.09	0.862
777.27	0.863
777.45	0.848
777.63	0.821
777.81	0.815
777.99	0.801
778.17	0.803
778.35	0.776
778.53	0.761
778.71	0.769
778.89	0.752
779.07	0.738
779.24	0.743
779.42	0.746
779.60	0.768
779.78	0.764
779.96	0.772
780.14	0.783
780.32	0.804
780.50	0.785
780.68	0.786
780.86	0.780
781.04	0.800
781.22	0.806
781.40	0.820
781.58	0.810
781.75	0.798
781.93	0.777
782.11	0.776
782.29	0.762
782.47	0.762
782.65	0.746
782.83	0.780
783.01	0.773
783.19	0.763
783.37	0.743
783.55	0.744
783.72	0.767
783.90	0.777
784.08	0.765
784.26	0.782
784.44	0.802
784.62	0.801
784.80	0.758
784.98	0.763
785.16	0.772
785.33	0.789
785.51	0.772
785.69	0.756
785.87	0.755
786.05	0.768
786.23	0.760
786.41	0.760
786.59	0.772
786.77	0.772
786.94	0.758
787.12	0.764
787.30	0.768
787.48	0.764
787.66	0.748
787.84	0.751
788.02	0.741
788.19	0.738
788.37	0.720
788.55	0.722
788.73	0.723
788.91	0.715
789.09	0.695
789.27	0.684
789.44	0.699
789.62	0.709
789.80	0.716
789.98	0.746
790.16	0.732
790.34	0.729
790.51	0.713
790.69	0.735
790.87	0.746
791.05	0.740
791.23	0.729
791.41	0.729
791.58	0.737
791.76	0.715
791.94	0.678
792.12	0.688
792.30	0.692
792.48	0.692
792.65	0.685
792.83	0.693
793.01	0.705
793.19	0.704
793.37	0.686
793.54	0.682
793.72	0.695
793.90	0.695
794.08	0.681
794.26	0.683
794.43	0.694
794.61	0.675
794.79	0.662
794.97	0.658
795.15	0.665
795.32	0.669
795.50	0.657
795.68	0.652
795.86	0.659
796.04	0.662
796.21	0.652
796.39	0.649
796.57	0.666
796.75	0.674
796.92	0.674
797.10	0.680
797.28	0.683
797.46	0.688
797.64	0.686
797.81	0.694
797.99	0.700
798.17	0.704
798.35	0.696
798.52	0.700
798.70	0.695
798.88	0.706
799.06	0.703
799.23	0.707
799.41	0.717
799.59	0.709
799.77	0.695
799.94	0.704
800.12	0.717
800.30	0.736
800.48	0.735
800.65	0.736
800.83	0.724
801.01	0.716
801.19	0.715
801.36	0.711
801.54	0.717
801.72	0.728
801.90	0.712
802.07	0.707
802.25	0.692
802.43	0.671
802.60	0.667
802.78	0.675
802.96	0.683
803.14	0.676
803.31	0.671
803.49	0.672
803.67	0.668
803.84	0.673
804.02	0.660
804.20	0.666
804.38	0.674
804.55	0.671
804.73	0.653
804.91	0.653
805.08	0.666
805.26	0.662
805.44	0.724
805.61	0.729
805.79	0.730
805.97	0.730
806.15	0.719
806.32	0.714
806.50	0.723
806.68	0.723
806.85	0.711
807.03	0.703
807.21	0.723
807.38	0.657
807.56	0.644
807.74	0.654
807.91	0.665
808.09	0.666
808.27	0.686
808.44	0.715
808.62	0.730
808.80	0.731
808.97	0.722
809.15	0.718
809.33	0.739
809.50	0.747
809.68	0.729
809.86	0.736
810.03	0.775
810.21	0.751
810.39	0.730
810.56	0.734
810.74	0.762
810.91	0.844
811.09	0.827
811.27	0.847
811.44	0.857
811.62	0.860
811.80	0.841
811.97	0.805
812.15	0.807
812.33	0.798
812.50	0.779
812.68	0.768
812.85	0.709
813.03	0.711
813.21	0.676
813.38	0.669
813.56	0.675
813.74	0.685
813.91	0.691
814.09	0.725
814.26	0.720
814.44	0.725
814.62	0.711
814.79	0.716
814.97	0.723
815.14	0.727
815.32	0.728
815.50	0.747
815.67	0.753
815.85	0.744
816.02	0.731
816.20	0.740
816.38	0.761
816.55	0.766
816.73	0.764
816.90	0.774
817.08	0.811
817.26	0.821
817.43	0.795
817.61	0.820
817.78	0.846
817.96	0.823
818.13	0.807
818.31	0.804
818.49	0.824
818.66	0.812
818.84	0.795
819.01	0.772
819.19	0.780
819.36	0.781
819.54	0.747
819.71	0.794
819.89	0.809
820.07	0.822
820.24	0.817
820.42	0.816
820.59	0.842
820.77	0.871
820.94	0.859
821.12	0.883
821.29	0.905
821.47	0.903
821.64	0.824
821.82	0.842
822.00	0.845
822.17	0.841
822.35	0.832
822.52	0.835
822.70	0.824
822.87	0.834
823.05	0.803
823.22	0.817
823.40	0.854
823.57	0.887
823.75	0.859
823.92	0.892
824.10	0.918
824.27	0.967
824.45	0.945
824.62	1.021
824.80	1.050
824.97	1.076
825.15	1.060
825.32	1.076
825.50	1.082
825.67	1.103
825.85	1.065
826.02	1.088
826.20	1.128
826.37	1.345
826.55	1.210
826.72	1.582
826.90	1.841
827.07	2.101
827.25	1.792
827.42	-0.000
827.60	-0.000
827.77	-0.000
827.95	-0.000
828.12	-0.000
828.30	-0.000
828.47	-0.000
828.65	1.915
828.82	2.462
829.00	-0.000
829.17	-0.000
829.34	-0.000
829.52	-0.000
829.69	-0.000
829.87	-0.000
830.04	-0.000
830.22	-0.000
830.39	-0.000
830.57	-0.000
830.74	-0.000
830.92	-0.000
831.09	-0.000
831.26	-0.000
831.44	-0.000
831.61	-0.000
831.79	-0.000
831.96	-0.000
832.14	-0.000
832.31	-0.000
832.49	-0.000
832.66	-0.000
832.83	-0.000
833.01	-0.000
833.18	-0.000
833.36	-0.000
833.53	-0.000
833.70	-0.000
833.88	-0.000
834.05	-0.000
834.23	-0.000
834.40	-0.000
834.58	-0.000
834.75	-0.000
834.92	-0.000
835.10	-0.000
835.27	-0.000
835.45	-0.000
835.62	-0.000
835.79	-0.000
835.97	-0.000
836.14	-0.000
836.32	-0.000
836.49	-0.000
836.66	-0.000
836.84	-0.000
837.01	-0.000
837.18	-0.000
837.36	-0.000
837.53	-0.000
837.71	-0.000
837.88	-0.000
838.05	-0.000
838.23	-0.000
838.40	-0.000
838.58	-0.000
838.75	-0.000
838.92	-0.000
839.10	-0.000
839.27	-0.000
839.44	-0.000
839.62	-0.000
839.79	-0.000
839.96	-0.000
840.14	-0.000
840.31	-0.000
840.48	-0.000
840.66	-0.000
840.83	-0.000
841.01	-0.000
841.18	-0.000
841.35	-0.000
841.53	-0.000
841.70	-0.000
841.87	-0.000
842.05	-0.000
842.22	-0.000
842.39	-0.000
842.57	-0.000
842.74	-0.000
842.91	-0.000
843.09	-0.000
843.26	-0.000
843.43	-0.000
843.60	-0.000
843.78	-0.000
843.95	-0.000
844.12	-0.000
844.30	-0.000
844.47	-0.000
844.64	-0.000
844.82	-0.000
844.99	-0.000
845.16	-0.000
845.34	-0.000
845.51	-0.000
845.68	-0.000
845.85	-0.000
846.03	-0.000
846.20	-0.000
846.37	-0.000
846.55	-0.000
846.72	-0.000
846.89	-0.000
847.06	-0.000
847.24	-0.000
847.41	-0.000
847.58	-0.000
847.76	-0.000
847.93	-0.000
848.10	-0.000
848.27	-0.000
848.45	-0.000
848.62	-0.000
848.79	-0.000
848.97	-0.000
849.14	-0.000
849.31	-0.000
849.48	-0.000
849.66	-0.000
849.83	-0.000
850.00	-0.000
850.17	-0.000
850.35	-0.000
850.52	-0.000
850.69	-0.000
850.86	-0.000
851.04	-0.000
851.21	-0.000
851.38	-0.000
851.55	-0.000
851.72	-0.000
851.90	-0.000
852.07	-0.000
852.24	-0.000
852.41	-0.000
852.59	-0.000
852.76	-0.000
852.93	-0.000
853.10	-0.000
853.28	-0.000
853.45	-0.000
853.62	-0.000
853.79	-0.000
853.96	-0.000
854.14	-0.000
854.31	-0.000
854.48	-0.000
854.65	-0.000
854.82	-0.000
855.00	-0.000
855.17	-0.000
855.34	-0.000
855.51	-0.000
855.68	-0.000
855.86	-0.000
856.03	-0.000
856.20	-0.000
856.37	-0.000
856.54	-0.000
856.72	-0.000
856.89	-0.000
857.06	-0.000
857.23	-0.000
857.40	-0.000
857.57	-0.000
857.75	-0.000
857.92	-0.000
858.09	-0.000
858.26	-0.000
858.43	-0.000
858.60	-0.000
858.78	-0.000
858.95	-0.000
859.12	-0.000
859.29	-0.000
859.46	-0.000
859.63	-0.000
859.81	-0.000
859.98	-0.000
860.15	-0.000
860.32	-0.000
860.49	-0.000
860.66	-0.000
860.83	-0.000
861.01	-0.000
861.18	-0.000
861.35	-0.000
861.52	-0.000
861.69	-0.000
861.86	-0.000
862.03	-0.000
862.21	-0.000
862.38	-0.000
862.55	-0.000
862.72	-0.000
862.89	-0.000
863.06	-0.000
863.23	-0.000
863.40	-0.000
863.58	-0.000
863.75	-0.000
863.92	-0.000
864.09	-0.000
864.26	-0.000
864.43	-0.000
864.60	-0.000
864.77	-0.000
864.94	-0.000
865.11	-0.000
865.29	-0.000
865.46	-0.000
865.63	-0.000
865.80	-0.000
865.97	-0.000
866.14	-0.000
866.31	-0.000
866.48	-0.000
866.65	-0.000
866.82	-0.000
866.99	-0.000
867.16	-0.000
867.34	-0.000
867.51	-0.000
867.68	-0.000
867.85	-0.000
868.02	-0.000
868.19	-0.000
868.36	-0.000
868.53	-0.000
868.70	-0.000
868.87	-0.000
869.04	-0.000
869.21	-0.000
869.38	-0.000
869.55	-0.000
869.72	-0.000
869.89	-0.000
870.06	-0.000
870.24	-0.000
870.41	-0.000
870.58	-0.000
870.75	-0.000
870.92	-0.000
871.09	-0.000
871.26	-0.000
871.43	-0.000
871.60	-0.000
871.77	-0.000
871.94	-0.000
872.11	-0.000
872.28	-0.000
872.45	-0.000
872.62	-0.000
872.79	-0.000
872.96	-0.000
873.13	-0.000
873.30	-0.000
873.47	-0.000
873.64	-0.000
873.81	-0.000
873.98	-0.000
874.15	-0.000
874.32	-0.000
874.49	-0.000
874.66	-0.000
874.83	-0.000
875.00	-0.000
875.17	-0.000
875.34	-0.000
875.51	-0.000
875.68	-0.000
875.85	-0.000
876.02	-0.000
876.19	-0.000
876.36	-0.000
876.53	-0.000
876.70	-0.000
876.87	-0.000
877.04	-0.000
877.21	-0.000
877.38	-0.000
877.55	-0.000
877.72	-0.000
877.89	-0.000
878.06	-0.000
878.23	-0.000
878.39	-0.000
878.56	-0.000
878.73	-0.000
878.90	-0.000
879.07	-0.000
879.24	-0.000
879.41	-0.000
879.58	-0.000
879.75	-0.000
879.92	-0.000
880.09	-0.000
880.26	-0.000
880.43	-0.000
880.60	-0.000
880.77	-0.000
880.94	-0.000
881.11	-0.000
881.27	-0.000
881.44	-0.000
881.61	-0.000
881.78	-0.000
881.95	-0.000
882.12	-0.000
882.29	-0.000
882.46	-0.000
882.63	-0.000
882.80	-0.000
882.97	-0.000
883.14	-0.000
883.30	-0.000
883.47	-0.000
883.64	-0.000
883.81	-0.000
883.98	-0.000
884.15	-0.000
884.32	-0.000
884.49	-0.000
884.66	-0.000
884.82	-0.000
884.99	-0.000
885.16	-0.000
885.33	-0.000
885.50	-0.000
885.67	-0.000
885.84	-0.000
886.01	-0.000
886.17	-0.000
886.34	-0.000
886.51	-0.000
886.68	-0.000
886.85	-0.000
887.02	-0.000
887.19	-0.000
887.36	-0.000
887.52	-0.000
887.69	-0.000
887.86	-0.000
888.03	-0.000
888.20	-0.000
888.37	-0.000
888.54	-0.000
888.70	-0.000
888.87	-0.000
889.04	-0.000
889.21	-0.000
889.38	-0.000
889.55	-0.000
889.71	-0.000
889.88	-0.000
890.05	-0.000
890.22	-0.000
890.39	-0.000
>>>>>End Processed Spectral Data<<<<<
