SpectraSuite Data File
++++++++++++++++++++++++++++++++++++
Date: Fri Jun 19 13:46:35 CEST 2015
User: introlabs
Dark Spectrum Present: Yes
Reference Spectrum Present: Yes
Number of Sampled Component Spectra: 1
Spectrometers: USB4H08886
Integration Time (usec): 745692 (USB4H08886)
Spectra Averaged: 5 (USB4H08886)
Boxcar Smoothing: 5 (USB4H08886)
Correct for Electrical Dark: Yes (USB4H08886)
Strobe/Lamp Enabled: No (USB4H08886)
Correct for Detector Non-linearity: Yes (USB4H08886)
Correct for Stray Light: Yes (USB4H08886)
Number of Pixels in Processed Spectrum: 3648
>>>>>Begin Processed Spectral Data<<<<<
178.14	-0.000
178.36	-0.000
178.57	-0.000
178.79	-0.000
179.01	-0.000
179.22	-0.000
179.44	-0.000
179.65	-0.000
179.87	-0.000
180.08	-0.000
180.30	-0.000
180.52	-0.000
180.73	-0.000
180.95	-0.000
181.16	-0.000
181.38	-0.000
181.59	-0.000
181.81	-0.000
182.03	-0.000
182.24	-0.000
182.46	-0.000
182.67	-0.000
182.89	-0.000
183.10	-0.000
183.32	-0.000
183.54	-0.000
183.75	-0.000
183.97	-0.000
184.18	-0.000
184.40	-0.000
184.61	-0.000
184.83	-0.000
185.04	-0.000
185.26	-0.000
185.48	-0.000
185.69	-0.000
185.91	-0.000
186.12	-0.000
186.34	-0.000
186.55	-0.000
186.77	-0.000
186.98	-0.000
187.20	-0.000
187.42	-0.000
187.63	-0.000
187.85	-0.000
188.06	-0.000
188.28	-0.000
188.49	-0.000
188.71	-0.000
188.92	-0.000
189.14	-0.000
189.36	-0.000
189.57	-0.000
189.79	-0.000
190.00	-0.000
190.22	-0.000
190.43	-0.000
190.65	-0.000
190.86	-0.000
191.08	-0.000
191.29	-0.000
191.51	-0.000
191.72	-0.000
191.94	-0.000
192.16	-0.000
192.37	-0.000
192.59	-0.000
192.80	-0.000
193.02	-0.000
193.23	-0.000
193.45	-0.000
193.66	-0.000
193.88	-0.000
194.09	-0.000
194.31	-0.000
194.52	-0.000
194.74	-0.000
194.95	-0.000
195.17	-0.000
195.38	-0.000
195.60	-0.000
195.81	-0.000
196.03	-0.000
196.25	-0.000
196.46	-0.000
196.68	-0.000
196.89	-0.000
197.11	-0.000
197.32	-0.000
197.54	-0.000
197.75	-0.000
197.97	-0.000
198.18	-0.000
198.40	-0.000
198.61	-0.000
198.83	-0.000
199.04	-0.000
199.26	-0.000
199.47	-0.000
199.69	-0.000
199.90	-0.000
200.12	-0.000
200.33	-0.000
200.55	-0.000
200.76	-0.000
200.98	-0.000
201.19	-0.000
201.41	-0.000
201.62	-0.000
201.84	-0.000
202.05	-0.000
202.27	-0.000
202.48	-0.000
202.70	-0.000
202.91	-0.000
203.13	-0.000
203.34	-0.000
203.56	-0.000
203.77	-0.000
203.99	-0.000
204.20	-0.000
204.42	-0.000
204.63	-0.000
204.85	-0.000
205.06	-0.000
205.28	-0.000
205.49	-0.000
205.71	-0.000
205.92	-0.000
206.14	-0.000
206.35	-0.000
206.56	-0.000
206.78	-0.000
206.99	-0.000
207.21	-0.000
207.42	-0.000
207.64	-0.000
207.85	-0.000
208.07	-0.000
208.28	-0.000
208.50	-0.000
208.71	-0.000
208.93	-0.000
209.14	-0.000
209.36	-0.000
209.57	-0.000
209.79	-0.000
210.00	-0.000
210.22	-0.000
210.43	-0.000
210.64	-0.000
210.86	-0.000
211.07	-0.000
211.29	-0.000
211.50	-0.000
211.72	-0.000
211.93	-0.000
212.15	-0.000
212.36	-0.000
212.58	-0.000
212.79	-0.000
213.01	-0.000
213.22	-0.000
213.43	-0.000
213.65	-0.000
213.86	-0.000
214.08	-0.000
214.29	-0.000
214.51	-0.000
214.72	-0.000
214.94	-0.000
215.15	-0.000
215.36	-0.000
215.58	-0.000
215.79	-0.000
216.01	-0.000
216.22	-0.000
216.44	-0.000
216.65	-0.000
216.87	-0.000
217.08	-0.000
217.29	-0.000
217.51	-0.000
217.72	-0.000
217.94	-0.000
218.15	-0.000
218.37	-0.000
218.58	-0.000
218.80	-0.000
219.01	-0.000
219.22	-0.000
219.44	-0.000
219.65	-0.000
219.87	-0.000
220.08	-0.000
220.30	-0.000
220.51	-0.000
220.72	-0.000
220.94	-0.000
221.15	-0.000
221.37	-0.000
221.58	-0.000
221.79	-0.000
222.01	-0.000
222.22	-0.000
222.44	-0.000
222.65	-0.000
222.87	-0.000
223.08	-0.000
223.29	-0.000
223.51	-0.000
223.72	-0.000
223.94	-0.000
224.15	-0.000
224.36	-0.000
224.58	-0.000
224.79	-0.000
225.01	-0.000
225.22	-0.000
225.44	-0.000
225.65	-0.000
225.86	-0.000
226.08	-0.000
226.29	-0.000
226.51	-0.000
226.72	-0.000
226.93	-0.000
227.15	-0.000
227.36	-0.000
227.58	-0.000
227.79	-0.000
228.00	-0.000
228.22	-0.000
228.43	-0.000
228.65	-0.000
228.86	-0.000
229.07	-0.000
229.29	-0.000
229.50	-0.000
229.72	-0.000
229.93	-0.000
230.14	-0.000
230.36	-0.000
230.57	-0.000
230.78	-0.000
231.00	-0.000
231.21	-0.000
231.43	-0.000
231.64	-0.000
231.85	-0.000
232.07	-0.000
232.28	-0.000
232.50	-0.000
232.71	-0.000
232.92	-0.000
233.14	-0.000
233.35	-0.000
233.56	-0.000
233.78	-0.000
233.99	-0.000
234.21	-0.000
234.42	-0.000
234.63	-0.000
234.85	-0.000
235.06	-0.000
235.27	-0.000
235.49	-0.000
235.70	-0.000
235.91	-0.000
236.13	-0.000
236.34	-0.000
236.56	-0.000
236.77	-0.000
236.98	-0.000
237.20	-0.000
237.41	-0.000
237.62	-0.000
237.84	-0.000
238.05	-0.000
238.26	-0.000
238.48	-0.000
238.69	-0.000
238.91	-0.000
239.12	-0.000
239.33	-0.000
239.55	-0.000
239.76	-0.000
239.97	-0.000
240.19	-0.000
240.40	-0.000
240.61	-0.000
240.83	-0.000
241.04	-0.000
241.25	-0.000
241.47	-0.000
241.68	-0.000
241.89	-0.000
242.11	-0.000
242.32	-0.000
242.53	-0.000
242.75	-0.000
242.96	-0.000
243.17	-0.000
243.39	-0.000
243.60	-0.000
243.81	-0.000
244.03	-0.000
244.24	-0.000
244.45	-0.000
244.67	-0.000
244.88	-0.000
245.09	-0.000
245.31	-0.000
245.52	-0.000
245.73	-0.000
245.95	-0.000
246.16	-0.000
246.37	-0.000
246.59	-0.000
246.80	-0.000
247.01	-0.000
247.23	-0.000
247.44	-0.000
247.65	-0.000
247.87	-0.000
248.08	-0.000
248.29	-0.000
248.51	-0.000
248.72	-0.000
248.93	-0.000
249.15	-0.000
249.36	-0.000
249.57	-0.000
249.78	-0.000
250.00	-0.000
250.21	-0.000
250.42	-0.000
250.64	-0.000
250.85	-0.000
251.06	-0.000
251.28	-0.000
251.49	-0.000
251.70	-0.000
251.92	-0.000
252.13	-0.000
252.34	-0.000
252.55	-0.000
252.77	-0.000
252.98	-0.000
253.19	-0.000
253.41	-0.000
253.62	-0.000
253.83	-0.000
254.05	-0.000
254.26	-0.000
254.47	-0.000
254.68	-0.000
254.90	-0.000
255.11	-0.000
255.32	-0.000
255.54	-0.000
255.75	-0.000
255.96	-0.000
256.17	-0.000
256.39	-0.000
256.60	-0.000
256.81	-0.000
257.03	-0.000
257.24	-0.000
257.45	-0.000
257.66	-0.000
257.88	-0.000
258.09	-0.000
258.30	-0.000
258.51	-0.000
258.73	-0.000
258.94	-0.000
259.15	-0.000
259.37	-0.000
259.58	-0.000
259.79	-0.000
260.00	-0.000
260.22	-0.000
260.43	-0.000
260.64	-0.000
260.85	-0.000
261.07	-0.000
261.28	-0.000
261.49	-0.000
261.71	-0.000
261.92	-0.000
262.13	-0.000
262.34	-0.000
262.56	-0.000
262.77	-0.000
262.98	-0.000
263.19	-0.000
263.41	-0.000
263.62	-0.000
263.83	-0.000
264.04	-0.000
264.26	-0.000
264.47	-0.000
264.68	-0.000
264.89	-0.000
265.11	-0.000
265.32	-0.000
265.53	-0.000
265.74	-0.000
265.96	-0.000
266.17	-0.000
266.38	-0.000
266.59	-0.000
266.81	-0.000
267.02	-0.000
267.23	-0.000
267.44	-0.000
267.65	-0.000
267.87	-0.000
268.08	-0.000
268.29	-0.000
268.50	-0.000
268.72	-0.000
268.93	-0.000
269.14	-0.000
269.35	-0.000
269.57	-0.000
269.78	-0.000
269.99	-0.000
270.20	-0.000
270.41	-0.000
270.63	-0.000
270.84	-0.000
271.05	-0.000
271.26	-0.000
271.48	-0.000
271.69	-0.000
271.90	-0.000
272.11	-0.000
272.32	-0.000
272.54	-0.000
272.75	-0.000
272.96	-0.000
273.17	-0.000
273.39	-0.000
273.60	-0.000
273.81	-0.000
274.02	-0.000
274.23	-0.000
274.45	-0.000
274.66	-0.000
274.87	-0.000
275.08	-0.000
275.29	-0.000
275.51	-0.000
275.72	-0.000
275.93	-0.000
276.14	-0.000
276.35	-0.000
276.57	-0.000
276.78	-0.000
276.99	-0.000
277.20	-0.000
277.41	-0.000
277.63	-0.000
277.84	-0.000
278.05	-0.000
278.26	-0.000
278.47	-0.000
278.69	-0.000
278.90	-0.000
279.11	-0.000
279.32	-0.000
279.53	-0.000
279.74	-0.000
279.96	-0.000
280.17	-0.000
280.38	-0.000
280.59	-0.000
280.80	-0.000
281.02	-0.000
281.23	-0.000
281.44	-0.000
281.65	-0.000
281.86	-0.000
282.07	-0.000
282.29	-0.000
282.50	-0.000
282.71	-0.000
282.92	-0.000
283.13	-0.000
283.35	-0.000
283.56	-0.000
283.77	-0.000
283.98	-0.000
284.19	-0.000
284.40	-0.000
284.62	-0.000
284.83	-0.000
285.04	-0.000
285.25	-0.000
285.46	-0.000
285.67	-0.000
285.88	-0.000
286.10	-0.000
286.31	-0.000
286.52	-0.000
286.73	-0.000
286.94	-0.000
287.15	-0.000
287.37	-0.000
287.58	-0.000
287.79	-0.000
288.00	-0.000
288.21	-0.000
288.42	-0.000
288.63	-0.000
288.85	-0.000
289.06	-0.000
289.27	-0.000
289.48	-0.000
289.69	-0.000
289.90	-0.000
290.11	-0.000
290.33	-0.000
290.54	-0.000
290.75	-0.000
290.96	-0.000
291.17	-0.000
291.38	-0.000
291.59	-0.000
291.81	-0.000
292.02	-0.000
292.23	-0.000
292.44	-0.000
292.65	-0.000
292.86	-0.000
293.07	-0.000
293.28	-0.000
293.50	-0.000
293.71	-0.000
293.92	-0.000
294.13	-0.000
294.34	-0.000
294.55	-0.000
294.76	-0.000
294.97	-0.000
295.19	-0.000
295.40	-0.000
295.61	-0.000
295.82	-0.000
296.03	-0.000
296.24	-0.000
296.45	-0.000
296.66	2.890
296.87	3.099
297.09	-0.000
297.30	-0.000
297.51	2.304
297.72	2.151
297.93	2.480
298.14	2.338
298.35	2.187
298.56	2.090
298.77	2.559
298.99	2.329
299.20	2.194
299.41	2.130
299.62	2.030
299.83	2.002
300.04	1.859
300.25	1.847
300.46	1.930
300.67	1.879
300.88	1.776
301.10	1.790
301.31	1.936
301.52	1.813
301.73	1.702
301.94	1.689
302.15	1.720
302.36	1.653
302.57	1.556
302.78	1.570
302.99	1.627
303.20	1.661
303.41	1.526
303.63	1.495
303.84	1.509
304.05	1.501
304.26	1.427
304.47	1.431
304.68	1.432
304.89	1.418
305.10	1.364
305.31	1.350
305.52	1.401
305.73	1.390
305.94	1.343
306.15	1.331
306.37	1.362
306.58	1.366
306.79	1.327
307.00	1.351
307.21	1.401
307.42	1.388
307.63	1.346
307.84	1.306
308.05	1.348
308.26	1.352
308.47	1.320
308.68	1.315
308.89	1.315
309.10	1.312
309.31	1.266
309.52	1.256
309.73	1.274
309.95	1.265
310.16	1.232
310.37	1.222
310.58	1.239
310.79	1.238
311.00	1.230
311.21	1.236
311.42	1.243
311.63	1.235
311.84	1.212
312.05	1.210
312.26	1.233
312.47	1.246
312.68	1.218
312.89	1.200
313.10	1.212
313.31	1.182
313.52	1.181
313.73	1.178
313.94	1.183
314.15	1.165
314.36	1.140
314.57	1.135
314.78	1.120
314.99	1.114
315.21	1.100
315.42	1.102
315.63	1.115
315.84	1.091
316.05	1.076
316.26	1.084
316.47	1.106
316.68	1.101
316.89	1.077
317.10	1.100
317.31	1.107
317.52	1.108
317.73	1.084
317.94	1.085
318.15	1.132
318.36	1.131
318.57	1.110
318.78	1.098
318.99	1.134
319.20	1.132
319.41	1.094
319.62	1.097
319.83	1.113
320.04	1.108
320.25	1.092
320.46	1.056
320.67	1.062
320.88	1.056
321.09	1.039
321.30	1.024
321.51	1.040
321.72	1.038
321.93	1.017
322.14	1.007
322.35	1.036
322.56	1.038
322.77	1.024
322.98	1.035
323.19	1.045
323.40	1.051
323.61	1.028
323.82	1.023
324.03	1.030
324.24	1.028
324.45	1.014
324.66	0.994
324.87	0.991
325.08	0.992
325.29	0.969
325.50	0.963
325.71	0.968
325.92	0.976
326.13	0.961
326.34	0.961
326.55	0.970
326.76	0.968
326.97	0.956
327.18	0.949
327.39	0.975
327.60	0.976
327.80	0.975
328.01	0.973
328.22	0.974
328.43	0.977
328.64	0.964
328.85	0.968
329.06	0.970
329.27	0.969
329.48	0.964
329.69	0.944
329.90	0.954
330.11	0.948
330.32	0.940
330.53	0.933
330.74	0.933
330.95	0.931
331.16	0.916
331.37	0.924
331.58	0.926
331.79	0.925
332.00	0.918
332.21	0.911
332.42	0.915
332.63	0.906
332.83	0.901
333.04	0.905
333.25	0.918
333.46	0.916
333.67	0.903
333.88	0.906
334.09	0.916
334.30	0.912
334.51	0.903
334.72	0.898
334.93	0.902
335.14	0.900
335.35	0.892
335.56	0.887
335.77	0.896
335.98	0.894
336.18	0.887
336.39	0.880
336.60	0.884
336.81	0.882
337.02	0.881
337.23	0.886
337.44	0.889
337.65	0.890
337.86	0.879
338.07	0.874
338.28	0.879
338.49	0.877
338.70	0.869
338.91	0.875
339.11	0.882
339.32	0.878
339.53	0.866
339.74	0.865
339.95	0.863
340.16	0.861
340.37	0.853
340.58	0.852
340.79	0.857
341.00	0.857
341.21	0.846
341.41	0.846
341.62	0.849
341.83	0.850
342.04	0.844
342.25	0.854
342.46	0.858
342.67	0.856
342.88	0.849
343.09	0.848
343.30	0.855
343.50	0.858
343.71	0.848
343.92	0.846
344.13	0.850
344.34	0.849
344.55	0.833
344.76	0.833
344.97	0.838
345.18	0.836
345.38	0.833
345.59	0.828
345.80	0.828
346.01	0.825
346.22	0.820
346.43	0.814
346.64	0.823
346.85	0.822
347.06	0.814
347.26	0.815
347.47	0.819
347.68	0.815
347.89	0.810
348.10	0.805
348.31	0.812
348.52	0.811
348.73	0.810
348.93	0.806
349.14	0.809
349.35	0.809
349.56	0.804
349.77	0.798
349.98	0.804
350.19	0.801
350.39	0.796
350.60	0.791
350.81	0.808
351.02	0.806
351.23	0.801
351.44	0.804
351.65	0.806
351.86	0.803
352.06	0.802
352.27	0.802
352.48	0.804
352.69	0.803
352.90	0.798
353.11	0.785
353.31	0.792
353.52	0.788
353.73	0.779
353.94	0.782
354.15	0.788
354.36	0.788
354.57	0.779
354.77	0.782
354.98	0.781
355.19	0.781
355.40	0.780
355.61	0.785
355.82	0.789
356.02	0.789
356.23	0.782
356.44	0.782
356.65	0.786
356.86	0.786
357.07	0.779
357.27	0.783
357.48	0.785
357.69	0.781
357.90	0.765
358.11	0.762
358.32	0.767
358.52	0.769
358.73	0.760
358.94	0.762
359.15	0.768
359.36	0.769
359.56	0.764
359.77	0.761
359.98	0.768
360.19	0.767
360.40	0.764
360.61	0.765
360.81	0.764
361.02	0.764
361.23	0.754
361.44	0.752
361.65	0.753
361.85	0.752
362.06	0.750
362.27	0.753
362.48	0.753
362.69	0.755
362.89	0.749
363.10	0.750
363.31	0.755
363.52	0.758
363.73	0.754
363.93	0.754
364.14	0.757
364.35	0.759
364.56	0.748
364.77	0.750
364.97	0.754
365.18	0.753
365.39	0.748
365.60	0.744
365.81	0.746
366.01	0.746
366.22	0.742
366.43	0.741
366.64	0.743
366.84	0.748
367.05	0.744
367.26	0.743
367.47	0.745
367.68	0.745
367.88	0.742
368.09	0.740
368.30	0.743
368.51	0.742
368.71	0.741
368.92	0.745
369.13	0.744
369.34	0.744
369.55	0.742
369.75	0.742
369.96	0.750
370.17	0.750
370.38	0.747
370.58	0.745
370.79	0.752
371.00	0.750
371.21	0.740
371.41	0.746
371.62	0.749
371.83	0.745
372.04	0.743
372.24	0.735
372.45	0.736
372.66	0.736
372.87	0.732
373.07	0.728
373.28	0.730
373.49	0.734
373.70	0.724
373.90	0.723
374.11	0.733
374.32	0.732
374.53	0.731
374.73	0.731
374.94	0.734
375.15	0.734
375.36	0.732
375.56	0.741
375.77	0.741
375.98	0.741
376.19	0.738
376.39	0.732
376.60	0.736
376.81	0.736
377.02	0.734
377.22	0.734
377.43	0.734
377.64	0.734
377.84	0.724
378.05	0.729
378.26	0.735
378.47	0.734
378.67	0.731
378.88	0.728
379.09	0.728
379.30	0.729
379.50	0.725
379.71	0.728
379.92	0.731
380.12	0.731
380.33	0.722
380.54	0.719
380.75	0.726
380.95	0.725
381.16	0.723
381.37	0.723
381.57	0.725
381.78	0.725
381.99	0.725
382.20	0.724
382.40	0.728
382.61	0.728
382.82	0.724
383.02	0.717
383.23	0.720
383.44	0.721
383.64	0.719
383.85	0.721
384.06	0.724
384.27	0.721
384.47	0.719
384.68	0.719
384.89	0.725
385.09	0.726
385.30	0.725
385.51	0.724
385.71	0.727
385.92	0.727
386.13	0.726
386.33	0.727
386.54	0.729
386.75	0.728
386.95	0.724
387.16	0.718
387.37	0.721
387.58	0.721
387.78	0.718
387.99	0.716
388.20	0.718
388.40	0.714
388.61	0.710
388.82	0.714
389.02	0.716
389.23	0.716
389.44	0.715
389.64	0.715
389.85	0.725
390.06	0.725
390.26	0.727
390.47	0.726
390.68	0.729
390.88	0.727
391.09	0.722
391.30	0.720
391.50	0.720
391.71	0.721
391.92	0.718
392.12	0.711
392.33	0.712
392.53	0.710
392.74	0.710
392.95	0.709
393.15	0.712
393.36	0.714
393.57	0.712
393.77	0.715
393.98	0.716
394.19	0.715
394.39	0.714
394.60	0.716
394.81	0.718
395.01	0.716
395.22	0.715
395.43	0.715
395.63	0.720
395.84	0.721
396.04	0.716
396.25	0.718
396.46	0.720
396.66	0.718
396.87	0.715
397.08	0.712
397.28	0.714
397.49	0.715
397.69	0.711
397.90	0.706
398.11	0.707
398.31	0.707
398.52	0.704
398.73	0.705
398.93	0.704
399.14	0.703
399.34	0.702
399.55	0.703
399.76	0.704
399.96	0.705
400.17	0.703
400.37	0.702
400.58	0.710
400.79	0.711
400.99	0.708
401.20	0.714
401.41	0.716
401.61	0.717
401.82	0.721
402.02	0.720
402.23	0.722
402.44	0.722
402.64	0.721
402.85	0.715
403.05	0.715
403.26	0.714
403.47	0.708
403.67	0.707
403.88	0.708
404.08	0.703
404.29	0.700
404.50	0.700
404.70	0.700
404.91	0.699
405.11	0.696
405.32	0.695
405.52	0.695
405.73	0.695
405.94	0.693
406.14	0.695
406.35	0.698
406.55	0.697
406.76	0.696
406.97	0.697
407.17	0.699
407.38	0.699
407.58	0.697
407.79	0.700
407.99	0.702
408.20	0.703
408.41	0.698
408.61	0.696
408.82	0.697
409.02	0.697
409.23	0.694
409.43	0.694
409.64	0.695
409.84	0.695
410.05	0.691
410.26	0.690
410.46	0.690
410.67	0.690
410.87	0.691
411.08	0.693
411.28	0.694
411.49	0.696
411.69	0.694
411.90	0.695
412.11	0.697
412.31	0.698
412.52	0.696
412.72	0.697
412.93	0.698
413.13	0.697
413.34	0.693
413.54	0.694
413.75	0.696
413.95	0.696
414.16	0.692
414.37	0.694
414.57	0.694
414.78	0.696
414.98	0.694
415.19	0.695
415.39	0.693
415.60	0.696
415.80	0.695
416.01	0.693
416.21	0.694
416.42	0.695
416.62	0.691
416.83	0.691
417.03	0.691
417.24	0.692
417.44	0.690
417.65	0.689
417.86	0.689
418.06	0.688
418.27	0.686
418.47	0.687
418.68	0.688
418.88	0.689
419.09	0.686
419.29	0.686
419.50	0.687
419.70	0.686
419.91	0.685
420.11	0.682
420.32	0.685
420.52	0.685
420.73	0.684
420.93	0.684
421.14	0.686
421.34	0.685
421.55	0.682
421.75	0.682
421.96	0.684
422.16	0.684
422.37	0.683
422.57	0.681
422.78	0.682
422.98	0.678
423.19	0.676
423.39	0.675
423.60	0.678
423.80	0.679
424.01	0.678
424.21	0.680
424.42	0.681
424.62	0.681
424.83	0.680
425.03	0.680
425.23	0.682
425.44	0.683
425.64	0.683
425.85	0.681
426.05	0.682
426.26	0.683
426.46	0.679
426.67	0.677
426.87	0.682
427.08	0.683
427.28	0.680
427.49	0.681
427.69	0.682
427.90	0.680
428.10	0.678
428.31	0.678
428.51	0.680
428.71	0.679
428.92	0.680
429.12	0.678
429.33	0.679
429.53	0.683
429.74	0.686
429.94	0.687
430.15	0.687
430.35	0.687
430.56	0.684
430.76	0.683
430.96	0.684
431.17	0.681
431.37	0.678
431.58	0.677
431.78	0.674
431.99	0.667
432.19	0.669
432.40	0.671
432.60	0.672
432.80	0.674
433.01	0.673
433.21	0.673
433.42	0.675
433.62	0.676
433.83	0.676
434.03	0.678
434.23	0.681
434.44	0.680
434.64	0.677
434.85	0.682
435.05	0.683
435.26	0.684
435.46	0.682
435.66	0.681
435.87	0.680
436.07	0.681
436.28	0.676
436.48	0.674
436.69	0.673
436.89	0.673
437.09	0.667
437.30	0.666
437.50	0.667
437.71	0.678
437.91	0.677
438.11	0.678
438.32	0.682
438.52	0.683
438.73	0.681
438.93	0.680
439.13	0.680
439.34	0.683
439.54	0.680
439.75	0.680
439.95	0.670
440.15	0.674
440.36	0.673
440.56	0.670
440.77	0.672
440.97	0.672
441.17	0.671
441.38	0.673
441.58	0.670
441.79	0.670
441.99	0.669
442.19	0.668
442.40	0.666
442.60	0.666
442.81	0.663
443.01	0.664
443.21	0.664
443.42	0.663
443.62	0.661
443.82	0.661
444.03	0.663
444.23	0.663
444.44	0.663
444.64	0.662
444.84	0.663
445.05	0.663
445.25	0.660
445.45	0.660
445.66	0.664
445.86	0.663
446.06	0.664
446.27	0.663
446.47	0.666
446.68	0.665
446.88	0.663
447.08	0.663
447.29	0.665
447.49	0.666
447.69	0.665
447.90	0.664
448.10	0.667
448.30	0.665
448.51	0.666
448.71	0.664
448.91	0.666
449.12	0.665
449.32	0.665
449.52	0.664
449.73	0.668
449.93	0.667
450.14	0.667
450.34	0.667
450.54	0.669
450.75	0.666
450.95	0.666
451.15	0.665
451.36	0.667
451.56	0.665
451.76	0.664
451.97	0.661
452.17	0.662
452.37	0.660
452.58	0.656
452.78	0.656
452.98	0.659
453.19	0.658
453.39	0.659
453.59	0.658
453.79	0.659
454.00	0.660
454.20	0.659
454.40	0.660
454.61	0.662
454.81	0.663
455.01	0.662
455.22	0.662
455.42	0.665
455.62	0.662
455.83	0.662
456.03	0.664
456.23	0.666
456.44	0.667
456.64	0.665
456.84	0.664
457.04	0.665
457.25	0.664
457.45	0.660
457.65	0.659
457.86	0.660
458.06	0.659
458.26	0.654
458.47	0.653
458.67	0.654
458.87	0.655
459.07	0.652
459.28	0.655
459.48	0.657
459.68	0.658
459.89	0.657
460.09	0.656
460.29	0.658
460.49	0.660
460.70	0.659
460.90	0.659
461.10	0.659
461.31	0.659
461.51	0.656
461.71	0.658
461.91	0.659
462.12	0.660
462.32	0.659
462.52	0.659
462.72	0.662
462.93	0.662
463.13	0.660
463.33	0.661
463.53	0.663
463.74	0.662
463.94	0.657
464.14	0.657
464.35	0.658
464.55	0.658
464.75	0.656
464.95	0.654
465.16	0.656
465.36	0.655
465.56	0.654
465.76	0.653
465.97	0.653
466.17	0.654
466.37	0.652
466.57	0.653
466.78	0.654
466.98	0.654
467.18	0.651
467.38	0.650
467.59	0.652
467.79	0.654
467.99	0.653
468.19	0.654
468.39	0.657
468.60	0.657
468.80	0.655
469.00	0.657
469.20	0.659
469.41	0.659
469.61	0.658
469.81	0.659
470.01	0.658
470.22	0.658
470.42	0.657
470.62	0.655
470.82	0.657
471.02	0.655
471.23	0.653
471.43	0.653
471.63	0.656
471.83	0.655
472.04	0.653
472.24	0.652
472.44	0.657
472.64	0.657
472.84	0.656
473.05	0.655
473.25	0.659
473.45	0.658
473.65	0.656
473.85	0.656
474.06	0.658
474.26	0.658
474.46	0.658
474.66	0.655
474.86	0.656
475.07	0.656
475.27	0.653
475.47	0.651
475.67	0.652
475.87	0.654
476.08	0.650
476.28	0.651
476.48	0.653
476.68	0.652
476.88	0.650
477.09	0.651
477.29	0.652
477.49	0.653
477.69	0.652
477.89	0.652
478.09	0.651
478.30	0.653
478.50	0.650
478.70	0.649
478.90	0.649
479.10	0.652
479.31	0.653
479.51	0.651
479.71	0.652
479.91	0.652
480.11	0.650
480.31	0.650
480.52	0.649
480.72	0.649
480.92	0.648
481.12	0.647
481.32	0.644
481.52	0.642
481.72	0.642
481.93	0.646
482.13	0.646
482.33	0.646
482.53	0.644
482.73	0.644
482.93	0.646
483.14	0.645
483.34	0.644
483.54	0.645
483.74	0.644
483.94	0.643
484.14	0.639
484.34	0.639
484.55	0.640
484.75	0.639
484.95	0.638
485.15	0.637
485.35	0.638
485.55	0.637
485.75	0.635
485.96	0.636
486.16	0.638
486.36	0.637
486.56	0.636
486.76	0.636
486.96	0.637
487.16	0.636
487.36	0.634
487.57	0.634
487.77	0.635
487.97	0.636
488.17	0.634
488.37	0.632
488.57	0.633
488.77	0.633
488.97	0.631
489.18	0.630
489.38	0.633
489.58	0.634
489.78	0.633
489.98	0.633
490.18	0.633
490.38	0.634
490.58	0.633
490.78	0.633
490.98	0.635
491.19	0.635
491.39	0.635
491.59	0.634
491.79	0.637
491.99	0.637
492.19	0.636
492.39	0.640
492.59	0.640
492.79	0.641
492.99	0.641
493.20	0.642
493.40	0.642
493.60	0.644
493.80	0.642
494.00	0.640
494.20	0.640
494.40	0.640
494.60	0.637
494.80	0.641
495.00	0.641
495.20	0.639
495.40	0.637
495.61	0.639
495.81	0.639
496.01	0.642
496.21	0.643
496.41	0.642
496.61	0.643
496.81	0.642
497.01	0.637
497.21	0.636
497.41	0.637
497.61	0.636
497.81	0.634
498.01	0.634
498.21	0.631
498.41	0.630
498.61	0.630
498.82	0.631
499.02	0.633
499.22	0.634
499.42	0.633
499.62	0.635
499.82	0.636
500.02	0.637
500.22	0.636
500.42	0.638
500.62	0.639
500.82	0.639
501.02	0.636
501.22	0.637
501.42	0.636
501.62	0.639
501.82	0.638
502.02	0.639
502.22	0.638
502.42	0.640
502.62	0.638
502.82	0.638
503.02	0.639
503.22	0.638
503.42	0.636
503.63	0.637
503.83	0.634
504.03	0.633
504.23	0.632
504.43	0.632
504.63	0.633
504.83	0.633
505.03	0.632
505.23	0.634
505.43	0.636
505.63	0.637
505.83	0.636
506.03	0.638
506.23	0.640
506.43	0.641
506.63	0.640
506.83	0.638
507.03	0.641
507.23	0.641
507.43	0.638
507.63	0.638
507.83	0.639
508.03	0.639
508.23	0.639
508.43	0.637
508.63	0.639
508.83	0.639
509.03	0.641
509.23	0.639
509.43	0.640
509.63	0.641
509.83	0.639
510.03	0.642
510.23	0.644
510.43	0.644
510.63	0.645
510.83	0.645
511.03	0.646
511.23	0.644
511.43	0.644
511.63	0.645
511.83	0.647
512.03	0.647
512.22	0.644
512.42	0.643
512.62	0.644
512.82	0.643
513.02	0.642
513.22	0.642
513.42	0.644
513.62	0.646
513.82	0.644
514.02	0.644
514.22	0.645
514.42	0.645
514.62	0.644
514.82	0.645
515.02	0.647
515.22	0.650
515.42	0.649
515.62	0.652
515.82	0.651
516.02	0.652
516.22	0.652
516.42	0.653
516.62	0.655
516.82	0.657
517.01	0.655
517.21	0.654
517.41	0.658
517.61	0.659
517.81	0.655
518.01	0.654
518.21	0.654
518.41	0.653
518.61	0.652
518.81	0.652
519.01	0.653
519.21	0.653
519.41	0.652
519.61	0.646
519.81	0.649
520.00	0.649
520.20	0.650
520.40	0.652
520.60	0.654
520.80	0.653
521.00	0.653
521.20	0.654
521.40	0.659
521.60	0.659
521.80	0.658
522.00	0.658
522.20	0.661
522.39	0.660
522.59	0.657
522.79	0.658
522.99	0.661
523.19	0.658
523.39	0.656
523.59	0.655
523.79	0.658
523.99	0.661
524.19	0.660
524.38	0.658
524.58	0.660
524.78	0.660
524.98	0.658
525.18	0.660
525.38	0.661
525.58	0.662
525.78	0.659
525.98	0.657
526.18	0.657
526.37	0.656
526.57	0.658
526.77	0.658
526.97	0.659
527.17	0.659
527.37	0.655
527.57	0.658
527.77	0.660
527.96	0.660
528.16	0.658
528.36	0.659
528.56	0.661
528.76	0.658
528.96	0.657
529.16	0.658
529.36	0.661
529.55	0.662
529.75	0.658
529.95	0.659
530.15	0.660
530.35	0.664
530.55	0.662
530.75	0.662
530.94	0.664
531.14	0.664
531.34	0.663
531.54	0.661
531.74	0.665
531.94	0.667
532.13	0.666
532.33	0.667
532.53	0.665
532.73	0.665
532.93	0.663
533.13	0.665
533.33	0.664
533.52	0.665
533.72	0.667
533.92	0.664
534.12	0.662
534.32	0.663
534.52	0.661
534.71	0.663
534.91	0.666
535.11	0.667
535.31	0.665
535.51	0.667
535.71	0.669
535.90	0.667
536.10	0.668
536.30	0.670
536.50	0.671
536.70	0.672
536.89	0.668
537.09	0.668
537.29	0.669
537.49	0.671
537.69	0.669
537.89	0.669
538.08	0.669
538.28	0.667
538.48	0.667
538.68	0.669
538.88	0.671
539.07	0.671
539.27	0.669
539.47	0.668
539.67	0.668
539.87	0.670
540.06	0.667
540.26	0.669
540.46	0.671
540.66	0.668
540.86	0.665
541.05	0.665
541.25	0.667
541.45	0.667
541.65	0.665
541.84	0.668
542.04	0.668
542.24	0.669
542.44	0.668
542.64	0.669
542.83	0.672
543.03	0.672
543.23	0.670
543.43	0.670
543.62	0.672
543.82	0.673
544.02	0.671
544.22	0.671
544.42	0.675
544.61	0.675
544.81	0.672
545.01	0.670
545.21	0.673
545.40	0.673
545.60	0.672
545.80	0.675
546.00	0.674
546.19	0.673
546.39	0.672
546.59	0.670
546.79	0.671
546.98	0.671
547.18	0.670
547.38	0.671
547.58	0.674
547.77	0.674
547.97	0.670
548.17	0.672
548.37	0.673
548.56	0.674
548.76	0.673
548.96	0.676
549.16	0.679
549.35	0.678
549.55	0.676
549.75	0.676
549.95	0.679
550.14	0.680
550.34	0.678
550.54	0.684
550.73	0.687
550.93	0.688
551.13	0.684
551.33	0.682
551.52	0.684
551.72	0.685
551.92	0.683
552.12	0.683
552.31	0.683
552.51	0.683
552.71	0.677
552.90	0.677
553.10	0.678
553.30	0.678
553.50	0.677
553.69	0.678
553.89	0.679
554.09	0.678
554.28	0.675
554.48	0.677
554.68	0.679
554.87	0.680
555.07	0.676
555.27	0.676
555.47	0.678
555.66	0.679
555.86	0.677
556.06	0.680
556.25	0.681
556.45	0.689
556.65	0.686
556.84	0.689
557.04	0.693
557.24	0.694
557.43	0.694
557.63	0.697
557.83	0.699
558.02	0.699
558.22	0.703
558.42	0.704
558.61	0.696
558.81	0.698
559.01	0.693
559.21	0.693
559.40	0.694
559.60	0.694
559.80	0.690
559.99	0.691
560.19	0.693
560.39	0.687
560.58	0.685
560.78	0.685
560.97	0.689
561.17	0.688
561.37	0.685
561.56	0.687
561.76	0.688
561.96	0.688
562.15	0.685
562.35	0.687
562.55	0.689
562.74	0.688
562.94	0.687
563.14	0.685
563.33	0.686
563.53	0.686
563.73	0.683
563.92	0.685
564.12	0.688
564.31	0.689
564.51	0.687
564.71	0.689
564.90	0.692
565.10	0.693
565.30	0.695
565.49	0.696
565.69	0.699
565.89	0.700
566.08	0.697
566.28	0.698
566.47	0.700
566.67	0.698
566.87	0.695
567.06	0.697
567.26	0.703
567.46	0.699
567.65	0.697
567.85	0.699
568.04	0.702
568.24	0.700
568.44	0.697
568.63	0.696
568.83	0.697
569.02	0.696
569.22	0.691
569.42	0.688
569.61	0.691
569.81	0.689
570.00	0.686
570.20	0.688
570.40	0.689
570.59	0.689
570.79	0.686
570.98	0.685
571.18	0.686
571.38	0.686
571.57	0.682
571.77	0.680
571.96	0.683
572.16	0.681
572.35	0.675
572.55	0.676
572.75	0.674
572.94	0.674
573.14	0.673
573.33	0.673
573.53	0.674
573.73	0.674
573.92	0.672
574.12	0.670
574.31	0.672
574.51	0.673
574.70	0.670
574.90	0.672
575.09	0.674
575.29	0.674
575.49	0.671
575.68	0.671
575.88	0.673
576.07	0.674
576.27	0.672
576.46	0.670
576.66	0.670
576.86	0.669
577.05	0.667
577.25	0.665
577.44	0.667
577.64	0.667
577.83	0.665
578.03	0.666
578.22	0.666
578.42	0.665
578.61	0.663
578.81	0.664
579.00	0.664
579.20	0.664
579.40	0.662
579.59	0.661
579.79	0.662
579.98	0.661
580.18	0.660
580.37	0.660
580.57	0.663
580.76	0.666
580.96	0.665
581.15	0.666
581.35	0.668
581.54	0.667
581.74	0.666
581.93	0.668
582.13	0.669
582.32	0.667
582.52	0.665
582.71	0.665
582.91	0.661
583.10	0.661
583.30	0.660
583.49	0.660
583.69	0.664
583.88	0.665
584.08	0.665
584.27	0.667
584.47	0.670
584.66	0.671
584.86	0.669
585.05	0.672
585.25	0.674
585.44	0.674
585.64	0.671
585.83	0.668
586.03	0.669
586.22	0.668
586.42	0.664
586.61	0.666
586.81	0.668
587.00	0.669
587.20	0.666
587.39	0.667
587.59	0.669
587.78	0.671
587.98	0.671
588.17	0.672
588.37	0.674
588.56	0.675
588.76	0.671
588.95	0.671
589.15	0.675
589.34	0.677
589.54	0.675
589.73	0.676
589.92	0.679
590.12	0.678
590.31	0.676
590.51	0.681
590.70	0.683
590.90	0.683
591.09	0.681
591.29	0.679
591.48	0.679
591.68	0.680
591.87	0.678
592.06	0.678
592.26	0.681
592.45	0.681
592.65	0.674
592.84	0.674
593.04	0.677
593.23	0.680
593.43	0.677
593.62	0.677
593.81	0.677
594.01	0.676
594.20	0.674
594.40	0.673
594.59	0.675
594.79	0.676
594.98	0.675
595.17	0.674
595.37	0.675
595.56	0.677
595.76	0.675
595.95	0.677
596.14	0.681
596.34	0.682
596.53	0.680
596.73	0.681
596.92	0.682
597.12	0.685
597.31	0.684
597.50	0.683
597.70	0.686
597.89	0.686
598.09	0.682
598.28	0.683
598.47	0.686
598.67	0.684
598.86	0.680
599.06	0.683
599.25	0.684
599.44	0.682
599.64	0.679
599.83	0.677
600.03	0.680
600.22	0.680
600.41	0.680
600.61	0.678
600.80	0.681
601.00	0.681
601.19	0.677
601.38	0.675
601.58	0.678
601.77	0.679
601.96	0.681
602.16	0.682
602.35	0.691
602.55	0.688
602.74	0.689
602.93	0.690
603.13	0.696
603.32	0.697
603.51	0.697
603.71	0.700
603.90	0.702
604.09	0.702
604.29	0.700
604.48	0.694
604.68	0.695
604.87	0.694
605.06	0.690
605.26	0.686
605.45	0.687
605.64	0.686
605.84	0.681
606.03	0.680
606.22	0.679
606.42	0.678
606.61	0.674
606.80	0.674
607.00	0.676
607.19	0.677
607.38	0.675
607.58	0.676
607.77	0.679
607.96	0.679
608.16	0.678
608.35	0.682
608.54	0.687
608.74	0.690
608.93	0.694
609.12	0.697
609.32	0.700
609.51	0.703
609.70	0.702
609.90	0.704
610.09	0.709
610.28	0.714
610.48	0.707
610.67	0.707
610.86	0.708
611.06	0.703
611.25	0.701
611.44	0.702
611.64	0.702
611.83	0.705
612.02	0.700
612.21	0.699
612.41	0.698
612.60	0.697
612.79	0.693
612.99	0.693
613.18	0.695
613.37	0.692
613.57	0.689
613.76	0.691
613.95	0.689
614.14	0.689
614.34	0.686
614.53	0.687
614.72	0.690
614.92	0.690
615.11	0.686
615.30	0.684
615.49	0.686
615.69	0.689
615.88	0.685
616.07	0.687
616.26	0.689
616.46	0.690
616.65	0.686
616.84	0.685
617.04	0.687
617.23	0.691
617.42	0.691
617.61	0.695
617.81	0.695
618.00	0.696
618.19	0.694
618.38	0.698
618.58	0.702
618.77	0.704
618.96	0.703
619.15	0.706
619.35	0.707
619.54	0.708
619.73	0.703
619.92	0.706
620.12	0.711
620.31	0.711
620.50	0.706
620.69	0.705
620.89	0.708
621.08	0.708
621.27	0.708
621.46	0.706
621.66	0.711
621.85	0.711
622.04	0.706
622.23	0.708
622.43	0.709
622.62	0.709
622.81	0.708
623.00	0.708
623.19	0.712
623.39	0.711
623.58	0.708
623.77	0.706
623.96	0.709
624.16	0.710
624.35	0.703
624.54	0.706
624.73	0.711
624.92	0.708
625.12	0.705
625.31	0.706
625.50	0.709
625.69	0.710
625.88	0.706
626.08	0.706
626.27	0.708
626.46	0.708
626.65	0.705
626.84	0.705
627.04	0.710
627.23	0.710
627.42	0.705
627.61	0.707
627.80	0.710
628.00	0.710
628.19	0.709
628.38	0.712
628.57	0.715
628.76	0.714
628.96	0.710
629.15	0.711
629.34	0.714
629.53	0.715
629.72	0.709
629.91	0.710
630.11	0.715
630.30	0.715
630.49	0.718
630.68	0.719
630.87	0.723
631.06	0.725
631.26	0.720
631.45	0.723
631.64	0.731
631.83	0.733
632.02	0.731
632.21	0.731
632.41	0.738
632.60	0.731
632.79	0.730
632.98	0.729
633.17	0.730
633.36	0.732
633.55	0.728
633.75	0.724
633.94	0.725
634.13	0.726
634.32	0.722
634.51	0.717
634.70	0.719
634.89	0.719
635.09	0.716
635.28	0.717
635.47	0.718
635.66	0.721
635.85	0.717
636.04	0.719
636.23	0.724
636.43	0.727
636.62	0.725
636.81	0.724
637.00	0.727
637.19	0.730
637.38	0.727
637.57	0.727
637.76	0.730
637.95	0.731
638.15	0.726
638.34	0.721
638.53	0.724
638.72	0.726
638.91	0.723
639.10	0.721
639.29	0.722
639.48	0.722
639.67	0.722
639.87	0.719
640.06	0.725
640.25	0.724
640.44	0.725
640.63	0.725
640.82	0.728
641.01	0.727
641.20	0.726
641.39	0.728
641.58	0.730
641.78	0.729
641.97	0.725
642.16	0.739
642.35	0.741
642.54	0.740
642.73	0.734
642.92	0.733
643.11	0.737
643.30	0.737
643.49	0.731
643.68	0.734
643.87	0.736
644.06	0.737
644.25	0.716
644.45	0.719
644.64	0.721
644.83	0.722
645.02	0.718
645.21	0.717
645.40	0.719
645.59	0.719
645.78	0.712
645.97	0.714
646.16	0.714
646.35	0.715
646.54	0.711
646.73	0.713
646.92	0.715
647.11	0.714
647.30	0.710
647.49	0.713
647.68	0.713
647.88	0.711
648.07	0.703
648.26	0.706
648.45	0.708
648.64	0.704
648.83	0.701
649.02	0.703
649.21	0.714
649.40	0.713
649.59	0.706
649.78	0.708
649.97	0.723
650.16	0.723
650.35	0.718
650.54	0.720
650.73	0.729
650.92	0.726
651.11	0.719
651.30	0.716
651.49	0.721
651.68	0.722
651.87	0.719
652.06	0.709
652.25	0.712
652.44	0.714
652.63	0.710
652.82	0.709
653.01	0.709
653.20	0.706
653.39	0.693
653.58	0.690
653.77	0.689
653.96	0.685
654.15	0.676
654.34	0.673
654.53	0.669
654.72	0.663
654.91	0.653
655.10	0.650
655.29	0.648
655.48	0.646
655.67	0.640
655.86	0.638
656.05	0.637
656.24	0.636
656.43	0.632
656.62	0.631
656.81	0.631
657.00	0.630
657.19	0.627
657.38	0.627
657.57	0.627
657.76	0.630
657.95	0.627
658.14	0.631
658.33	0.634
658.51	0.639
658.70	0.640
658.89	0.642
659.08	0.651
659.27	0.658
659.46	0.658
659.65	0.665
659.84	0.667
660.03	0.672
660.22	0.672
660.41	0.676
660.60	0.676
660.79	0.678
660.98	0.683
661.17	0.683
661.36	0.682
661.55	0.682
661.74	0.680
661.92	0.683
662.11	0.685
662.30	0.684
662.49	0.678
662.68	0.677
662.87	0.680
663.06	0.674
663.25	0.675
663.44	0.676
663.63	0.677
663.82	0.676
664.01	0.671
664.20	0.669
664.38	0.671
664.57	0.670
664.76	0.670
664.95	0.670
665.14	0.675
665.33	0.670
665.52	0.677
665.71	0.681
665.90	0.681
666.09	0.683
666.28	0.680
666.46	0.679
666.65	0.680
666.84	0.678
667.03	0.673
667.22	0.671
667.41	0.674
667.60	0.663
667.79	0.657
667.98	0.658
668.16	0.658
668.35	0.658
668.54	0.655
668.73	0.656
668.92	0.657
669.11	0.656
669.30	0.649
669.49	0.646
669.67	0.648
669.86	0.650
670.05	0.647
670.24	0.645
670.43	0.643
670.62	0.642
670.81	0.636
671.00	0.636
671.18	0.637
671.37	0.637
671.56	0.634
671.75	0.633
671.94	0.630
672.13	0.628
672.32	0.623
672.50	0.622
672.69	0.623
672.88	0.624
673.07	0.619
673.26	0.621
673.45	0.623
673.63	0.622
673.82	0.618
674.01	0.620
674.20	0.619
674.39	0.618
674.58	0.618
674.76	0.617
674.95	0.616
675.14	0.616
675.33	0.611
675.52	0.609
675.71	0.609
675.89	0.609
676.08	0.605
676.27	0.605
676.46	0.607
676.65	0.606
676.84	0.605
677.02	0.607
677.21	0.608
677.40	0.607
677.59	0.604
677.78	0.606
677.96	0.608
678.15	0.608
678.34	0.605
678.53	0.606
678.72	0.606
678.90	0.603
679.09	0.598
679.28	0.596
679.47	0.596
679.66	0.595
679.84	0.591
680.03	0.589
680.22	0.588
680.41	0.590
680.60	0.585
680.78	0.584
680.97	0.587
681.16	0.587
681.35	0.586
681.53	0.585
681.72	0.587
681.91	0.589
682.10	0.588
682.29	0.590
682.47	0.588
682.66	0.587
682.85	0.586
683.04	0.584
683.22	0.584
683.41	0.586
683.60	0.584
683.79	0.584
683.97	0.584
684.16	0.582
684.35	0.579
684.54	0.580
684.72	0.581
684.91	0.582
685.10	0.580
685.29	0.581
685.47	0.578
685.66	0.577
685.85	0.574
686.04	0.573
686.22	0.576
686.41	0.579
686.60	0.575
686.79	0.578
686.97	0.579
687.16	0.580
687.35	0.577
687.54	0.580
687.72	0.585
687.91	0.585
688.10	0.586
688.29	0.585
688.47	0.584
688.66	0.583
688.85	0.580
689.03	0.577
689.22	0.582
689.41	0.583
689.60	0.578
689.78	0.576
689.97	0.577
690.16	0.574
690.34	0.570
690.53	0.569
690.72	0.570
690.91	0.567
691.09	0.565
691.28	0.559
691.47	0.558
691.65	0.557
691.84	0.554
692.03	0.554
692.21	0.552
692.40	0.552
692.59	0.549
692.77	0.548
692.96	0.550
693.15	0.551
693.34	0.548
693.52	0.548
693.71	0.548
693.90	0.549
694.08	0.549
694.27	0.550
694.46	0.560
694.64	0.561
694.83	0.561
695.02	0.559
695.20	0.559
695.39	0.559
695.58	0.559
695.76	0.560
695.95	0.559
696.14	0.559
696.32	0.557
696.51	0.547
696.70	0.547
696.88	0.547
697.07	0.546
697.26	0.548
697.44	0.549
697.63	0.548
697.81	0.545
698.00	0.544
698.19	0.544
698.37	0.544
698.56	0.543
698.75	0.543
698.93	0.543
699.12	0.542
699.31	0.541
699.49	0.540
699.68	0.541
699.87	0.544
700.05	0.544
700.24	0.543
700.42	0.544
700.61	0.544
700.80	0.542
700.98	0.542
701.17	0.544
701.36	0.542
701.54	0.542
701.73	0.543
701.91	0.540
702.10	0.540
702.29	0.538
702.47	0.537
702.66	0.539
702.84	0.540
703.03	0.538
703.22	0.539
703.40	0.540
703.59	0.541
703.77	0.541
703.96	0.541
704.15	0.542
704.33	0.543
704.52	0.541
704.70	0.541
704.89	0.541
705.08	0.540
705.26	0.535
705.45	0.535
705.63	0.535
705.82	0.532
706.00	0.530
706.19	0.529
706.38	0.529
706.56	0.529
706.75	0.526
706.93	0.525
707.12	0.527
707.30	0.528
707.49	0.525
707.68	0.523
707.86	0.523
708.05	0.523
708.23	0.520
708.42	0.521
708.60	0.524
708.79	0.524
708.98	0.522
709.16	0.521
709.35	0.523
709.53	0.527
709.72	0.526
709.90	0.528
710.09	0.530
710.27	0.532
710.46	0.534
710.64	0.533
710.83	0.535
711.02	0.536
711.20	0.534
711.39	0.533
711.57	0.530
711.76	0.531
711.94	0.529
712.13	0.530
712.31	0.530
712.50	0.526
712.68	0.523
712.87	0.524
713.05	0.524
713.24	0.525
713.42	0.524
713.61	0.525
713.79	0.526
713.98	0.527
714.16	0.527
714.35	0.527
714.54	0.528
714.72	0.528
714.91	0.525
715.09	0.532
715.28	0.535
715.46	0.535
715.65	0.532
715.83	0.531
716.02	0.534
716.20	0.531
716.39	0.530
716.57	0.532
716.76	0.534
716.94	0.534
717.12	0.526
717.31	0.527
717.49	0.531
717.68	0.533
717.86	0.532
718.05	0.534
718.23	0.536
718.42	0.538
718.60	0.538
718.79	0.545
718.97	0.548
719.16	0.549
719.34	0.546
719.53	0.546
719.71	0.547
719.90	0.548
720.08	0.546
720.27	0.546
720.45	0.547
720.63	0.546
720.82	0.540
721.00	0.543
721.19	0.546
721.37	0.546
721.56	0.547
721.74	0.549
721.93	0.558
722.11	0.565
722.30	0.564
722.48	0.568
722.66	0.570
722.85	0.569
723.03	0.569
723.22	0.568
723.40	0.570
723.59	0.570
723.77	0.573
723.95	0.567
724.14	0.569
724.32	0.570
724.51	0.570
724.69	0.572
724.88	0.572
725.06	0.570
725.24	0.571
725.43	0.573
725.61	0.576
725.80	0.570
725.98	0.568
726.16	0.565
726.35	0.572
726.53	0.570
726.72	0.568
726.90	0.578
727.09	0.580
727.27	0.586
727.45	0.582
727.64	0.591
727.82	0.601
728.01	0.605
728.19	0.602
728.37	0.607
728.56	0.612
728.74	0.619
728.92	0.608
729.11	0.610
729.29	0.609
729.48	0.613
729.66	0.602
729.84	0.601
730.03	0.605
730.21	0.607
730.40	0.596
730.58	0.598
730.76	0.598
730.95	0.602
731.13	0.600
731.31	0.613
731.50	0.623
731.68	0.627
731.86	0.622
732.05	0.639
732.23	0.642
732.42	0.646
732.60	0.650
732.78	0.654
732.97	0.675
733.15	0.683
733.33	0.670
733.52	0.676
733.70	0.688
733.88	0.697
734.07	0.679
734.25	0.706
734.43	0.713
734.62	0.717
734.80	0.712
734.98	0.701
735.17	0.709
735.35	0.716
735.53	0.704
735.72	0.706
735.90	0.731
736.08	0.751
736.27	0.726
736.45	0.738
736.63	0.747
736.82	0.758
737.00	0.757
737.18	0.771
737.37	0.807
737.55	0.834
737.73	0.827
737.92	0.832
738.10	0.833
738.28	0.855
738.46	0.844
738.65	0.859
738.83	0.887
739.01	0.951
739.20	0.939
739.38	0.916
739.56	0.907
739.75	0.914
739.93	0.873
740.11	0.903
740.29	0.904
740.48	0.909
740.66	0.887
740.84	0.881
741.03	0.841
741.21	0.854
741.39	0.834
741.57	0.847
741.76	0.867
741.94	0.876
742.12	0.832
742.31	0.839
742.49	0.867
742.67	0.888
742.85	0.905
743.04	0.909
743.22	0.919
743.40	0.978
743.58	0.959
743.77	0.978
743.95	1.024
744.13	1.086
744.31	1.063
744.50	1.048
744.68	1.055
744.86	1.024
745.04	1.041
745.23	1.122
745.41	1.106
745.59	1.113
745.77	1.069
745.96	1.049
746.14	1.061
746.32	1.059
746.50	1.048
746.69	1.032
746.87	1.045
747.05	1.022
747.23	0.930
747.42	0.911
747.60	0.945
747.78	0.945
747.96	0.978
748.14	0.930
748.33	0.963
748.51	0.953
748.69	0.941
748.87	0.976
749.06	0.979
749.24	0.979
749.42	0.965
749.60	0.946
749.78	0.964
749.97	0.914
750.15	0.904
750.33	0.905
750.51	0.942
750.69	0.947
750.88	0.941
751.06	0.949
751.24	0.983
751.42	0.974
751.60	0.962
751.79	1.043
751.97	1.111
752.15	1.117
752.33	1.077
752.51	1.163
752.69	1.198
752.88	1.161
753.06	1.224
753.24	1.188
753.42	1.238
753.60	1.520
753.78	1.274
753.97	1.295
754.15	1.323
754.33	1.361
754.51	1.164
754.69	1.136
754.87	1.174
755.06	1.079
755.24	1.071
755.42	1.079
755.60	0.959
755.78	0.966
755.96	0.902
756.15	0.901
756.33	0.905
756.51	0.925
756.69	0.907
756.87	0.868
757.05	0.890
757.23	0.875
757.42	0.837
757.60	0.838
757.78	0.828
757.96	0.826
758.14	0.806
758.32	0.795
758.50	0.809
758.69	0.808
758.87	0.801
759.05	0.808
759.23	0.821
759.41	0.823
759.59	0.811
759.77	0.836
759.95	0.867
760.13	0.924
760.32	0.919
760.50	0.911
760.68	0.935
760.86	0.935
761.04	0.902
761.22	0.906
761.40	0.959
761.58	0.964
761.76	0.928
761.95	0.908
762.13	0.860
762.31	0.861
762.49	0.829
762.67	0.853
762.85	0.869
763.03	0.862
763.21	0.841
763.39	0.821
763.57	0.823
763.75	0.819
763.94	0.800
764.12	0.797
764.30	0.822
764.48	0.828
764.66	0.785
764.84	0.783
765.02	0.828
765.20	0.835
765.38	0.814
765.56	0.819
765.74	0.863
765.92	0.864
766.10	0.874
766.28	0.867
766.46	0.898
766.65	0.899
766.83	0.882
767.01	0.861
767.19	0.873
767.37	0.874
767.55	0.857
767.73	0.834
767.91	0.837
768.09	0.823
768.27	0.812
768.45	0.801
768.63	0.805
768.81	0.807
768.99	0.778
769.17	0.801
769.35	0.814
769.53	0.811
769.71	0.789
769.89	0.799
770.07	0.810
770.25	0.790
770.43	0.768
770.61	0.797
770.79	0.806
770.97	0.818
771.15	0.785
771.33	0.789
771.51	0.797
771.69	0.812
771.87	0.821
772.05	0.827
772.24	0.840
772.42	0.848
772.60	0.822
772.78	0.889
772.96	0.924
773.14	0.921
773.32	0.895
773.49	0.900
773.67	0.897
773.85	0.873
774.03	0.857
774.21	0.892
774.39	0.907
774.57	0.934
774.75	0.848
774.93	0.842
775.11	0.864
775.29	0.870
775.47	0.870
775.65	0.884
775.83	0.904
776.01	0.931
776.19	0.871
776.37	0.872
776.55	0.874
776.73	0.871
776.91	0.863
777.09	0.846
777.27	0.846
777.45	0.834
777.63	0.806
777.81	0.805
777.99	0.793
778.17	0.792
778.35	0.768
778.53	0.753
778.71	0.761
778.89	0.748
779.07	0.735
779.24	0.740
779.42	0.742
779.60	0.764
779.78	0.754
779.96	0.759
780.14	0.768
780.32	0.790
780.50	0.772
780.68	0.771
780.86	0.764
781.04	0.781
781.22	0.783
781.40	0.795
781.58	0.784
781.75	0.775
781.93	0.756
782.11	0.759
782.29	0.745
782.47	0.743
782.65	0.728
782.83	0.760
783.01	0.756
783.19	0.751
783.37	0.734
783.55	0.736
783.72	0.757
783.90	0.770
784.08	0.759
784.26	0.775
784.44	0.799
784.62	0.803
784.80	0.764
784.98	0.769
785.16	0.776
785.33	0.793
785.51	0.777
785.69	0.762
785.87	0.759
786.05	0.771
786.23	0.762
786.41	0.758
786.59	0.766
786.77	0.764
786.94	0.747
787.12	0.749
787.30	0.748
787.48	0.745
787.66	0.733
787.84	0.734
788.02	0.725
788.19	0.721
788.37	0.706
788.55	0.708
788.73	0.708
788.91	0.705
789.09	0.688
789.27	0.679
789.44	0.693
789.62	0.699
789.80	0.707
789.98	0.733
790.16	0.722
790.34	0.719
790.51	0.704
790.69	0.726
790.87	0.731
791.05	0.727
791.23	0.717
791.41	0.717
791.58	0.725
791.76	0.704
791.94	0.671
792.12	0.677
792.30	0.678
792.48	0.678
792.65	0.670
792.83	0.678
793.01	0.689
793.19	0.686
793.37	0.670
793.54	0.669
793.72	0.681
793.90	0.681
794.08	0.672
794.26	0.675
794.43	0.687
794.61	0.670
794.79	0.656
794.97	0.655
795.15	0.663
795.32	0.667
795.50	0.653
795.68	0.648
795.86	0.653
796.04	0.653
796.21	0.646
796.39	0.642
796.57	0.658
796.75	0.666
796.92	0.664
797.10	0.669
797.28	0.672
797.46	0.675
797.64	0.676
797.81	0.685
797.99	0.690
798.17	0.696
798.35	0.689
798.52	0.692
798.70	0.689
798.88	0.699
799.06	0.696
799.23	0.696
799.41	0.706
799.59	0.697
799.77	0.686
799.94	0.696
800.12	0.706
800.30	0.723
800.48	0.721
800.65	0.719
800.83	0.711
801.01	0.705
801.19	0.707
801.36	0.703
801.54	0.710
801.72	0.717
801.90	0.698
802.07	0.692
802.25	0.679
802.43	0.662
802.60	0.659
802.78	0.667
802.96	0.671
803.14	0.665
803.31	0.662
803.49	0.660
803.67	0.657
803.84	0.663
804.02	0.653
804.20	0.658
804.38	0.664
804.55	0.662
804.73	0.646
804.91	0.646
805.08	0.657
805.26	0.653
805.44	0.725
805.61	0.728
805.79	0.730
805.97	0.730
806.15	0.719
806.32	0.713
806.50	0.719
806.68	0.721
806.85	0.712
807.03	0.706
807.21	0.725
807.38	0.649
807.56	0.638
807.74	0.648
807.91	0.656
808.09	0.657
808.27	0.676
808.44	0.706
808.62	0.715
808.80	0.716
808.97	0.709
809.15	0.702
809.33	0.723
809.50	0.731
809.68	0.714
809.86	0.724
810.03	0.760
810.21	0.737
810.39	0.717
810.56	0.723
810.74	0.750
810.91	0.830
811.09	0.817
811.27	0.840
811.44	0.846
811.62	0.850
811.80	0.830
811.97	0.794
812.15	0.794
812.33	0.788
812.50	0.772
812.68	0.760
812.85	0.699
813.03	0.702
813.21	0.667
813.38	0.661
813.56	0.665
813.74	0.676
813.91	0.685
814.09	0.718
814.26	0.713
814.44	0.716
814.62	0.703
814.79	0.707
814.97	0.715
815.14	0.720
815.32	0.724
815.50	0.741
815.67	0.744
815.85	0.734
816.02	0.720
816.20	0.728
816.38	0.744
816.55	0.752
816.73	0.753
816.90	0.764
817.08	0.796
817.26	0.803
817.43	0.778
817.61	0.805
817.78	0.831
817.96	0.810
818.13	0.799
818.31	0.800
818.49	0.815
818.66	0.803
818.84	0.787
819.01	0.765
819.19	0.775
819.36	0.778
819.54	0.746
819.71	0.791
819.89	0.808
820.07	0.820
820.24	0.811
820.42	0.811
820.59	0.835
820.77	0.861
820.94	0.850
821.12	0.872
821.29	0.892
821.47	0.890
821.64	0.815
821.82	0.827
822.00	0.824
822.17	0.825
822.35	0.815
822.52	0.818
822.70	0.804
822.87	0.814
823.05	0.787
823.22	0.802
823.40	0.835
823.57	0.864
823.75	0.844
823.92	0.876
824.10	0.898
824.27	0.948
824.45	0.938
824.62	1.017
824.80	1.051
824.97	1.074
825.15	1.053
825.32	1.073
825.50	1.076
825.67	1.090
825.85	1.062
826.02	1.086
826.20	1.125
826.37	1.314
826.55	1.193
826.72	1.535
826.90	1.733
827.07	1.954
827.25	1.738
827.42	-0.000
827.60	-0.000
827.77	-0.000
827.95	-0.000
828.12	-0.000
828.30	-0.000
828.47	-0.000
828.65	1.869
828.82	2.279
829.00	-0.000
829.17	-0.000
829.34	-0.000
829.52	-0.000
829.69	-0.000
829.87	-0.000
830.04	-0.000
830.22	-0.000
830.39	-0.000
830.57	-0.000
830.74	-0.000
830.92	-0.000
831.09	-0.000
831.26	-0.000
831.44	-0.000
831.61	-0.000
831.79	-0.000
831.96	-0.000
832.14	-0.000
832.31	-0.000
832.49	-0.000
832.66	-0.000
832.83	-0.000
833.01	-0.000
833.18	-0.000
833.36	-0.000
833.53	-0.000
833.70	-0.000
833.88	-0.000
834.05	-0.000
834.23	-0.000
834.40	-0.000
834.58	-0.000
834.75	-0.000
834.92	-0.000
835.10	-0.000
835.27	-0.000
835.45	-0.000
835.62	-0.000
835.79	-0.000
835.97	-0.000
836.14	-0.000
836.32	-0.000
836.49	-0.000
836.66	-0.000
836.84	-0.000
837.01	-0.000
837.18	-0.000
837.36	-0.000
837.53	-0.000
837.71	-0.000
837.88	-0.000
838.05	-0.000
838.23	-0.000
838.40	-0.000
838.58	-0.000
838.75	-0.000
838.92	-0.000
839.10	-0.000
839.27	-0.000
839.44	-0.000
839.62	-0.000
839.79	-0.000
839.96	-0.000
840.14	-0.000
840.31	-0.000
840.48	-0.000
840.66	-0.000
840.83	-0.000
841.01	-0.000
841.18	-0.000
841.35	-0.000
841.53	-0.000
841.70	-0.000
841.87	-0.000
842.05	-0.000
842.22	-0.000
842.39	-0.000
842.57	-0.000
842.74	-0.000
842.91	-0.000
843.09	-0.000
843.26	-0.000
843.43	-0.000
843.60	-0.000
843.78	-0.000
843.95	-0.000
844.12	-0.000
844.30	-0.000
844.47	-0.000
844.64	-0.000
844.82	-0.000
844.99	-0.000
845.16	-0.000
845.34	-0.000
845.51	-0.000
845.68	-0.000
845.85	-0.000
846.03	-0.000
846.20	-0.000
846.37	-0.000
846.55	-0.000
846.72	-0.000
846.89	-0.000
847.06	-0.000
847.24	-0.000
847.41	-0.000
847.58	-0.000
847.76	-0.000
847.93	-0.000
848.10	-0.000
848.27	-0.000
848.45	-0.000
848.62	-0.000
848.79	-0.000
848.97	-0.000
849.14	-0.000
849.31	-0.000
849.48	-0.000
849.66	-0.000
849.83	-0.000
850.00	-0.000
850.17	-0.000
850.35	-0.000
850.52	-0.000
850.69	-0.000
850.86	-0.000
851.04	-0.000
851.21	-0.000
851.38	-0.000
851.55	-0.000
851.72	-0.000
851.90	-0.000
852.07	-0.000
852.24	-0.000
852.41	-0.000
852.59	-0.000
852.76	-0.000
852.93	-0.000
853.10	-0.000
853.28	-0.000
853.45	-0.000
853.62	-0.000
853.79	-0.000
853.96	-0.000
854.14	-0.000
854.31	-0.000
854.48	-0.000
854.65	-0.000
854.82	-0.000
855.00	-0.000
855.17	-0.000
855.34	-0.000
855.51	-0.000
855.68	-0.000
855.86	-0.000
856.03	-0.000
856.20	-0.000
856.37	-0.000
856.54	-0.000
856.72	-0.000
856.89	-0.000
857.06	-0.000
857.23	-0.000
857.40	-0.000
857.57	-0.000
857.75	-0.000
857.92	-0.000
858.09	-0.000
858.26	-0.000
858.43	-0.000
858.60	-0.000
858.78	-0.000
858.95	-0.000
859.12	-0.000
859.29	-0.000
859.46	-0.000
859.63	-0.000
859.81	-0.000
859.98	-0.000
860.15	-0.000
860.32	-0.000
860.49	-0.000
860.66	-0.000
860.83	-0.000
861.01	-0.000
861.18	-0.000
861.35	-0.000
861.52	-0.000
861.69	-0.000
861.86	-0.000
862.03	-0.000
862.21	-0.000
862.38	-0.000
862.55	-0.000
862.72	-0.000
862.89	-0.000
863.06	-0.000
863.23	-0.000
863.40	-0.000
863.58	-0.000
863.75	-0.000
863.92	-0.000
864.09	-0.000
864.26	-0.000
864.43	-0.000
864.60	-0.000
864.77	-0.000
864.94	-0.000
865.11	-0.000
865.29	-0.000
865.46	-0.000
865.63	-0.000
865.80	-0.000
865.97	-0.000
866.14	-0.000
866.31	-0.000
866.48	-0.000
866.65	-0.000
866.82	-0.000
866.99	-0.000
867.16	-0.000
867.34	-0.000
867.51	-0.000
867.68	-0.000
867.85	-0.000
868.02	-0.000
868.19	-0.000
868.36	-0.000
868.53	-0.000
868.70	-0.000
868.87	-0.000
869.04	-0.000
869.21	-0.000
869.38	-0.000
869.55	-0.000
869.72	-0.000
869.89	-0.000
870.06	-0.000
870.24	-0.000
870.41	-0.000
870.58	-0.000
870.75	-0.000
870.92	-0.000
871.09	-0.000
871.26	-0.000
871.43	-0.000
871.60	-0.000
871.77	-0.000
871.94	-0.000
872.11	-0.000
872.28	-0.000
872.45	-0.000
872.62	-0.000
872.79	-0.000
872.96	-0.000
873.13	-0.000
873.30	-0.000
873.47	-0.000
873.64	-0.000
873.81	-0.000
873.98	-0.000
874.15	-0.000
874.32	-0.000
874.49	-0.000
874.66	-0.000
874.83	-0.000
875.00	-0.000
875.17	-0.000
875.34	-0.000
875.51	-0.000
875.68	-0.000
875.85	-0.000
876.02	-0.000
876.19	-0.000
876.36	-0.000
876.53	-0.000
876.70	-0.000
876.87	-0.000
877.04	-0.000
877.21	-0.000
877.38	-0.000
877.55	-0.000
877.72	-0.000
877.89	-0.000
878.06	-0.000
878.23	-0.000
878.39	-0.000
878.56	-0.000
878.73	-0.000
878.90	-0.000
879.07	-0.000
879.24	-0.000
879.41	-0.000
879.58	-0.000
879.75	-0.000
879.92	-0.000
880.09	-0.000
880.26	-0.000
880.43	-0.000
880.60	-0.000
880.77	-0.000
880.94	-0.000
881.11	-0.000
881.27	-0.000
881.44	-0.000
881.61	-0.000
881.78	-0.000
881.95	-0.000
882.12	-0.000
882.29	-0.000
882.46	-0.000
882.63	-0.000
882.80	-0.000
882.97	-0.000
883.14	-0.000
883.30	-0.000
883.47	-0.000
883.64	-0.000
883.81	-0.000
883.98	-0.000
884.15	-0.000
884.32	-0.000
884.49	-0.000
884.66	-0.000
884.82	-0.000
884.99	-0.000
885.16	-0.000
885.33	-0.000
885.50	-0.000
885.67	-0.000
885.84	-0.000
886.01	-0.000
886.17	-0.000
886.34	-0.000
886.51	-0.000
886.68	-0.000
886.85	-0.000
887.02	-0.000
887.19	-0.000
887.36	-0.000
887.52	-0.000
887.69	-0.000
887.86	-0.000
888.03	-0.000
888.20	-0.000
888.37	-0.000
888.54	-0.000
888.70	-0.000
888.87	-0.000
889.04	-0.000
889.21	-0.000
889.38	-0.000
889.55	-0.000
889.71	-0.000
889.88	-0.000
890.05	-0.000
890.22	-0.000
890.39	-0.000
>>>>>End Processed Spectral Data<<<<<
