SpectraSuite Data File
++++++++++++++++++++++++++++++++++++
Date: Fri Jun 19 11:48:02 CEST 2015
User: introlabs
Dark Spectrum Present: Yes
Reference Spectrum Present: Yes
Number of Sampled Component Spectra: 1
Spectrometers: USB4H08886
Integration Time (usec): 5245692 (USB4H08886)
Spectra Averaged: 5 (USB4H08886)
Boxcar Smoothing: 5 (USB4H08886)
Correct for Electrical Dark: Yes (USB4H08886)
Strobe/Lamp Enabled: No (USB4H08886)
Correct for Detector Non-linearity: Yes (USB4H08886)
Correct for Stray Light: Yes (USB4H08886)
Number of Pixels in Processed Spectrum: 3648
>>>>>Begin Processed Spectral Data<<<<<
178.14	-0.000
178.36	-0.000
178.57	-0.000
178.79	-0.000
179.01	-0.000
179.22	-0.000
179.44	-0.000
179.65	-0.000
179.87	-0.000
180.08	-0.000
180.30	-0.000
180.52	-0.000
180.73	-0.000
180.95	-0.000
181.16	-0.000
181.38	-0.000
181.59	-0.000
181.81	-0.000
182.03	-0.000
182.24	-0.000
182.46	-0.000
182.67	-0.000
182.89	-0.000
183.10	-0.000
183.32	-0.000
183.54	-0.000
183.75	-0.000
183.97	-0.000
184.18	-0.000
184.40	-0.000
184.61	-0.000
184.83	-0.000
185.04	-0.000
185.26	-0.000
185.48	-0.000
185.69	-0.000
185.91	-0.000
186.12	-0.000
186.34	-0.000
186.55	-0.000
186.77	-0.000
186.98	-0.000
187.20	-0.000
187.42	-0.000
187.63	-0.000
187.85	-0.000
188.06	-0.000
188.28	-0.000
188.49	-0.000
188.71	-0.000
188.92	-0.000
189.14	-0.000
189.36	-0.000
189.57	-0.000
189.79	-0.000
190.00	-0.000
190.22	-0.000
190.43	-0.000
190.65	-0.000
190.86	-0.000
191.08	-0.000
191.29	-0.000
191.51	-0.000
191.72	-0.000
191.94	-0.000
192.16	-0.000
192.37	-0.000
192.59	-0.000
192.80	-0.000
193.02	-0.000
193.23	-0.000
193.45	-0.000
193.66	-0.000
193.88	-0.000
194.09	-0.000
194.31	-0.000
194.52	-0.000
194.74	-0.000
194.95	-0.000
195.17	-0.000
195.38	-0.000
195.60	-0.000
195.81	-0.000
196.03	-0.000
196.25	-0.000
196.46	-0.000
196.68	-0.000
196.89	-0.000
197.11	-0.000
197.32	-0.000
197.54	-0.000
197.75	-0.000
197.97	-0.000
198.18	-0.000
198.40	-0.000
198.61	-0.000
198.83	-0.000
199.04	-0.000
199.26	-0.000
199.47	-0.000
199.69	-0.000
199.90	-0.000
200.12	-0.000
200.33	-0.000
200.55	-0.000
200.76	-0.000
200.98	-0.000
201.19	-0.000
201.41	-0.000
201.62	-0.000
201.84	-0.000
202.05	-0.000
202.27	-0.000
202.48	-0.000
202.70	-0.000
202.91	-0.000
203.13	-0.000
203.34	-0.000
203.56	-0.000
203.77	-0.000
203.99	-0.000
204.20	-0.000
204.42	-0.000
204.63	-0.000
204.85	-0.000
205.06	-0.000
205.28	-0.000
205.49	-0.000
205.71	-0.000
205.92	-0.000
206.14	-0.000
206.35	-0.000
206.56	-0.000
206.78	-0.000
206.99	-0.000
207.21	-0.000
207.42	-0.000
207.64	-0.000
207.85	-0.000
208.07	-0.000
208.28	-0.000
208.50	-0.000
208.71	-0.000
208.93	-0.000
209.14	-0.000
209.36	-0.000
209.57	-0.000
209.79	-0.000
210.00	-0.000
210.22	-0.000
210.43	-0.000
210.64	-0.000
210.86	-0.000
211.07	-0.000
211.29	-0.000
211.50	-0.000
211.72	-0.000
211.93	-0.000
212.15	-0.000
212.36	-0.000
212.58	-0.000
212.79	-0.000
213.01	-0.000
213.22	-0.000
213.43	-0.000
213.65	-0.000
213.86	-0.000
214.08	-0.000
214.29	-0.000
214.51	-0.000
214.72	-0.000
214.94	-0.000
215.15	-0.000
215.36	-0.000
215.58	-0.000
215.79	-0.000
216.01	-0.000
216.22	-0.000
216.44	-0.000
216.65	-0.000
216.87	-0.000
217.08	-0.000
217.29	-0.000
217.51	-0.000
217.72	-0.000
217.94	-0.000
218.15	-0.000
218.37	-0.000
218.58	-0.000
218.80	-0.000
219.01	-0.000
219.22	-0.000
219.44	-0.000
219.65	-0.000
219.87	-0.000
220.08	-0.000
220.30	-0.000
220.51	-0.000
220.72	-0.000
220.94	-0.000
221.15	-0.000
221.37	-0.000
221.58	-0.000
221.79	-0.000
222.01	-0.000
222.22	-0.000
222.44	-0.000
222.65	-0.000
222.87	-0.000
223.08	-0.000
223.29	-0.000
223.51	-0.000
223.72	-0.000
223.94	-0.000
224.15	-0.000
224.36	-0.000
224.58	-0.000
224.79	-0.000
225.01	-0.000
225.22	-0.000
225.44	-0.000
225.65	-0.000
225.86	-0.000
226.08	-0.000
226.29	-0.000
226.51	-0.000
226.72	-0.000
226.93	-0.000
227.15	-0.000
227.36	-0.000
227.58	-0.000
227.79	-0.000
228.00	-0.000
228.22	-0.000
228.43	-0.000
228.65	-0.000
228.86	-0.000
229.07	-0.000
229.29	-0.000
229.50	-0.000
229.72	-0.000
229.93	-0.000
230.14	-0.000
230.36	-0.000
230.57	-0.000
230.78	-0.000
231.00	-0.000
231.21	-0.000
231.43	-0.000
231.64	-0.000
231.85	-0.000
232.07	-0.000
232.28	-0.000
232.50	-0.000
232.71	-0.000
232.92	-0.000
233.14	-0.000
233.35	-0.000
233.56	-0.000
233.78	-0.000
233.99	-0.000
234.21	-0.000
234.42	-0.000
234.63	-0.000
234.85	-0.000
235.06	-0.000
235.27	-0.000
235.49	-0.000
235.70	-0.000
235.91	-0.000
236.13	-0.000
236.34	-0.000
236.56	-0.000
236.77	-0.000
236.98	-0.000
237.20	-0.000
237.41	-0.000
237.62	-0.000
237.84	-0.000
238.05	-0.000
238.26	-0.000
238.48	-0.000
238.69	-0.000
238.91	-0.000
239.12	-0.000
239.33	-0.000
239.55	-0.000
239.76	-0.000
239.97	-0.000
240.19	-0.000
240.40	-0.000
240.61	-0.000
240.83	-0.000
241.04	-0.000
241.25	-0.000
241.47	-0.000
241.68	-0.000
241.89	-0.000
242.11	-0.000
242.32	-0.000
242.53	-0.000
242.75	-0.000
242.96	-0.000
243.17	-0.000
243.39	-0.000
243.60	-0.000
243.81	-0.000
244.03	-0.000
244.24	-0.000
244.45	-0.000
244.67	-0.000
244.88	-0.000
245.09	-0.000
245.31	-0.000
245.52	-0.000
245.73	-0.000
245.95	-0.000
246.16	-0.000
246.37	-0.000
246.59	-0.000
246.80	-0.000
247.01	-0.000
247.23	-0.000
247.44	-0.000
247.65	-0.000
247.87	-0.000
248.08	-0.000
248.29	-0.000
248.51	-0.000
248.72	-0.000
248.93	-0.000
249.15	-0.000
249.36	-0.000
249.57	-0.000
249.78	-0.000
250.00	-0.000
250.21	-0.000
250.42	-0.000
250.64	-0.000
250.85	-0.000
251.06	-0.000
251.28	-0.000
251.49	-0.000
251.70	-0.000
251.92	-0.000
252.13	-0.000
252.34	-0.000
252.55	-0.000
252.77	-0.000
252.98	-0.000
253.19	-0.000
253.41	-0.000
253.62	-0.000
253.83	-0.000
254.05	-0.000
254.26	-0.000
254.47	-0.000
254.68	-0.000
254.90	-0.000
255.11	-0.000
255.32	-0.000
255.54	-0.000
255.75	-0.000
255.96	-0.000
256.17	-0.000
256.39	-0.000
256.60	-0.000
256.81	-0.000
257.03	-0.000
257.24	-0.000
257.45	-0.000
257.66	-0.000
257.88	-0.000
258.09	-0.000
258.30	-0.000
258.51	-0.000
258.73	-0.000
258.94	-0.000
259.15	-0.000
259.37	-0.000
259.58	-0.000
259.79	-0.000
260.00	-0.000
260.22	-0.000
260.43	-0.000
260.64	-0.000
260.85	-0.000
261.07	-0.000
261.28	-0.000
261.49	-0.000
261.71	-0.000
261.92	-0.000
262.13	-0.000
262.34	-0.000
262.56	-0.000
262.77	-0.000
262.98	-0.000
263.19	-0.000
263.41	-0.000
263.62	-0.000
263.83	-0.000
264.04	-0.000
264.26	-0.000
264.47	-0.000
264.68	-0.000
264.89	-0.000
265.11	-0.000
265.32	-0.000
265.53	-0.000
265.74	-0.000
265.96	-0.000
266.17	-0.000
266.38	-0.000
266.59	-0.000
266.81	-0.000
267.02	-0.000
267.23	-0.000
267.44	-0.000
267.65	-0.000
267.87	-0.000
268.08	-0.000
268.29	-0.000
268.50	-0.000
268.72	-0.000
268.93	-0.000
269.14	-0.000
269.35	-0.000
269.57	-0.000
269.78	-0.000
269.99	-0.000
270.20	2.386
270.41	1.897
270.63	-0.000
270.84	3.048
271.05	1.963
271.26	2.113
271.48	-0.000
271.69	-0.000
271.90	-0.000
272.11	-0.000
272.32	-0.000
272.54	-0.000
272.75	-0.000
272.96	-0.000
273.17	-0.000
273.39	-0.000
273.60	-0.000
273.81	-0.000
274.02	-0.000
274.23	-0.000
274.45	-0.000
274.66	-0.000
274.87	-0.000
275.08	-0.000
275.29	-0.000
275.51	-0.000
275.72	-0.000
275.93	-0.000
276.14	2.234
276.35	2.678
276.57	1.896
276.78	2.209
276.99	2.725
277.20	-0.000
277.41	-0.000
277.63	1.647
277.84	1.554
278.05	1.891
278.26	1.747
278.47	2.902
278.69	1.492
278.90	1.429
279.11	1.203
279.32	1.159
279.53	1.036
279.74	1.133
279.96	1.142
280.17	1.090
280.38	1.111
280.59	1.145
280.80	1.170
281.02	1.269
281.23	1.280
281.44	1.343
281.65	1.316
281.86	1.512
282.07	1.329
282.29	1.442
282.50	1.607
282.71	1.377
282.92	1.245
283.13	1.163
283.35	1.134
283.56	1.097
283.77	1.129
283.98	1.131
284.19	1.037
284.40	1.056
284.62	0.985
284.83	0.948
285.04	0.928
285.25	0.927
285.46	0.897
285.67	0.869
285.88	0.882
286.10	0.872
286.31	0.901
286.52	0.938
286.73	0.929
286.94	0.926
287.15	0.898
287.37	0.930
287.58	0.933
287.79	0.928
288.00	0.954
288.21	0.941
288.42	0.889
288.63	0.863
288.85	0.821
289.06	0.787
289.27	0.791
289.48	0.786
289.69	0.755
289.90	0.747
290.11	0.751
290.33	0.725
290.54	0.716
290.75	0.733
290.96	0.718
291.17	0.726
291.38	0.731
291.59	0.717
291.81	0.726
292.02	0.726
292.23	0.727
292.44	0.721
292.65	0.727
292.86	0.716
293.07	0.704
293.28	0.709
293.50	0.699
293.71	0.698
293.92	0.702
294.13	0.691
294.34	0.689
294.55	0.684
294.76	0.685
294.97	0.685
295.19	0.685
295.40	0.676
295.61	0.674
295.82	0.685
296.03	0.688
296.24	0.681
296.45	0.689
296.66	0.699
296.87	0.700
297.09	0.703
297.30	0.693
297.51	0.699
297.72	0.700
297.93	0.692
298.14	0.683
298.35	0.676
298.56	0.686
298.77	0.678
298.99	0.672
299.20	0.669
299.41	0.664
299.62	0.667
299.83	0.664
300.04	0.661
300.25	0.667
300.46	0.666
300.67	0.669
300.88	0.660
301.10	0.661
301.31	0.655
301.52	0.655
301.73	0.653
301.94	0.653
302.15	0.653
302.36	0.659
302.57	0.658
302.78	0.654
302.99	0.655
303.20	0.651
303.41	0.651
303.63	0.658
303.84	0.663
304.05	0.661
304.26	0.661
304.47	0.658
304.68	0.653
304.89	0.653
305.10	0.659
305.31	0.654
305.52	0.654
305.73	0.658
305.94	0.651
306.15	0.647
306.37	0.643
306.58	0.640
306.79	0.640
307.00	0.640
307.21	0.639
307.42	0.633
307.63	0.634
307.84	0.641
308.05	0.635
308.26	0.634
308.47	0.636
308.68	0.635
308.89	0.636
309.10	0.634
309.31	0.638
309.52	0.634
309.73	0.633
309.95	0.636
310.16	0.629
310.37	0.630
310.58	0.628
310.79	0.623
311.00	0.622
311.21	0.623
311.42	0.628
311.63	0.624
311.84	0.623
312.05	0.621
312.26	0.615
312.47	0.616
312.68	0.615
312.89	0.620
313.10	0.623
313.31	0.626
313.52	0.622
313.73	0.616
313.94	0.619
314.15	0.623
314.36	0.622
314.57	0.626
314.78	0.629
314.99	0.628
315.21	0.624
315.42	0.620
315.63	0.616
315.84	0.619
316.05	0.618
316.26	0.614
316.47	0.609
316.68	0.614
316.89	0.613
317.10	0.609
317.31	0.609
317.52	0.611
317.73	0.613
317.94	0.614
318.15	0.610
318.36	0.614
318.57	0.618
318.78	0.620
318.99	0.614
319.20	0.616
319.41	0.618
319.62	0.618
319.83	0.621
320.04	0.620
320.25	0.619
320.46	0.622
320.67	0.619
320.88	0.617
321.09	0.616
321.30	0.617
321.51	0.613
321.72	0.614
321.93	0.613
322.14	0.609
322.35	0.606
322.56	0.607
322.77	0.605
322.98	0.604
323.19	0.600
323.40	0.598
323.61	0.598
323.82	0.598
324.03	0.597
324.24	0.600
324.45	0.599
324.66	0.602
324.87	0.602
325.08	0.602
325.29	0.605
325.50	0.606
325.71	0.607
325.92	0.606
326.13	0.605
326.34	0.607
326.55	0.605
326.76	0.606
326.97	0.605
327.18	0.608
327.39	0.605
327.60	0.601
327.80	0.600
328.01	0.598
328.22	0.600
328.43	0.601
328.64	0.598
328.85	0.597
329.06	0.595
329.27	0.594
329.48	0.591
329.69	0.593
329.90	0.593
330.11	0.597
330.32	0.597
330.53	0.596
330.74	0.593
330.95	0.594
331.16	0.593
331.37	0.594
331.58	0.592
331.79	0.594
332.00	0.591
332.21	0.593
332.42	0.590
332.63	0.592
332.83	0.595
333.04	0.599
333.25	0.596
333.46	0.598
333.67	0.596
333.88	0.597
334.09	0.595
334.30	0.598
334.51	0.598
334.72	0.598
334.93	0.597
335.14	0.594
335.35	0.589
335.56	0.590
335.77	0.587
335.98	0.589
336.18	0.587
336.39	0.588
336.60	0.586
336.81	0.587
337.02	0.584
337.23	0.582
337.44	0.582
337.65	0.583
337.86	0.582
338.07	0.582
338.28	0.580
338.49	0.583
338.70	0.584
338.91	0.582
339.11	0.581
339.32	0.582
339.53	0.585
339.74	0.588
339.95	0.587
340.16	0.590
340.37	0.592
340.58	0.593
340.79	0.589
341.00	0.587
341.21	0.587
341.41	0.584
341.62	0.585
341.83	0.581
342.04	0.579
342.25	0.579
342.46	0.576
342.67	0.576
342.88	0.575
343.09	0.575
343.30	0.574
343.50	0.574
343.71	0.574
343.92	0.573
344.13	0.572
344.34	0.572
344.55	0.571
344.76	0.574
344.97	0.570
345.18	0.572
345.38	0.572
345.59	0.574
345.80	0.574
346.01	0.578
346.22	0.580
346.43	0.581
346.64	0.579
346.85	0.580
347.06	0.579
347.26	0.579
347.47	0.577
347.68	0.581
347.89	0.579
348.10	0.581
348.31	0.576
348.52	0.575
348.73	0.574
348.93	0.576
349.14	0.575
349.35	0.577
349.56	0.577
349.77	0.578
349.98	0.577
350.19	0.578
350.39	0.578
350.60	0.581
350.81	0.577
351.02	0.578
351.23	0.576
351.44	0.575
351.65	0.573
351.86	0.575
352.06	0.572
352.27	0.570
352.48	0.570
352.69	0.570
352.90	0.568
353.11	0.569
353.31	0.569
353.52	0.571
353.73	0.572
353.94	0.570
354.15	0.568
354.36	0.569
354.57	0.570
354.77	0.569
354.98	0.568
355.19	0.569
355.40	0.569
355.61	0.568
355.82	0.567
356.02	0.568
356.23	0.567
356.44	0.568
356.65	0.567
356.86	0.565
357.07	0.566
357.27	0.565
357.48	0.564
357.69	0.564
357.90	0.565
358.11	0.565
358.32	0.564
358.52	0.563
358.73	0.563
358.94	0.562
359.15	0.563
359.36	0.562
359.56	0.563
359.77	0.563
359.98	0.561
360.19	0.561
360.40	0.561
360.61	0.563
360.81	0.563
361.02	0.562
361.23	0.563
361.44	0.565
361.65	0.565
361.85	0.564
362.06	0.566
362.27	0.566
362.48	0.566
362.69	0.563
362.89	0.564
363.10	0.566
363.31	0.566
363.52	0.565
363.73	0.563
363.93	0.565
364.14	0.565
364.35	0.562
364.56	0.566
364.77	0.565
364.97	0.566
365.18	0.564
365.39	0.565
365.60	0.564
365.81	0.564
366.01	0.565
366.22	0.562
366.43	0.562
366.64	0.562
366.84	0.558
367.05	0.558
367.26	0.558
367.47	0.559
367.68	0.557
367.88	0.559
368.09	0.559
368.30	0.558
368.51	0.559
368.71	0.557
368.92	0.557
369.13	0.560
369.34	0.561
369.55	0.560
369.75	0.559
369.96	0.558
370.17	0.558
370.38	0.560
370.58	0.560
370.79	0.558
371.00	0.559
371.21	0.561
371.41	0.559
371.62	0.558
371.83	0.560
372.04	0.558
372.24	0.560
372.45	0.558
372.66	0.556
372.87	0.557
373.07	0.558
373.28	0.559
373.49	0.556
373.70	0.557
373.90	0.556
374.11	0.554
374.32	0.556
374.53	0.556
374.73	0.559
374.94	0.558
375.15	0.557
375.36	0.556
375.56	0.554
375.77	0.554
375.98	0.553
376.19	0.553
376.39	0.555
376.60	0.554
376.81	0.552
377.02	0.550
377.22	0.552
377.43	0.553
377.64	0.554
377.84	0.555
378.05	0.554
378.26	0.553
378.47	0.555
378.67	0.554
378.88	0.554
379.09	0.554
379.30	0.552
379.50	0.552
379.71	0.551
379.92	0.549
380.12	0.549
380.33	0.551
380.54	0.552
380.75	0.549
380.95	0.548
381.16	0.550
381.37	0.550
381.57	0.550
381.78	0.550
381.99	0.549
382.20	0.550
382.40	0.551
382.61	0.550
382.82	0.550
383.02	0.552
383.23	0.552
383.44	0.552
383.64	0.552
383.85	0.551
384.06	0.550
384.27	0.551
384.47	0.552
384.68	0.552
384.89	0.550
385.09	0.551
385.30	0.551
385.51	0.552
385.71	0.550
385.92	0.549
386.13	0.548
386.33	0.549
386.54	0.549
386.75	0.547
386.95	0.547
387.16	0.549
387.37	0.548
387.58	0.548
387.78	0.546
387.99	0.547
388.20	0.547
388.40	0.549
388.61	0.547
388.82	0.548
389.02	0.547
389.23	0.546
389.44	0.547
389.64	0.548
389.85	0.545
390.06	0.545
390.26	0.543
390.47	0.544
390.68	0.545
390.88	0.547
391.09	0.545
391.30	0.546
391.50	0.546
391.71	0.546
391.92	0.544
392.12	0.545
392.33	0.546
392.53	0.545
392.74	0.545
392.95	0.543
393.15	0.542
393.36	0.541
393.57	0.542
393.77	0.541
393.98	0.541
394.19	0.541
394.39	0.540
394.60	0.539
394.81	0.540
395.01	0.541
395.22	0.541
395.43	0.541
395.63	0.540
395.84	0.538
396.04	0.540
396.25	0.539
396.46	0.538
396.66	0.538
396.87	0.538
397.08	0.538
397.28	0.538
397.49	0.538
397.69	0.539
397.90	0.539
398.11	0.539
398.31	0.537
398.52	0.537
398.73	0.538
398.93	0.539
399.14	0.539
399.34	0.539
399.55	0.538
399.76	0.539
399.96	0.537
400.17	0.538
400.37	0.538
400.58	0.537
400.79	0.537
400.99	0.535
401.20	0.534
401.41	0.534
401.61	0.533
401.82	0.532
402.02	0.533
402.23	0.534
402.44	0.533
402.64	0.532
402.85	0.533
403.05	0.533
403.26	0.534
403.47	0.534
403.67	0.534
403.88	0.534
404.08	0.534
404.29	0.534
404.50	0.534
404.70	0.534
404.91	0.535
405.11	0.534
405.32	0.535
405.52	0.534
405.73	0.535
405.94	0.536
406.14	0.535
406.35	0.535
406.55	0.534
406.76	0.533
406.97	0.532
407.17	0.532
407.38	0.533
407.58	0.532
407.79	0.531
407.99	0.529
408.20	0.528
408.41	0.529
408.61	0.529
408.82	0.528
409.02	0.529
409.23	0.530
409.43	0.529
409.64	0.527
409.84	0.529
410.05	0.529
410.26	0.530
410.46	0.531
410.67	0.531
410.87	0.530
411.08	0.529
411.28	0.528
411.49	0.527
411.69	0.527
411.90	0.529
412.11	0.529
412.31	0.528
412.52	0.527
412.72	0.527
412.93	0.526
413.13	0.526
413.34	0.527
413.54	0.528
413.75	0.529
413.95	0.530
414.16	0.529
414.37	0.528
414.57	0.529
414.78	0.528
414.98	0.530
415.19	0.529
415.39	0.529
415.60	0.528
415.80	0.527
416.01	0.526
416.21	0.525
416.42	0.525
416.62	0.526
416.83	0.525
417.03	0.525
417.24	0.525
417.44	0.524
417.65	0.525
417.86	0.526
418.06	0.527
418.27	0.527
418.47	0.527
418.68	0.525
418.88	0.525
419.09	0.525
419.29	0.526
419.50	0.526
419.70	0.527
419.91	0.526
420.11	0.527
420.32	0.526
420.52	0.526
420.73	0.526
420.93	0.526
421.14	0.527
421.34	0.528
421.55	0.528
421.75	0.528
421.96	0.527
422.16	0.526
422.37	0.525
422.57	0.526
422.78	0.525
422.98	0.526
423.19	0.527
423.39	0.527
423.60	0.526
423.80	0.524
424.01	0.525
424.21	0.525
424.42	0.525
424.62	0.525
424.83	0.525
425.03	0.524
425.23	0.524
425.44	0.522
425.64	0.521
425.85	0.521
426.05	0.521
426.26	0.520
426.46	0.519
426.67	0.519
426.87	0.518
427.08	0.518
427.28	0.518
427.49	0.518
427.69	0.518
427.90	0.518
428.10	0.520
428.31	0.521
428.51	0.523
428.71	0.524
428.92	0.523
429.12	0.525
429.33	0.526
429.53	0.525
429.74	0.525
429.94	0.526
430.15	0.527
430.35	0.525
430.56	0.524
430.76	0.524
430.96	0.524
431.17	0.524
431.37	0.524
431.58	0.525
431.78	0.525
431.99	0.526
432.19	0.524
432.40	0.524
432.60	0.526
432.80	0.525
433.01	0.526
433.21	0.525
433.42	0.525
433.62	0.525
433.83	0.524
434.03	0.525
434.23	0.524
434.44	0.525
434.64	0.524
434.85	0.523
435.05	0.524
435.26	0.524
435.46	0.525
435.66	0.525
435.87	0.525
436.07	0.524
436.28	0.525
436.48	0.527
436.69	0.528
436.89	0.529
437.09	0.528
437.30	0.528
437.50	0.528
437.71	0.526
437.91	0.526
438.11	0.526
438.32	0.526
438.52	0.525
438.73	0.525
438.93	0.525
439.13	0.525
439.34	0.525
439.54	0.524
439.75	0.525
439.95	0.527
440.15	0.527
440.36	0.526
440.56	0.527
440.77	0.528
440.97	0.528
441.17	0.527
441.38	0.527
441.58	0.528
441.79	0.528
441.99	0.528
442.19	0.528
442.40	0.527
442.60	0.527
442.81	0.527
443.01	0.527
443.21	0.526
443.42	0.527
443.62	0.526
443.82	0.526
444.03	0.526
444.23	0.526
444.44	0.525
444.64	0.526
444.84	0.528
445.05	0.528
445.25	0.529
445.45	0.528
445.66	0.527
445.86	0.529
446.06	0.527
446.27	0.527
446.47	0.525
446.68	0.526
446.88	0.525
447.08	0.524
447.29	0.524
447.49	0.524
447.69	0.523
447.90	0.524
448.10	0.522
448.30	0.523
448.51	0.522
448.71	0.523
448.91	0.522
449.12	0.524
449.32	0.523
449.52	0.523
449.73	0.521
449.93	0.521
450.14	0.521
450.34	0.522
450.54	0.521
450.75	0.522
450.95	0.521
451.15	0.522
451.36	0.521
451.56	0.523
451.76	0.523
451.97	0.525
452.17	0.525
452.37	0.526
452.58	0.527
452.78	0.528
452.98	0.528
453.19	0.530
453.39	0.529
453.59	0.530
453.79	0.528
454.00	0.529
454.20	0.527
454.40	0.528
454.61	0.528
454.81	0.528
455.01	0.527
455.22	0.527
455.42	0.526
455.62	0.526
455.83	0.525
456.03	0.525
456.23	0.524
456.44	0.524
456.64	0.524
456.84	0.522
457.04	0.524
457.25	0.525
457.45	0.525
457.65	0.526
457.86	0.528
458.06	0.529
458.26	0.531
458.47	0.531
458.67	0.531
458.87	0.531
459.07	0.530
459.28	0.528
459.48	0.527
459.68	0.526
459.89	0.525
460.09	0.525
460.29	0.524
460.49	0.523
460.70	0.523
460.90	0.523
461.10	0.523
461.31	0.525
461.51	0.526
461.71	0.527
461.91	0.528
462.12	0.529
462.32	0.529
462.52	0.529
462.72	0.529
462.93	0.528
463.13	0.527
463.33	0.528
463.53	0.527
463.74	0.528
463.94	0.527
464.14	0.528
464.35	0.528
464.55	0.527
464.75	0.529
464.95	0.529
465.16	0.528
465.36	0.530
465.56	0.529
465.76	0.529
465.97	0.529
466.17	0.529
466.37	0.527
466.57	0.526
466.78	0.526
466.98	0.525
467.18	0.525
467.38	0.526
467.59	0.525
467.79	0.526
467.99	0.525
468.19	0.524
468.39	0.524
468.60	0.524
468.80	0.524
469.00	0.524
469.20	0.525
469.41	0.526
469.61	0.526
469.81	0.526
470.01	0.527
470.22	0.527
470.42	0.528
470.62	0.529
470.82	0.529
471.02	0.531
471.23	0.530
471.43	0.529
471.63	0.529
471.83	0.530
472.04	0.530
472.24	0.529
472.44	0.528
472.64	0.529
472.84	0.529
473.05	0.528
473.25	0.527
473.45	0.528
473.65	0.527
473.85	0.526
474.06	0.525
474.26	0.524
474.46	0.523
474.66	0.525
474.86	0.525
475.07	0.524
475.27	0.525
475.47	0.526
475.67	0.525
475.87	0.524
476.08	0.525
476.28	0.526
476.48	0.527
476.68	0.528
476.88	0.526
477.09	0.525
477.29	0.524
477.49	0.525
477.69	0.525
477.89	0.526
478.09	0.527
478.30	0.526
478.50	0.526
478.70	0.526
478.90	0.526
479.10	0.526
479.31	0.526
479.51	0.526
479.71	0.526
479.91	0.525
480.11	0.524
480.31	0.524
480.52	0.524
480.72	0.523
480.92	0.523
481.12	0.523
481.32	0.524
481.52	0.524
481.72	0.524
481.93	0.523
482.13	0.524
482.33	0.525
482.53	0.526
482.73	0.526
482.93	0.526
483.14	0.527
483.34	0.526
483.54	0.526
483.74	0.526
483.94	0.526
484.14	0.526
484.34	0.526
484.55	0.525
484.75	0.524
484.95	0.523
485.15	0.524
485.35	0.523
485.55	0.524
485.75	0.523
485.96	0.523
486.16	0.523
486.36	0.523
486.56	0.523
486.76	0.524
486.96	0.524
487.16	0.525
487.36	0.526
487.57	0.526
487.77	0.525
487.97	0.525
488.17	0.526
488.37	0.526
488.57	0.526
488.77	0.527
488.97	0.526
489.18	0.526
489.38	0.525
489.58	0.524
489.78	0.524
489.98	0.524
490.18	0.525
490.38	0.525
490.58	0.524
490.78	0.525
490.98	0.524
491.19	0.525
491.39	0.524
491.59	0.525
491.79	0.525
491.99	0.524
492.19	0.525
492.39	0.524
492.59	0.524
492.79	0.525
492.99	0.523
493.20	0.523
493.40	0.522
493.60	0.522
493.80	0.522
494.00	0.523
494.20	0.523
494.40	0.523
494.60	0.522
494.80	0.522
495.00	0.522
495.20	0.523
495.40	0.523
495.61	0.522
495.81	0.522
496.01	0.521
496.21	0.520
496.41	0.521
496.61	0.521
496.81	0.521
497.01	0.522
497.21	0.522
497.41	0.522
497.61	0.522
497.81	0.523
498.01	0.523
498.21	0.523
498.41	0.524
498.61	0.524
498.82	0.523
499.02	0.523
499.22	0.522
499.42	0.522
499.62	0.523
499.82	0.524
500.02	0.523
500.22	0.523
500.42	0.523
500.62	0.524
500.82	0.524
501.02	0.523
501.22	0.523
501.42	0.524
501.62	0.523
501.82	0.523
502.02	0.523
502.22	0.523
502.42	0.523
502.62	0.523
502.82	0.523
503.02	0.524
503.22	0.524
503.42	0.525
503.63	0.525
503.83	0.525
504.03	0.526
504.23	0.525
504.43	0.527
504.63	0.526
504.83	0.527
505.03	0.528
505.23	0.526
505.43	0.527
505.63	0.526
505.83	0.527
506.03	0.527
506.23	0.526
506.43	0.525
506.63	0.524
506.83	0.525
507.03	0.524
507.23	0.524
507.43	0.525
507.63	0.524
507.83	0.524
508.03	0.525
508.23	0.525
508.43	0.526
508.63	0.526
508.83	0.526
509.03	0.525
509.23	0.526
509.43	0.526
509.63	0.527
509.83	0.527
510.03	0.526
510.23	0.525
510.43	0.525
510.63	0.525
510.83	0.524
511.03	0.525
511.23	0.526
511.43	0.525
511.63	0.524
511.83	0.523
512.03	0.524
512.22	0.525
512.42	0.526
512.62	0.528
512.82	0.528
513.02	0.528
513.22	0.528
513.42	0.528
513.62	0.528
513.82	0.529
514.02	0.530
514.22	0.529
514.42	0.529
514.62	0.527
514.82	0.526
515.02	0.526
515.22	0.526
515.42	0.527
515.62	0.525
515.82	0.527
516.02	0.527
516.22	0.527
516.42	0.528
516.62	0.527
516.82	0.527
517.01	0.527
517.21	0.528
517.41	0.527
517.61	0.528
517.81	0.529
518.01	0.528
518.21	0.529
518.41	0.530
518.61	0.529
518.81	0.529
519.01	0.530
519.21	0.531
519.41	0.530
519.61	0.532
519.81	0.532
520.00	0.534
520.20	0.533
520.40	0.532
520.60	0.531
520.80	0.532
521.00	0.532
521.20	0.532
521.40	0.531
521.60	0.531
521.80	0.531
522.00	0.529
522.20	0.527
522.39	0.527
522.59	0.528
522.79	0.529
522.99	0.529
523.19	0.531
523.39	0.532
523.59	0.534
523.79	0.533
523.99	0.532
524.19	0.531
524.38	0.533
524.58	0.533
524.78	0.533
524.98	0.532
525.18	0.531
525.38	0.531
525.58	0.530
525.78	0.529
525.98	0.529
526.18	0.529
526.37	0.531
526.57	0.530
526.77	0.530
526.97	0.529
527.17	0.530
527.37	0.530
527.57	0.530
527.77	0.529
527.96	0.529
528.16	0.530
528.36	0.532
528.56	0.531
528.76	0.533
528.96	0.533
529.16	0.534
529.36	0.534
529.55	0.535
529.75	0.536
529.95	0.537
530.15	0.536
530.35	0.536
530.55	0.535
530.75	0.534
530.94	0.534
531.14	0.535
531.34	0.534
531.54	0.536
531.74	0.534
531.94	0.533
532.13	0.534
532.33	0.534
532.53	0.535
532.73	0.537
532.93	0.537
533.13	0.536
533.33	0.536
533.52	0.535
533.72	0.534
533.92	0.536
534.12	0.538
534.32	0.538
534.52	0.536
534.71	0.536
534.91	0.534
535.11	0.535
535.31	0.534
535.51	0.534
535.71	0.534
535.90	0.534
536.10	0.532
536.30	0.531
536.50	0.531
536.70	0.531
536.89	0.531
537.09	0.533
537.29	0.532
537.49	0.532
537.69	0.532
537.89	0.534
538.08	0.535
538.28	0.536
538.48	0.536
538.68	0.535
538.88	0.535
539.07	0.536
539.27	0.535
539.47	0.536
539.67	0.537
539.87	0.537
540.06	0.536
540.26	0.536
540.46	0.535
540.66	0.537
540.86	0.538
541.05	0.539
541.25	0.539
541.45	0.540
541.65	0.539
541.84	0.539
542.04	0.538
542.24	0.539
542.44	0.538
542.64	0.540
542.83	0.538
543.03	0.538
543.23	0.540
543.43	0.538
543.62	0.539
543.82	0.539
544.02	0.538
544.22	0.538
544.42	0.537
544.61	0.539
544.81	0.539
545.01	0.540
545.21	0.539
545.40	0.537
545.60	0.537
545.80	0.535
546.00	0.536
546.19	0.537
546.39	0.537
546.59	0.538
546.79	0.538
546.98	0.539
547.18	0.538
547.38	0.538
547.58	0.538
547.77	0.538
547.97	0.539
548.17	0.540
548.37	0.540
548.56	0.541
548.76	0.540
548.96	0.539
549.16	0.537
549.35	0.540
549.55	0.541
549.75	0.541
549.95	0.540
550.14	0.541
550.34	0.541
550.54	0.540
550.73	0.538
550.93	0.540
551.13	0.542
551.33	0.542
551.52	0.541
551.72	0.541
551.92	0.541
552.12	0.543
552.31	0.541
552.51	0.543
552.71	0.542
552.90	0.542
553.10	0.541
553.30	0.541
553.50	0.542
553.69	0.542
553.89	0.543
554.09	0.542
554.28	0.541
554.48	0.541
554.68	0.540
554.87	0.541
555.07	0.542
555.27	0.543
555.47	0.542
555.66	0.542
555.86	0.543
556.06	0.543
556.25	0.545
556.45	0.546
556.65	0.547
556.84	0.549
557.04	0.550
557.24	0.549
557.43	0.549
557.63	0.551
557.83	0.551
558.02	0.552
558.22	0.551
558.42	0.550
558.61	0.551
558.81	0.550
559.01	0.550
559.21	0.548
559.40	0.549
559.60	0.550
559.80	0.549
559.99	0.549
560.19	0.547
560.39	0.549
560.58	0.548
560.78	0.549
560.97	0.547
561.17	0.548
561.37	0.549
561.56	0.549
561.76	0.548
561.96	0.549
562.15	0.548
562.35	0.547
562.55	0.546
562.74	0.547
562.94	0.545
563.14	0.546
563.33	0.546
563.53	0.547
563.73	0.547
563.92	0.547
564.12	0.547
564.31	0.546
564.51	0.546
564.71	0.546
564.90	0.544
565.10	0.545
565.30	0.545
565.49	0.545
565.69	0.544
565.89	0.545
566.08	0.545
566.28	0.545
566.47	0.545
566.67	0.546
566.87	0.548
567.06	0.549
567.26	0.547
567.46	0.549
567.65	0.547
567.85	0.547
568.04	0.546
568.24	0.545
568.44	0.546
568.63	0.547
568.83	0.548
569.02	0.547
569.22	0.547
569.42	0.548
569.61	0.547
569.81	0.548
570.00	0.546
570.20	0.545
570.40	0.545
570.59	0.545
570.79	0.543
570.98	0.541
571.18	0.540
571.38	0.540
571.57	0.540
571.77	0.541
571.96	0.539
572.16	0.541
572.35	0.541
572.55	0.541
572.75	0.542
572.94	0.542
573.14	0.541
573.33	0.541
573.53	0.541
573.73	0.540
573.92	0.540
574.12	0.542
574.31	0.541
574.51	0.540
574.70	0.539
574.90	0.539
575.09	0.538
575.29	0.538
575.49	0.538
575.68	0.538
575.88	0.538
576.07	0.537
576.27	0.535
576.46	0.535
576.66	0.535
576.86	0.535
577.05	0.537
577.25	0.538
577.44	0.538
577.64	0.538
577.83	0.539
578.03	0.540
578.22	0.539
578.42	0.540
578.61	0.540
578.81	0.540
579.00	0.539
579.20	0.538
579.40	0.537
579.59	0.538
579.79	0.538
579.98	0.538
580.18	0.537
580.37	0.537
580.57	0.536
580.76	0.536
580.96	0.536
581.15	0.537
581.35	0.536
581.54	0.537
581.74	0.536
581.93	0.536
582.13	0.535
582.32	0.536
582.52	0.536
582.71	0.536
582.91	0.537
583.10	0.538
583.30	0.537
583.49	0.537
583.69	0.536
583.88	0.537
584.08	0.536
584.27	0.536
584.47	0.536
584.66	0.537
584.86	0.537
585.05	0.536
585.25	0.536
585.44	0.536
585.64	0.537
585.83	0.538
586.03	0.538
586.22	0.539
586.42	0.539
586.61	0.539
586.81	0.539
587.00	0.539
587.20	0.539
587.39	0.539
587.59	0.539
587.78	0.538
587.98	0.537
588.17	0.538
588.37	0.538
588.56	0.537
588.76	0.537
588.95	0.537
589.15	0.539
589.34	0.539
589.54	0.539
589.73	0.540
589.92	0.540
590.12	0.541
590.31	0.542
590.51	0.543
590.70	0.544
590.90	0.544
591.09	0.545
591.29	0.544
591.48	0.544
591.68	0.544
591.87	0.544
592.06	0.544
592.26	0.543
592.45	0.542
592.65	0.540
592.84	0.540
593.04	0.540
593.23	0.540
593.43	0.540
593.62	0.540
593.81	0.539
594.01	0.540
594.20	0.540
594.40	0.540
594.59	0.540
594.79	0.541
594.98	0.541
595.17	0.541
595.37	0.543
595.56	0.543
595.76	0.544
595.95	0.545
596.14	0.545
596.34	0.545
596.53	0.544
596.73	0.544
596.92	0.544
597.12	0.543
597.31	0.542
597.50	0.540
597.70	0.539
597.89	0.537
598.09	0.537
598.28	0.535
598.47	0.534
598.67	0.534
598.86	0.535
599.06	0.535
599.25	0.534
599.44	0.534
599.64	0.533
599.83	0.535
600.03	0.534
600.22	0.533
600.41	0.533
600.61	0.533
600.80	0.533
601.00	0.532
601.19	0.533
601.38	0.534
601.58	0.534
601.77	0.535
601.96	0.534
602.16	0.535
602.35	0.535
602.55	0.538
602.74	0.538
602.93	0.538
603.13	0.538
603.32	0.538
603.51	0.539
603.71	0.539
603.90	0.538
604.09	0.538
604.29	0.538
604.48	0.538
604.68	0.537
604.87	0.537
605.06	0.537
605.26	0.538
605.45	0.536
605.64	0.535
605.84	0.535
606.03	0.535
606.22	0.535
606.42	0.536
606.61	0.537
606.80	0.537
607.00	0.538
607.19	0.537
607.38	0.538
607.58	0.540
607.77	0.540
607.96	0.540
608.16	0.541
608.35	0.541
608.54	0.541
608.74	0.541
608.93	0.540
609.12	0.539
609.32	0.540
609.51	0.539
609.70	0.538
609.90	0.538
610.09	0.539
610.28	0.538
610.48	0.539
610.67	0.541
610.86	0.541
611.06	0.542
611.25	0.542
611.44	0.541
611.64	0.543
611.83	0.544
612.02	0.544
612.21	0.544
612.41	0.544
612.60	0.544
612.79	0.543
612.99	0.543
613.18	0.543
613.37	0.544
613.57	0.545
613.76	0.543
613.95	0.544
614.14	0.543
614.34	0.542
614.53	0.542
614.72	0.541
614.92	0.542
615.11	0.542
615.30	0.543
615.49	0.543
615.69	0.542
615.88	0.544
616.07	0.544
616.26	0.546
616.46	0.547
616.65	0.548
616.84	0.551
617.04	0.550
617.23	0.549
617.42	0.549
617.61	0.547
617.81	0.547
618.00	0.548
618.19	0.548
618.38	0.548
618.58	0.550
618.77	0.551
618.96	0.550
619.15	0.552
619.35	0.554
619.54	0.555
619.73	0.556
619.92	0.557
620.12	0.554
620.31	0.555
620.50	0.554
620.69	0.553
620.89	0.552
621.08	0.553
621.27	0.550
621.46	0.550
621.66	0.549
621.85	0.549
622.04	0.552
622.23	0.555
622.43	0.555
622.62	0.556
622.81	0.554
623.00	0.553
623.19	0.551
623.39	0.552
623.58	0.550
623.77	0.552
623.96	0.551
624.16	0.552
624.35	0.551
624.54	0.550
624.73	0.549
624.92	0.551
625.12	0.550
625.31	0.550
625.50	0.550
625.69	0.550
625.88	0.551
626.08	0.553
626.27	0.552
626.46	0.552
626.65	0.551
626.84	0.551
627.04	0.549
627.23	0.552
627.42	0.554
627.61	0.554
627.80	0.552
628.00	0.553
628.19	0.551
628.38	0.549
628.57	0.549
628.76	0.551
628.96	0.552
629.15	0.552
629.34	0.553
629.53	0.554
629.72	0.556
629.91	0.558
630.11	0.555
630.30	0.555
630.49	0.554
630.68	0.556
630.87	0.556
631.06	0.556
631.26	0.557
631.45	0.556
631.64	0.554
631.83	0.554
632.02	0.554
632.21	0.557
632.41	0.557
632.60	0.559
632.79	0.558
632.98	0.557
633.17	0.558
633.36	0.559
633.55	0.559
633.75	0.563
633.94	0.562
634.13	0.562
634.32	0.562
634.51	0.563
634.70	0.563
634.89	0.563
635.09	0.564
635.28	0.563
635.47	0.562
635.66	0.559
635.85	0.559
636.04	0.562
636.23	0.561
636.43	0.560
636.62	0.561
636.81	0.561
637.00	0.559
637.19	0.557
637.38	0.560
637.57	0.562
637.76	0.565
637.95	0.563
638.15	0.561
638.34	0.563
638.53	0.563
638.72	0.561
638.91	0.562
639.10	0.564
639.29	0.564
639.48	0.562
639.67	0.559
639.87	0.559
640.06	0.562
640.25	0.564
640.44	0.560
640.63	0.561
640.82	0.562
641.01	0.563
641.20	0.565
641.39	0.568
641.58	0.570
641.78	0.571
641.97	0.571
642.16	0.567
642.35	0.565
642.54	0.567
642.73	0.568
642.92	0.568
643.11	0.567
643.30	0.566
643.49	0.564
643.68	0.561
643.87	0.560
644.06	0.559
644.25	0.562
644.45	0.565
644.64	0.568
644.83	0.566
645.02	0.568
645.21	0.568
645.40	0.565
645.59	0.568
645.78	0.568
645.97	0.569
646.16	0.567
646.35	0.565
646.54	0.560
646.73	0.558
646.92	0.560
647.11	0.559
647.30	0.559
647.49	0.558
647.68	0.557
647.88	0.557
648.07	0.560
648.26	0.560
648.45	0.559
648.64	0.563
648.83	0.561
649.02	0.559
649.21	0.555
649.40	0.555
649.59	0.556
649.78	0.557
649.97	0.555
650.16	0.552
650.35	0.551
650.54	0.553
650.73	0.549
650.92	0.551
651.11	0.552
651.30	0.554
651.49	0.552
651.68	0.552
651.87	0.550
652.06	0.552
652.25	0.555
652.44	0.558
652.63	0.557
652.82	0.557
653.01	0.555
653.20	0.552
653.39	0.552
653.58	0.550
653.77	0.547
653.96	0.545
654.15	0.543
654.34	0.540
654.53	0.538
654.72	0.536
654.91	0.536
655.10	0.535
655.29	0.535
655.48	0.533
655.67	0.533
655.86	0.532
656.05	0.532
656.24	0.531
656.43	0.530
656.62	0.530
656.81	0.528
657.00	0.526
657.19	0.527
657.38	0.527
657.57	0.528
657.76	0.528
657.95	0.530
658.14	0.531
658.33	0.534
658.51	0.535
658.70	0.536
658.89	0.540
659.08	0.543
659.27	0.542
659.46	0.544
659.65	0.545
659.84	0.549
660.03	0.550
660.22	0.549
660.41	0.548
660.60	0.552
660.79	0.554
660.98	0.553
661.17	0.553
661.36	0.554
661.55	0.556
661.74	0.553
661.92	0.552
662.11	0.551
662.30	0.552
662.49	0.553
662.68	0.552
662.87	0.548
663.06	0.550
663.25	0.548
663.44	0.547
663.63	0.546
663.82	0.547
664.01	0.546
664.20	0.547
664.38	0.547
664.57	0.545
664.76	0.542
664.95	0.542
665.14	0.540
665.33	0.544
665.52	0.543
665.71	0.542
665.90	0.543
666.09	0.543
666.28	0.542
666.46	0.537
666.65	0.537
666.84	0.540
667.03	0.542
667.22	0.543
667.41	0.542
667.60	0.544
667.79	0.543
667.98	0.541
668.16	0.540
668.35	0.539
668.54	0.543
668.73	0.543
668.92	0.542
669.11	0.542
669.30	0.543
669.49	0.544
669.67	0.545
669.86	0.544
670.05	0.543
670.24	0.544
670.43	0.545
670.62	0.544
670.81	0.544
671.00	0.542
671.18	0.540
671.37	0.539
671.56	0.537
671.75	0.535
671.94	0.538
672.13	0.540
672.32	0.541
672.50	0.540
672.69	0.539
672.88	0.538
673.07	0.538
673.26	0.539
673.45	0.538
673.63	0.539
673.82	0.540
674.01	0.538
674.20	0.537
674.39	0.537
674.58	0.537
674.76	0.541
674.95	0.543
675.14	0.544
675.33	0.544
675.52	0.544
675.71	0.545
675.89	0.544
676.08	0.546
676.27	0.546
676.46	0.546
676.65	0.545
676.84	0.543
677.02	0.541
677.21	0.538
677.40	0.538
677.59	0.539
677.78	0.537
677.96	0.536
678.15	0.535
678.34	0.536
678.53	0.533
678.72	0.530
678.90	0.532
679.09	0.534
679.28	0.536
679.47	0.536
679.66	0.535
679.84	0.536
680.03	0.537
680.22	0.537
680.41	0.535
680.60	0.537
680.78	0.539
680.97	0.539
681.16	0.537
681.35	0.535
681.53	0.535
681.72	0.534
681.91	0.532
682.10	0.531
682.29	0.529
682.47	0.529
682.66	0.528
682.85	0.528
683.04	0.527
683.22	0.526
683.41	0.525
683.60	0.526
683.79	0.524
683.97	0.523
684.16	0.524
684.35	0.524
684.54	0.525
684.72	0.524
684.91	0.523
685.10	0.522
685.29	0.522
685.47	0.524
685.66	0.524
685.85	0.524
686.04	0.524
686.22	0.523
686.41	0.521
686.60	0.520
686.79	0.520
686.97	0.520
687.16	0.519
687.35	0.519
687.54	0.518
687.72	0.515
687.91	0.517
688.10	0.515
688.29	0.516
688.47	0.516
688.66	0.518
688.85	0.517
689.03	0.518
689.22	0.517
689.41	0.517
689.60	0.517
689.78	0.520
689.97	0.519
690.16	0.520
690.34	0.520
690.53	0.522
690.72	0.519
690.91	0.520
691.09	0.520
691.28	0.521
691.47	0.523
691.65	0.523
691.84	0.522
692.03	0.523
692.21	0.522
692.40	0.521
692.59	0.520
692.77	0.522
692.96	0.521
693.15	0.520
693.34	0.519
693.52	0.518
693.71	0.517
693.90	0.517
694.08	0.515
694.27	0.516
694.46	0.516
694.64	0.515
694.83	0.513
695.02	0.515
695.20	0.516
695.39	0.517
695.58	0.517
695.76	0.516
695.95	0.515
696.14	0.515
696.32	0.513
696.51	0.514
696.70	0.513
696.88	0.512
697.07	0.509
697.26	0.508
697.44	0.507
697.63	0.507
697.81	0.506
698.00	0.507
698.19	0.507
698.37	0.507
698.56	0.506
698.75	0.507
698.93	0.507
699.12	0.508
699.31	0.507
699.49	0.507
699.68	0.507
699.87	0.507
700.05	0.504
700.24	0.505
700.42	0.504
700.61	0.505
700.80	0.505
700.98	0.506
701.17	0.504
701.36	0.504
701.54	0.503
701.73	0.502
701.91	0.502
702.10	0.502
702.29	0.504
702.47	0.505
702.66	0.506
702.84	0.505
703.03	0.504
703.22	0.505
703.40	0.506
703.59	0.507
703.77	0.507
703.96	0.508
704.15	0.508
704.33	0.507
704.52	0.504
704.70	0.503
704.89	0.502
705.08	0.504
705.26	0.504
705.45	0.502
705.63	0.500
705.82	0.501
706.00	0.499
706.19	0.499
706.38	0.498
706.56	0.499
706.75	0.499
706.93	0.499
707.12	0.497
707.30	0.496
707.49	0.496
707.68	0.497
707.86	0.495
708.05	0.495
708.23	0.495
708.42	0.495
708.60	0.494
708.79	0.493
708.98	0.493
709.16	0.493
709.35	0.493
709.53	0.492
709.72	0.492
709.90	0.492
710.09	0.492
710.27	0.490
710.46	0.488
710.64	0.488
710.83	0.487
711.02	0.487
711.20	0.488
711.39	0.488
711.57	0.488
711.76	0.488
711.94	0.489
712.13	0.489
712.31	0.489
712.50	0.491
712.68	0.492
712.87	0.491
713.05	0.491
713.24	0.489
713.42	0.488
713.61	0.487
713.79	0.488
713.98	0.487
714.16	0.485
714.35	0.484
714.54	0.484
714.72	0.484
714.91	0.483
715.09	0.481
715.28	0.479
715.46	0.479
715.65	0.479
715.83	0.478
716.02	0.478
716.20	0.479
716.39	0.480
716.57	0.479
716.76	0.477
716.94	0.478
717.12	0.478
717.31	0.478
717.49	0.478
717.68	0.477
717.86	0.475
718.05	0.472
718.23	0.470
718.42	0.467
718.60	0.463
718.79	0.462
718.97	0.460
719.16	0.460
719.34	0.459
719.53	0.459
719.71	0.459
719.90	0.458
720.08	0.457
720.27	0.457
720.45	0.456
720.63	0.455
720.82	0.453
721.00	0.452
721.19	0.451
721.37	0.450
721.56	0.446
721.74	0.444
721.93	0.442
722.11	0.441
722.30	0.440
722.48	0.440
722.66	0.439
722.85	0.439
723.03	0.438
723.22	0.439
723.40	0.439
723.59	0.440
723.77	0.437
723.95	0.438
724.14	0.437
724.32	0.435
724.51	0.433
724.69	0.435
724.88	0.435
725.06	0.434
725.24	0.432
725.43	0.432
725.61	0.433
725.80	0.435
725.98	0.435
726.16	0.435
726.35	0.434
726.53	0.434
726.72	0.429
726.90	0.426
727.09	0.425
727.27	0.422
727.45	0.418
727.64	0.411
727.82	0.406
728.01	0.401
728.19	0.401
728.37	0.397
728.56	0.393
728.74	0.391
728.92	0.391
729.11	0.390
729.29	0.389
729.48	0.387
729.66	0.387
729.84	0.386
730.03	0.383
730.21	0.379
730.40	0.377
730.58	0.378
730.76	0.376
730.95	0.372
731.13	0.369
731.31	0.365
731.50	0.359
731.68	0.358
731.86	0.356
732.05	0.352
732.23	0.349
732.42	0.348
732.60	0.343
732.78	0.340
732.97	0.334
733.15	0.330
733.33	0.328
733.52	0.327
733.70	0.322
733.88	0.318
734.07	0.315
734.25	0.311
734.43	0.309
734.62	0.308
734.80	0.307
734.98	0.305
735.17	0.301
735.35	0.299
735.53	0.297
735.72	0.293
735.90	0.289
736.08	0.288
736.27	0.286
736.45	0.283
736.63	0.282
736.82	0.277
737.00	0.274
737.18	0.275
737.37	0.271
737.55	0.267
737.73	0.264
737.92	0.264
738.10	0.264
738.28	0.261
738.46	0.257
738.65	0.253
738.83	0.252
739.01	0.250
739.20	0.246
739.38	0.246
739.56	0.247
739.75	0.249
739.93	0.250
740.11	0.246
740.29	0.243
740.48	0.245
740.66	0.247
740.84	0.248
741.03	0.248
741.21	0.247
741.39	0.250
741.57	0.250
741.76	0.247
741.94	0.246
742.12	0.249
742.31	0.251
742.49	0.252
742.67	0.253
742.85	0.247
743.04	0.252
743.22	0.254
743.40	0.250
743.58	0.252
743.77	0.255
743.95	0.259
744.13	0.255
744.31	0.255
744.50	0.252
744.68	0.248
744.86	0.251
745.04	0.244
745.23	0.245
745.41	0.244
745.59	0.243
745.77	0.244
745.96	0.245
746.14	0.245
746.32	0.250
746.50	0.248
746.69	0.253
746.87	0.254
747.05	0.256
747.23	0.261
747.42	0.267
747.60	0.264
747.78	0.261
747.96	0.252
748.14	0.254
748.33	0.251
748.51	0.252
748.69	0.253
748.87	0.252
749.06	0.253
749.24	0.244
749.42	0.240
749.60	0.242
749.78	0.239
749.97	0.244
750.15	0.246
750.33	0.244
750.51	0.243
750.69	0.238
750.88	0.235
751.06	0.237
751.24	0.236
751.42	0.240
751.60	0.237
751.79	0.237
751.97	0.239
752.15	0.236
752.33	0.238
752.51	0.236
752.69	0.240
752.88	0.243
753.06	0.238
753.24	0.244
753.42	0.240
753.60	0.240
753.78	0.242
753.97	0.238
754.15	0.241
754.33	0.239
754.51	0.243
754.69	0.241
754.87	0.237
755.06	0.242
755.24	0.237
755.42	0.240
755.60	0.242
755.78	0.239
755.96	0.239
756.15	0.238
756.33	0.237
756.51	0.235
756.69	0.235
756.87	0.239
757.05	0.236
757.23	0.238
757.42	0.235
757.60	0.236
757.78	0.237
757.96	0.239
758.14	0.237
758.32	0.238
758.50	0.235
758.69	0.234
758.87	0.233
759.05	0.234
759.23	0.231
759.41	0.232
759.59	0.232
759.77	0.231
759.95	0.230
760.13	0.229
760.32	0.227
760.50	0.230
760.68	0.226
760.86	0.227
761.04	0.226
761.22	0.229
761.40	0.225
761.58	0.223
761.76	0.221
761.95	0.221
762.13	0.222
762.31	0.224
762.49	0.225
762.67	0.226
762.85	0.227
763.03	0.231
763.21	0.230
763.39	0.233
763.57	0.234
763.75	0.237
763.94	0.238
764.12	0.237
764.30	0.236
764.48	0.236
764.66	0.238
764.84	0.237
765.02	0.234
765.20	0.233
765.38	0.234
765.56	0.237
765.74	0.234
765.92	0.236
766.10	0.236
766.28	0.237
766.46	0.235
766.65	0.237
766.83	0.235
767.01	0.237
767.19	0.236
767.37	0.236
767.55	0.236
767.73	0.237
767.91	0.236
768.09	0.238
768.27	0.237
768.45	0.241
768.63	0.238
768.81	0.238
768.99	0.240
769.17	0.240
769.35	0.238
769.53	0.238
769.71	0.238
769.89	0.238
770.07	0.237
770.25	0.241
770.43	0.242
770.61	0.243
770.79	0.242
770.97	0.240
771.15	0.239
771.33	0.240
771.51	0.240
771.69	0.241
771.87	0.239
772.05	0.239
772.24	0.237
772.42	0.235
772.60	0.235
772.78	0.236
772.96	0.235
773.14	0.241
773.32	0.244
773.49	0.244
773.67	0.243
773.85	0.246
774.03	0.246
774.21	0.248
774.39	0.251
774.57	0.252
774.75	0.253
774.93	0.255
775.11	0.251
775.29	0.251
775.47	0.249
775.65	0.252
775.83	0.255
776.01	0.256
776.19	0.257
776.37	0.257
776.55	0.259
776.73	0.259
776.91	0.258
777.09	0.262
777.27	0.264
777.45	0.269
777.63	0.270
777.81	0.270
777.99	0.269
778.17	0.271
778.35	0.270
778.53	0.274
778.71	0.275
778.89	0.276
779.07	0.274
779.24	0.275
779.42	0.270
779.60	0.270
779.78	0.266
779.96	0.267
780.14	0.266
780.32	0.264
780.50	0.261
780.68	0.262
780.86	0.263
781.04	0.263
781.22	0.258
781.40	0.260
781.58	0.260
781.75	0.264
781.93	0.265
782.11	0.266
782.29	0.266
782.47	0.269
782.65	0.271
782.83	0.271
783.01	0.273
783.19	0.275
783.37	0.276
783.55	0.276
783.72	0.276
783.90	0.276
784.08	0.276
784.26	0.280
784.44	0.278
784.62	0.280
784.80	0.281
784.98	0.282
785.16	0.284
785.33	0.286
785.51	0.289
785.69	0.292
785.87	0.297
786.05	0.298
786.23	0.293
786.41	0.298
786.59	0.297
786.77	0.299
786.94	0.297
787.12	0.296
787.30	0.296
787.48	0.295
787.66	0.296
787.84	0.294
788.02	0.296
788.19	0.300
788.37	0.298
788.55	0.298
788.73	0.298
788.91	0.302
789.09	0.303
789.27	0.308
789.44	0.310
789.62	0.309
789.80	0.309
789.98	0.309
790.16	0.310
790.34	0.313
790.51	0.316
790.69	0.317
790.87	0.320
791.05	0.325
791.23	0.322
791.41	0.322
791.58	0.319
791.76	0.325
791.94	0.323
792.12	0.325
792.30	0.321
792.48	0.322
792.65	0.320
792.83	0.318
793.01	0.315
793.19	0.320
793.37	0.319
793.54	0.323
793.72	0.319
793.90	0.321
794.08	0.321
794.26	0.325
794.43	0.326
794.61	0.332
794.79	0.331
794.97	0.335
795.15	0.334
795.32	0.335
795.50	0.336
795.68	0.341
795.86	0.340
796.04	0.343
796.21	0.343
796.39	0.343
796.57	0.339
796.75	0.343
796.92	0.338
797.10	0.337
797.28	0.340
797.46	0.341
797.64	0.337
797.81	0.340
797.99	0.337
798.17	0.338
798.35	0.337
798.52	0.338
798.70	0.337
798.88	0.340
799.06	0.340
799.23	0.338
799.41	0.336
799.59	0.340
799.77	0.340
799.94	0.341
800.12	0.341
800.30	0.339
800.48	0.339
800.65	0.344
800.83	0.345
801.01	0.348
801.19	0.348
801.36	0.351
801.54	0.351
801.72	0.350
801.90	0.350
802.07	0.351
802.25	0.353
802.43	0.360
802.60	0.357
802.78	0.357
802.96	0.359
803.14	0.363
803.31	0.362
803.49	0.364
803.67	0.367
803.84	0.367
804.02	0.369
804.20	0.371
804.38	0.365
804.55	0.367
804.73	0.368
804.91	0.367
805.08	0.364
805.26	0.367
805.44	0.362
805.61	0.362
805.79	0.364
805.97	0.364
806.15	0.363
806.32	0.367
806.50	0.367
806.68	0.368
806.85	0.363
807.03	0.365
807.21	0.359
807.38	0.363
807.56	0.365
807.74	0.361
807.91	0.362
808.09	0.362
808.27	0.357
808.44	0.356
808.62	0.354
808.80	0.360
808.97	0.358
809.15	0.362
809.33	0.358
809.50	0.357
809.68	0.359
809.86	0.359
810.03	0.355
810.21	0.359
810.39	0.357
810.56	0.357
810.74	0.353
810.91	0.352
811.09	0.353
811.27	0.355
811.44	0.355
811.62	0.358
811.80	0.357
811.97	0.362
812.15	0.362
812.33	0.365
812.50	0.368
812.68	0.369
812.85	0.370
813.03	0.371
813.21	0.372
813.38	0.373
813.56	0.369
813.74	0.367
813.91	0.362
814.09	0.358
814.26	0.357
814.44	0.354
814.62	0.352
814.79	0.352
814.97	0.350
815.14	0.351
815.32	0.337
815.50	0.336
815.67	0.337
815.85	0.341
816.02	0.339
816.20	0.339
816.38	0.340
816.55	0.339
816.73	0.336
816.90	0.335
817.08	0.330
817.26	0.340
817.43	0.343
817.61	0.340
817.78	0.336
817.96	0.342
818.13	0.341
818.31	0.339
818.49	0.339
818.66	0.343
818.84	0.342
819.01	0.346
819.19	0.346
819.36	0.347
819.54	0.347
819.71	0.348
819.89	0.342
820.07	0.342
820.24	0.336
820.42	0.340
820.59	0.335
820.77	0.334
820.94	0.329
821.12	0.326
821.29	0.321
821.47	0.326
821.64	0.326
821.82	0.326
822.00	0.325
822.17	0.331
822.35	0.327
822.52	0.328
822.70	0.330
822.87	0.332
823.05	0.333
823.22	0.333
823.40	0.330
823.57	0.326
823.75	0.329
823.92	0.330
824.10	0.320
824.27	0.317
824.45	0.318
824.62	0.311
824.80	0.305
824.97	0.305
825.15	0.299
825.32	0.296
825.50	0.294
825.67	0.286
825.85	0.280
826.02	0.283
826.20	0.278
826.37	0.269
826.55	0.275
826.72	0.272
826.90	0.265
827.07	0.262
827.25	0.257
827.42	0.254
827.60	0.250
827.77	0.250
827.95	0.249
828.12	0.252
828.30	0.253
828.47	0.243
828.65	0.241
828.82	0.246
829.00	0.246
829.17	0.248
829.34	0.242
829.52	0.242
829.69	0.232
829.87	0.231
830.04	0.219
830.22	0.211
830.39	0.207
830.57	0.208
830.74	0.195
830.92	0.188
831.09	0.170
831.26	0.176
831.44	0.168
831.61	0.174
831.79	0.162
831.96	0.161
832.14	0.172
832.31	0.167
832.49	0.162
832.66	0.169
832.83	0.180
833.01	0.197
833.18	0.204
833.36	0.201
833.53	0.189
833.70	0.186
833.88	0.192
834.05	0.172
834.23	0.186
834.40	0.183
834.58	0.169
834.75	0.158
834.92	0.145
835.10	0.136
835.27	0.143
835.45	0.152
835.62	0.160
835.79	0.158
835.97	0.164
836.14	0.166
836.32	0.170
836.49	0.194
836.66	0.186
836.84	0.185
837.01	0.177
837.18	0.176
837.36	0.186
837.53	0.184
837.71	0.196
837.88	0.204
838.05	0.179
838.23	0.181
838.40	0.174
838.58	0.183
838.75	0.183
838.92	0.199
839.10	0.200
839.27	0.186
839.44	0.189
839.62	0.171
839.79	0.148
839.96	0.163
840.14	0.149
840.31	0.151
840.48	0.162
840.66	0.173
840.83	0.152
841.01	0.157
841.18	0.178
841.35	0.155
841.53	0.158
841.70	0.162
841.87	0.158
842.05	0.171
842.22	0.154
842.39	0.135
842.57	0.147
842.74	0.149
842.91	0.136
843.09	0.114
843.26	0.118
843.43	0.130
843.60	0.134
843.78	0.128
843.95	0.122
844.12	0.141
844.30	0.143
844.47	0.135
844.64	0.137
844.82	0.143
844.99	0.135
845.16	0.135
845.34	0.140
845.51	0.141
845.68	0.142
845.85	0.139
846.03	0.121
846.20	0.144
846.37	0.150
846.55	0.150
846.72	0.143
846.89	0.160
847.06	0.157
847.24	0.158
847.41	0.152
847.58	0.158
847.76	0.153
847.93	0.136
848.10	0.129
848.27	0.127
848.45	0.159
848.62	0.157
848.79	0.171
848.97	0.206
849.14	0.167
849.31	0.186
849.48	0.219
849.66	0.263
849.83	0.271
850.00	0.239
850.17	0.199
850.35	0.158
850.52	0.176
850.69	0.171
850.86	0.145
851.04	0.153
851.21	0.170
851.38	0.148
851.55	0.150
851.72	0.151
851.90	0.152
852.07	0.158
852.24	0.188
852.41	0.157
852.59	0.140
852.76	0.141
852.93	0.138
853.10	0.100
853.28	0.121
853.45	0.092
853.62	0.100
853.79	0.102
853.96	0.116
854.14	0.106
854.31	0.137
854.48	0.148
854.65	0.146
854.82	0.163
855.00	0.201
855.17	0.168
855.34	0.177
855.51	0.177
855.68	0.196
855.86	0.171
856.03	0.174
856.20	0.161
856.37	0.151
856.54	0.170
856.72	0.143
856.89	0.157
857.06	0.172
857.23	0.168
857.40	0.157
857.57	0.187
857.75	0.213
857.92	0.191
858.09	0.213
858.26	0.237
858.43	0.212
858.60	0.256
858.78	0.268
858.95	0.228
859.12	0.271
859.29	0.350
859.46	0.271
859.63	0.312
859.81	0.442
859.98	0.418
860.15	0.397
860.32	0.443
860.49	0.443
860.66	0.365
860.83	0.457
861.01	0.523
861.18	0.465
861.35	0.529
861.52	0.485
861.69	0.389
861.86	0.401
862.03	0.363
862.21	0.362
862.38	0.336
862.55	0.430
862.72	0.420
862.89	0.442
863.06	0.436
863.23	0.524
863.40	0.598
863.58	0.677
863.75	0.694
863.92	0.680
864.09	0.748
864.26	1.222
864.43	0.718
864.60	0.661
864.77	0.441
864.94	0.372
865.11	0.269
865.29	0.232
865.46	0.222
865.63	0.280
865.80	0.277
865.97	0.323
866.14	0.295
866.31	0.335
866.48	0.333
866.65	0.363
866.82	0.380
866.99	0.561
867.16	0.638
867.34	0.626
867.51	0.451
867.68	0.591
867.85	0.422
868.02	0.430
868.19	0.388
868.36	0.512
868.53	0.628
868.70	0.773
868.87	0.483
869.04	0.388
869.21	0.341
869.38	0.407
869.55	0.348
869.72	0.368
869.89	0.363
870.06	0.414
870.24	0.334
870.41	0.361
870.58	0.356
870.75	0.459
870.92	0.477
871.09	0.484
871.26	0.492
871.43	0.440
871.60	0.464
871.77	0.487
871.94	0.472
872.11	0.514
872.28	0.503
872.45	0.502
872.62	0.484
872.79	0.461
872.96	0.525
873.13	0.452
873.30	0.476
873.47	0.620
873.64	0.581
873.81	0.553
873.98	0.424
874.15	0.427
874.32	0.424
874.49	0.350
874.66	0.433
874.83	0.550
875.00	0.544
875.17	0.673
875.34	0.642
875.51	0.571
875.68	0.530
875.85	0.813
876.02	0.732
876.19	0.912
876.36	0.886
876.53	1.258
876.70	1.169
876.87	-0.000
877.04	-0.000
877.21	-0.000
877.38	-0.000
877.55	-0.000
877.72	-0.000
877.89	-0.000
878.06	-0.000
878.23	-0.000
878.39	-0.000
878.56	-0.000
878.73	1.058
878.90	0.683
879.07	0.516
879.24	0.803
879.41	0.819
879.58	0.737
879.75	0.689
879.92	0.637
880.09	0.554
880.26	0.398
880.43	0.477
880.60	0.421
880.77	0.613
880.94	0.980
881.11	0.924
881.27	-0.000
881.44	-0.000
881.61	-0.000
881.78	-0.000
881.95	-0.000
882.12	-0.000
882.29	-0.000
882.46	-0.000
882.63	-0.000
882.80	-0.000
882.97	-0.000
883.14	-0.000
883.30	-0.000
883.47	-0.000
883.64	-0.000
883.81	-0.000
883.98	-0.000
884.15	-0.000
884.32	-0.000
884.49	-0.000
884.66	-0.000
884.82	-0.000
884.99	-0.000
885.16	-0.000
885.33	-0.000
885.50	-0.000
885.67	-0.000
885.84	-0.000
886.01	-0.000
886.17	-0.000
886.34	-0.000
886.51	-0.000
886.68	-0.000
886.85	-0.000
887.02	-0.000
887.19	-0.000
887.36	-0.000
887.52	-0.000
887.69	-0.000
887.86	-0.000
888.03	-0.000
888.20	-0.000
888.37	-0.000
888.54	-0.000
888.70	-0.000
888.87	-0.000
889.04	-0.000
889.21	-0.000
889.38	-0.000
889.55	-0.000
889.71	-0.000
889.88	0.166
890.05	-0.000
890.22	0.340
890.39	-0.000
>>>>>End Processed Spectral Data<<<<<
