SpectraSuite Data File
++++++++++++++++++++++++++++++++++++
Date: Fri Jun 19 12:32:00 CEST 2015
User: introlabs
Dark Spectrum Present: Yes
Reference Spectrum Present: Yes
Number of Sampled Component Spectra: 1
Spectrometers: USB4H08886
Integration Time (usec): 745692 (USB4H08886)
Spectra Averaged: 5 (USB4H08886)
Boxcar Smoothing: 5 (USB4H08886)
Correct for Electrical Dark: Yes (USB4H08886)
Strobe/Lamp Enabled: No (USB4H08886)
Correct for Detector Non-linearity: Yes (USB4H08886)
Correct for Stray Light: Yes (USB4H08886)
Number of Pixels in Processed Spectrum: 3648
>>>>>Begin Processed Spectral Data<<<<<
178.14	-0.000
178.36	-0.000
178.57	-0.000
178.79	-0.000
179.01	-0.000
179.22	-0.000
179.44	-0.000
179.65	-0.000
179.87	-0.000
180.08	-0.000
180.30	-0.000
180.52	-0.000
180.73	-0.000
180.95	-0.000
181.16	-0.000
181.38	-0.000
181.59	-0.000
181.81	-0.000
182.03	-0.000
182.24	-0.000
182.46	-0.000
182.67	-0.000
182.89	-0.000
183.10	-0.000
183.32	-0.000
183.54	-0.000
183.75	-0.000
183.97	-0.000
184.18	-0.000
184.40	-0.000
184.61	-0.000
184.83	-0.000
185.04	-0.000
185.26	-0.000
185.48	-0.000
185.69	-0.000
185.91	-0.000
186.12	-0.000
186.34	-0.000
186.55	-0.000
186.77	-0.000
186.98	-0.000
187.20	-0.000
187.42	-0.000
187.63	-0.000
187.85	-0.000
188.06	-0.000
188.28	-0.000
188.49	-0.000
188.71	-0.000
188.92	-0.000
189.14	-0.000
189.36	-0.000
189.57	-0.000
189.79	-0.000
190.00	-0.000
190.22	-0.000
190.43	-0.000
190.65	-0.000
190.86	-0.000
191.08	-0.000
191.29	-0.000
191.51	-0.000
191.72	-0.000
191.94	-0.000
192.16	-0.000
192.37	-0.000
192.59	-0.000
192.80	-0.000
193.02	-0.000
193.23	-0.000
193.45	-0.000
193.66	-0.000
193.88	-0.000
194.09	-0.000
194.31	-0.000
194.52	-0.000
194.74	-0.000
194.95	-0.000
195.17	-0.000
195.38	-0.000
195.60	-0.000
195.81	-0.000
196.03	-0.000
196.25	-0.000
196.46	-0.000
196.68	-0.000
196.89	-0.000
197.11	-0.000
197.32	-0.000
197.54	-0.000
197.75	-0.000
197.97	-0.000
198.18	-0.000
198.40	-0.000
198.61	-0.000
198.83	-0.000
199.04	-0.000
199.26	-0.000
199.47	-0.000
199.69	-0.000
199.90	-0.000
200.12	-0.000
200.33	-0.000
200.55	-0.000
200.76	-0.000
200.98	-0.000
201.19	-0.000
201.41	-0.000
201.62	-0.000
201.84	-0.000
202.05	-0.000
202.27	-0.000
202.48	-0.000
202.70	-0.000
202.91	-0.000
203.13	-0.000
203.34	-0.000
203.56	-0.000
203.77	-0.000
203.99	-0.000
204.20	-0.000
204.42	-0.000
204.63	-0.000
204.85	-0.000
205.06	-0.000
205.28	-0.000
205.49	-0.000
205.71	-0.000
205.92	-0.000
206.14	-0.000
206.35	-0.000
206.56	-0.000
206.78	-0.000
206.99	-0.000
207.21	-0.000
207.42	-0.000
207.64	-0.000
207.85	-0.000
208.07	-0.000
208.28	-0.000
208.50	-0.000
208.71	-0.000
208.93	-0.000
209.14	-0.000
209.36	-0.000
209.57	-0.000
209.79	-0.000
210.00	-0.000
210.22	-0.000
210.43	-0.000
210.64	-0.000
210.86	-0.000
211.07	-0.000
211.29	-0.000
211.50	-0.000
211.72	-0.000
211.93	-0.000
212.15	-0.000
212.36	-0.000
212.58	-0.000
212.79	-0.000
213.01	-0.000
213.22	-0.000
213.43	-0.000
213.65	-0.000
213.86	-0.000
214.08	-0.000
214.29	-0.000
214.51	-0.000
214.72	-0.000
214.94	-0.000
215.15	-0.000
215.36	-0.000
215.58	-0.000
215.79	-0.000
216.01	-0.000
216.22	-0.000
216.44	-0.000
216.65	-0.000
216.87	-0.000
217.08	-0.000
217.29	-0.000
217.51	-0.000
217.72	-0.000
217.94	-0.000
218.15	-0.000
218.37	-0.000
218.58	-0.000
218.80	-0.000
219.01	-0.000
219.22	-0.000
219.44	-0.000
219.65	-0.000
219.87	-0.000
220.08	-0.000
220.30	-0.000
220.51	-0.000
220.72	-0.000
220.94	-0.000
221.15	-0.000
221.37	-0.000
221.58	-0.000
221.79	-0.000
222.01	-0.000
222.22	-0.000
222.44	-0.000
222.65	-0.000
222.87	-0.000
223.08	-0.000
223.29	-0.000
223.51	-0.000
223.72	-0.000
223.94	-0.000
224.15	-0.000
224.36	-0.000
224.58	-0.000
224.79	-0.000
225.01	-0.000
225.22	-0.000
225.44	-0.000
225.65	-0.000
225.86	-0.000
226.08	-0.000
226.29	-0.000
226.51	-0.000
226.72	-0.000
226.93	-0.000
227.15	-0.000
227.36	-0.000
227.58	-0.000
227.79	-0.000
228.00	-0.000
228.22	-0.000
228.43	-0.000
228.65	-0.000
228.86	-0.000
229.07	-0.000
229.29	-0.000
229.50	-0.000
229.72	-0.000
229.93	-0.000
230.14	-0.000
230.36	-0.000
230.57	-0.000
230.78	-0.000
231.00	-0.000
231.21	-0.000
231.43	-0.000
231.64	-0.000
231.85	-0.000
232.07	-0.000
232.28	-0.000
232.50	-0.000
232.71	-0.000
232.92	-0.000
233.14	-0.000
233.35	-0.000
233.56	-0.000
233.78	-0.000
233.99	-0.000
234.21	-0.000
234.42	-0.000
234.63	-0.000
234.85	-0.000
235.06	-0.000
235.27	-0.000
235.49	-0.000
235.70	-0.000
235.91	-0.000
236.13	-0.000
236.34	-0.000
236.56	-0.000
236.77	-0.000
236.98	-0.000
237.20	-0.000
237.41	-0.000
237.62	-0.000
237.84	-0.000
238.05	-0.000
238.26	-0.000
238.48	-0.000
238.69	-0.000
238.91	-0.000
239.12	-0.000
239.33	-0.000
239.55	-0.000
239.76	-0.000
239.97	-0.000
240.19	-0.000
240.40	-0.000
240.61	-0.000
240.83	-0.000
241.04	-0.000
241.25	-0.000
241.47	-0.000
241.68	-0.000
241.89	-0.000
242.11	-0.000
242.32	-0.000
242.53	-0.000
242.75	-0.000
242.96	-0.000
243.17	-0.000
243.39	-0.000
243.60	-0.000
243.81	-0.000
244.03	-0.000
244.24	-0.000
244.45	-0.000
244.67	-0.000
244.88	-0.000
245.09	-0.000
245.31	-0.000
245.52	-0.000
245.73	-0.000
245.95	-0.000
246.16	-0.000
246.37	-0.000
246.59	-0.000
246.80	-0.000
247.01	-0.000
247.23	-0.000
247.44	-0.000
247.65	-0.000
247.87	-0.000
248.08	-0.000
248.29	-0.000
248.51	-0.000
248.72	-0.000
248.93	-0.000
249.15	-0.000
249.36	-0.000
249.57	-0.000
249.78	-0.000
250.00	-0.000
250.21	-0.000
250.42	-0.000
250.64	-0.000
250.85	-0.000
251.06	-0.000
251.28	-0.000
251.49	-0.000
251.70	-0.000
251.92	-0.000
252.13	-0.000
252.34	-0.000
252.55	-0.000
252.77	-0.000
252.98	-0.000
253.19	-0.000
253.41	-0.000
253.62	-0.000
253.83	-0.000
254.05	-0.000
254.26	-0.000
254.47	-0.000
254.68	-0.000
254.90	-0.000
255.11	-0.000
255.32	-0.000
255.54	-0.000
255.75	-0.000
255.96	-0.000
256.17	-0.000
256.39	-0.000
256.60	-0.000
256.81	-0.000
257.03	-0.000
257.24	-0.000
257.45	-0.000
257.66	-0.000
257.88	-0.000
258.09	-0.000
258.30	-0.000
258.51	-0.000
258.73	-0.000
258.94	-0.000
259.15	-0.000
259.37	-0.000
259.58	-0.000
259.79	-0.000
260.00	-0.000
260.22	-0.000
260.43	-0.000
260.64	-0.000
260.85	-0.000
261.07	-0.000
261.28	-0.000
261.49	-0.000
261.71	-0.000
261.92	-0.000
262.13	-0.000
262.34	-0.000
262.56	-0.000
262.77	-0.000
262.98	-0.000
263.19	-0.000
263.41	-0.000
263.62	-0.000
263.83	-0.000
264.04	-0.000
264.26	-0.000
264.47	-0.000
264.68	-0.000
264.89	-0.000
265.11	-0.000
265.32	-0.000
265.53	-0.000
265.74	-0.000
265.96	-0.000
266.17	-0.000
266.38	-0.000
266.59	-0.000
266.81	-0.000
267.02	-0.000
267.23	-0.000
267.44	-0.000
267.65	-0.000
267.87	-0.000
268.08	-0.000
268.29	-0.000
268.50	-0.000
268.72	-0.000
268.93	-0.000
269.14	-0.000
269.35	-0.000
269.57	-0.000
269.78	-0.000
269.99	-0.000
270.20	-0.000
270.41	-0.000
270.63	-0.000
270.84	-0.000
271.05	-0.000
271.26	-0.000
271.48	-0.000
271.69	-0.000
271.90	-0.000
272.11	-0.000
272.32	-0.000
272.54	-0.000
272.75	-0.000
272.96	-0.000
273.17	-0.000
273.39	-0.000
273.60	-0.000
273.81	-0.000
274.02	-0.000
274.23	-0.000
274.45	-0.000
274.66	-0.000
274.87	-0.000
275.08	-0.000
275.29	-0.000
275.51	-0.000
275.72	-0.000
275.93	-0.000
276.14	-0.000
276.35	-0.000
276.57	-0.000
276.78	-0.000
276.99	-0.000
277.20	-0.000
277.41	-0.000
277.63	-0.000
277.84	-0.000
278.05	-0.000
278.26	-0.000
278.47	-0.000
278.69	-0.000
278.90	-0.000
279.11	-0.000
279.32	-0.000
279.53	-0.000
279.74	-0.000
279.96	-0.000
280.17	-0.000
280.38	-0.000
280.59	-0.000
280.80	-0.000
281.02	-0.000
281.23	-0.000
281.44	-0.000
281.65	-0.000
281.86	-0.000
282.07	-0.000
282.29	-0.000
282.50	-0.000
282.71	-0.000
282.92	-0.000
283.13	-0.000
283.35	-0.000
283.56	-0.000
283.77	-0.000
283.98	-0.000
284.19	-0.000
284.40	-0.000
284.62	-0.000
284.83	-0.000
285.04	-0.000
285.25	-0.000
285.46	-0.000
285.67	-0.000
285.88	-0.000
286.10	-0.000
286.31	-0.000
286.52	-0.000
286.73	-0.000
286.94	-0.000
287.15	-0.000
287.37	-0.000
287.58	-0.000
287.79	-0.000
288.00	-0.000
288.21	-0.000
288.42	-0.000
288.63	-0.000
288.85	-0.000
289.06	-0.000
289.27	-0.000
289.48	-0.000
289.69	-0.000
289.90	-0.000
290.11	-0.000
290.33	-0.000
290.54	-0.000
290.75	-0.000
290.96	-0.000
291.17	-0.000
291.38	-0.000
291.59	-0.000
291.81	-0.000
292.02	-0.000
292.23	-0.000
292.44	-0.000
292.65	2.745
292.86	-0.000
293.07	-0.000
293.28	2.210
293.50	2.507
293.71	-0.000
293.92	2.757
294.13	-0.000
294.34	-0.000
294.55	-0.000
294.76	-0.000
294.97	2.425
295.19	3.037
295.40	-0.000
295.61	-0.000
295.82	2.177
296.03	1.969
296.24	2.094
296.45	1.726
296.66	1.515
296.87	1.524
297.09	1.572
297.30	1.666
297.51	1.467
297.72	1.439
297.93	1.502
298.14	1.482
298.35	1.441
298.56	1.423
298.77	1.500
298.99	1.490
299.20	1.459
299.41	1.442
299.62	1.430
299.83	1.426
300.04	1.379
300.25	1.370
300.46	1.405
300.67	1.382
300.88	1.340
301.10	1.339
301.31	1.393
301.52	1.357
301.73	1.316
301.94	1.316
302.15	1.330
302.36	1.294
302.57	1.243
302.78	1.247
302.99	1.282
303.20	1.294
303.41	1.228
303.63	1.213
303.84	1.222
304.05	1.219
304.26	1.172
304.47	1.179
304.68	1.190
304.89	1.182
305.10	1.146
305.31	1.139
305.52	1.172
305.73	1.170
305.94	1.135
306.15	1.129
306.37	1.149
306.58	1.154
306.79	1.124
307.00	1.138
307.21	1.170
307.42	1.167
307.63	1.132
307.84	1.107
308.05	1.136
308.26	1.136
308.47	1.113
308.68	1.108
308.89	1.113
309.10	1.111
309.31	1.076
309.52	1.073
309.73	1.087
309.95	1.083
310.16	1.059
310.37	1.050
310.58	1.071
310.79	1.069
311.00	1.063
311.21	1.064
311.42	1.070
311.63	1.067
311.84	1.046
312.05	1.045
312.26	1.067
312.47	1.078
312.68	1.055
312.89	1.038
313.10	1.047
313.31	1.025
313.52	1.022
313.73	1.025
313.94	1.030
314.15	1.017
314.36	0.997
314.57	0.990
314.78	0.980
314.99	0.977
315.21	0.965
315.42	0.969
315.63	0.982
315.84	0.964
316.05	0.948
316.26	0.953
316.47	0.970
316.68	0.966
316.89	0.949
317.10	0.965
317.31	0.970
317.52	0.973
317.73	0.954
317.94	0.953
318.15	0.991
318.36	0.989
318.57	0.972
318.78	0.962
318.99	0.992
319.20	0.988
319.41	0.958
319.62	0.959
319.83	0.968
320.04	0.963
320.25	0.951
320.46	0.922
320.67	0.927
320.88	0.924
321.09	0.912
321.30	0.901
321.51	0.914
321.72	0.914
321.93	0.898
322.14	0.893
322.35	0.919
322.56	0.920
322.77	0.909
322.98	0.919
323.19	0.928
323.40	0.932
323.61	0.913
323.82	0.909
324.03	0.916
324.24	0.915
324.45	0.902
324.66	0.885
324.87	0.883
325.08	0.882
325.29	0.865
325.50	0.863
325.71	0.870
325.92	0.878
326.13	0.865
326.34	0.866
326.55	0.875
326.76	0.874
326.97	0.864
327.18	0.859
327.39	0.883
327.60	0.882
327.80	0.876
328.01	0.874
328.22	0.875
328.43	0.877
328.64	0.864
328.85	0.867
329.06	0.870
329.27	0.869
329.48	0.865
329.69	0.847
329.90	0.858
330.11	0.852
330.32	0.845
330.53	0.839
330.74	0.842
330.95	0.841
331.16	0.828
331.37	0.835
331.58	0.836
331.79	0.836
332.00	0.829
332.21	0.824
332.42	0.829
332.63	0.821
332.83	0.816
333.04	0.816
333.25	0.829
333.46	0.827
333.67	0.814
333.88	0.816
334.09	0.825
334.30	0.821
334.51	0.811
334.72	0.807
334.93	0.812
335.14	0.811
335.35	0.805
335.56	0.800
335.77	0.810
335.98	0.808
336.18	0.802
336.39	0.797
336.60	0.801
336.81	0.800
337.02	0.798
337.23	0.802
337.44	0.805
337.65	0.805
337.86	0.796
338.07	0.792
338.28	0.798
338.49	0.795
338.70	0.787
338.91	0.795
339.11	0.802
339.32	0.799
339.53	0.787
339.74	0.784
339.95	0.783
340.16	0.781
340.37	0.773
340.58	0.771
340.79	0.778
341.00	0.777
341.21	0.766
341.41	0.767
341.62	0.769
341.83	0.770
342.04	0.765
342.25	0.774
342.46	0.780
342.67	0.778
342.88	0.771
343.09	0.769
343.30	0.777
343.50	0.780
343.71	0.770
343.92	0.770
344.13	0.776
344.34	0.776
344.55	0.762
344.76	0.761
344.97	0.767
345.18	0.767
345.38	0.763
345.59	0.759
345.80	0.759
346.01	0.758
346.22	0.752
346.43	0.747
346.64	0.756
346.85	0.755
347.06	0.747
347.26	0.748
347.47	0.752
347.68	0.749
347.89	0.744
348.10	0.740
348.31	0.748
348.52	0.747
348.73	0.744
348.93	0.740
349.14	0.742
349.35	0.743
349.56	0.736
349.77	0.732
349.98	0.739
350.19	0.736
350.39	0.731
350.60	0.726
350.81	0.742
351.02	0.742
351.23	0.737
351.44	0.740
351.65	0.743
351.86	0.741
352.06	0.739
352.27	0.738
352.48	0.741
352.69	0.741
352.90	0.736
353.11	0.723
353.31	0.730
353.52	0.726
353.73	0.718
353.94	0.719
354.15	0.726
354.36	0.726
354.57	0.718
354.77	0.720
354.98	0.720
355.19	0.719
355.40	0.719
355.61	0.725
355.82	0.730
356.02	0.730
356.23	0.724
356.44	0.725
356.65	0.730
356.86	0.730
357.07	0.723
357.27	0.727
357.48	0.731
357.69	0.727
357.90	0.712
358.11	0.709
358.32	0.714
358.52	0.716
358.73	0.707
358.94	0.709
359.15	0.714
359.36	0.715
359.56	0.710
359.77	0.707
359.98	0.715
360.19	0.715
360.40	0.712
360.61	0.711
360.81	0.711
361.02	0.711
361.23	0.702
361.44	0.701
361.65	0.703
361.85	0.702
362.06	0.699
362.27	0.700
362.48	0.702
362.69	0.704
362.89	0.698
363.10	0.699
363.31	0.706
363.52	0.708
363.73	0.703
363.93	0.703
364.14	0.705
364.35	0.707
364.56	0.698
364.77	0.700
364.97	0.702
365.18	0.703
365.39	0.697
365.60	0.693
365.81	0.695
366.01	0.695
366.22	0.692
366.43	0.692
366.64	0.695
366.84	0.700
367.05	0.697
367.26	0.697
367.47	0.700
367.68	0.700
367.88	0.697
368.09	0.696
368.30	0.699
368.51	0.698
368.71	0.696
368.92	0.700
369.13	0.699
369.34	0.698
369.55	0.697
369.75	0.698
369.96	0.705
370.17	0.705
370.38	0.700
370.58	0.701
370.79	0.707
371.00	0.707
371.21	0.697
371.41	0.702
371.62	0.706
371.83	0.701
372.04	0.698
372.24	0.691
372.45	0.693
372.66	0.693
372.87	0.689
373.07	0.686
373.28	0.687
373.49	0.690
373.70	0.681
373.90	0.681
374.11	0.690
374.32	0.690
374.53	0.688
374.73	0.688
374.94	0.691
375.15	0.691
375.36	0.689
375.56	0.696
375.77	0.697
375.98	0.698
376.19	0.694
376.39	0.688
376.60	0.692
376.81	0.693
377.02	0.690
377.22	0.689
377.43	0.689
377.64	0.688
377.84	0.680
378.05	0.684
378.26	0.690
378.47	0.690
378.67	0.686
378.88	0.684
379.09	0.685
379.30	0.686
379.50	0.683
379.71	0.686
379.92	0.690
380.12	0.690
380.33	0.680
380.54	0.677
380.75	0.684
380.95	0.684
381.16	0.681
381.37	0.681
381.57	0.683
381.78	0.684
381.99	0.683
382.20	0.682
382.40	0.684
382.61	0.685
382.82	0.681
383.02	0.675
383.23	0.678
383.44	0.679
383.64	0.675
383.85	0.678
384.06	0.681
384.27	0.679
384.47	0.677
384.68	0.678
384.89	0.684
385.09	0.683
385.30	0.681
385.51	0.681
385.71	0.684
385.92	0.685
386.13	0.683
386.33	0.684
386.54	0.685
386.75	0.684
386.95	0.679
387.16	0.674
387.37	0.678
387.58	0.677
387.78	0.675
387.99	0.672
388.20	0.675
388.40	0.672
388.61	0.668
388.82	0.670
389.02	0.672
389.23	0.673
389.44	0.671
389.64	0.670
389.85	0.682
390.06	0.681
390.26	0.681
390.47	0.680
390.68	0.683
390.88	0.681
391.09	0.677
391.30	0.676
391.50	0.676
391.71	0.676
391.92	0.674
392.12	0.666
392.33	0.667
392.53	0.667
392.74	0.666
392.95	0.665
393.15	0.668
393.36	0.670
393.57	0.668
393.77	0.670
393.98	0.672
394.19	0.672
394.39	0.671
394.60	0.672
394.81	0.674
395.01	0.672
395.22	0.669
395.43	0.670
395.63	0.674
395.84	0.675
396.04	0.670
396.25	0.672
396.46	0.674
396.66	0.673
396.87	0.669
397.08	0.666
397.28	0.669
397.49	0.670
397.69	0.665
397.90	0.661
398.11	0.663
398.31	0.665
398.52	0.660
398.73	0.660
398.93	0.659
399.14	0.658
399.34	0.657
399.55	0.657
399.76	0.658
399.96	0.659
400.17	0.656
400.37	0.654
400.58	0.660
400.79	0.662
400.99	0.660
401.20	0.666
401.41	0.669
401.61	0.670
401.82	0.674
402.02	0.674
402.23	0.674
402.44	0.674
402.64	0.674
402.85	0.668
403.05	0.668
403.26	0.667
403.47	0.660
403.67	0.659
403.88	0.660
404.08	0.654
404.29	0.652
404.50	0.652
404.70	0.653
404.91	0.652
405.11	0.648
405.32	0.648
405.52	0.649
405.73	0.648
405.94	0.646
406.14	0.649
406.35	0.651
406.55	0.650
406.76	0.647
406.97	0.648
407.17	0.651
407.38	0.651
407.58	0.649
407.79	0.652
407.99	0.654
408.20	0.655
408.41	0.650
408.61	0.648
408.82	0.650
409.02	0.649
409.23	0.646
409.43	0.645
409.64	0.647
409.84	0.647
410.05	0.643
410.26	0.642
410.46	0.642
410.67	0.641
410.87	0.642
411.08	0.644
411.28	0.646
411.49	0.648
411.69	0.645
411.90	0.646
412.11	0.648
412.31	0.649
412.52	0.647
412.72	0.648
412.93	0.649
413.13	0.649
413.34	0.644
413.54	0.646
413.75	0.647
413.95	0.646
414.16	0.642
414.37	0.645
414.57	0.645
414.78	0.648
414.98	0.645
415.19	0.646
415.39	0.644
415.60	0.646
415.80	0.645
416.01	0.644
416.21	0.647
416.42	0.647
416.62	0.642
416.83	0.643
417.03	0.643
417.24	0.644
417.44	0.641
417.65	0.641
417.86	0.641
418.06	0.640
418.27	0.638
418.47	0.639
418.68	0.639
418.88	0.639
419.09	0.637
419.29	0.637
419.50	0.638
419.70	0.638
419.91	0.637
420.11	0.634
420.32	0.637
420.52	0.637
420.73	0.635
420.93	0.637
421.14	0.639
421.34	0.638
421.55	0.634
421.75	0.635
421.96	0.636
422.16	0.636
422.37	0.635
422.57	0.633
422.78	0.635
422.98	0.633
423.19	0.630
423.39	0.629
423.60	0.633
423.80	0.634
424.01	0.633
424.21	0.635
424.42	0.636
424.62	0.636
424.83	0.635
425.03	0.635
425.23	0.637
425.44	0.638
425.64	0.639
425.85	0.638
426.05	0.639
426.26	0.639
426.46	0.635
426.67	0.635
426.87	0.641
427.08	0.641
427.28	0.639
427.49	0.639
427.69	0.640
427.90	0.639
428.10	0.636
428.31	0.636
428.51	0.638
428.71	0.637
428.92	0.638
429.12	0.635
429.33	0.636
429.53	0.640
429.74	0.644
429.94	0.644
430.15	0.644
430.35	0.644
430.56	0.641
430.76	0.640
430.96	0.642
431.17	0.639
431.37	0.637
431.58	0.635
431.78	0.632
431.99	0.626
432.19	0.628
432.40	0.629
432.60	0.631
432.80	0.633
433.01	0.631
433.21	0.631
433.42	0.634
433.62	0.634
433.83	0.634
434.03	0.636
434.23	0.640
434.44	0.639
434.64	0.636
434.85	0.641
435.05	0.642
435.26	0.642
435.46	0.641
435.66	0.641
435.87	0.642
436.07	0.642
436.28	0.637
436.48	0.634
436.69	0.634
436.89	0.634
437.09	0.628
437.30	0.627
437.50	0.628
437.71	0.639
437.91	0.638
438.11	0.639
438.32	0.644
438.52	0.644
438.73	0.643
438.93	0.642
439.13	0.643
439.34	0.647
439.54	0.644
439.75	0.644
439.95	0.635
440.15	0.639
440.36	0.637
440.56	0.635
440.77	0.637
440.97	0.637
441.17	0.636
441.38	0.637
441.58	0.635
441.79	0.635
441.99	0.633
442.19	0.633
442.40	0.631
442.60	0.631
442.81	0.628
443.01	0.629
443.21	0.631
443.42	0.630
443.62	0.628
443.82	0.627
444.03	0.629
444.23	0.629
444.44	0.629
444.64	0.628
444.84	0.630
445.05	0.630
445.25	0.627
445.45	0.627
445.66	0.630
445.86	0.629
446.06	0.630
446.27	0.629
446.47	0.633
446.68	0.632
446.88	0.630
447.08	0.630
447.29	0.632
447.49	0.633
447.69	0.632
447.90	0.631
448.10	0.635
448.30	0.633
448.51	0.634
448.71	0.631
448.91	0.634
449.12	0.633
449.32	0.634
449.52	0.633
449.73	0.637
449.93	0.637
450.14	0.638
450.34	0.637
450.54	0.640
450.75	0.637
450.95	0.637
451.15	0.637
451.36	0.639
451.56	0.637
451.76	0.635
451.97	0.632
452.17	0.634
452.37	0.632
452.58	0.628
452.78	0.628
452.98	0.631
453.19	0.630
453.39	0.630
453.59	0.629
453.79	0.630
454.00	0.631
454.20	0.629
454.40	0.630
454.61	0.632
454.81	0.634
455.01	0.631
455.22	0.632
455.42	0.635
455.62	0.633
455.83	0.633
456.03	0.636
456.23	0.638
456.44	0.639
456.64	0.637
456.84	0.637
457.04	0.638
457.25	0.637
457.45	0.634
457.65	0.632
457.86	0.633
458.06	0.632
458.26	0.626
458.47	0.626
458.67	0.627
458.87	0.628
459.07	0.626
459.28	0.628
459.48	0.631
459.68	0.631
459.89	0.630
460.09	0.629
460.29	0.631
460.49	0.633
460.70	0.631
460.90	0.632
461.10	0.633
461.31	0.632
461.51	0.628
461.71	0.629
461.91	0.631
462.12	0.631
462.32	0.629
462.52	0.629
462.72	0.632
462.93	0.633
463.13	0.630
463.33	0.632
463.53	0.633
463.74	0.632
463.94	0.628
464.14	0.629
464.35	0.631
464.55	0.632
464.75	0.630
464.95	0.627
465.16	0.629
465.36	0.628
465.56	0.627
465.76	0.626
465.97	0.628
466.17	0.629
466.37	0.626
466.57	0.628
466.78	0.628
466.98	0.629
467.18	0.627
467.38	0.626
467.59	0.628
467.79	0.629
467.99	0.628
468.19	0.629
468.39	0.633
468.60	0.633
468.80	0.630
469.00	0.632
469.20	0.633
469.41	0.633
469.61	0.632
469.81	0.633
470.01	0.633
470.22	0.633
470.42	0.631
470.62	0.628
470.82	0.630
471.02	0.630
471.23	0.627
471.43	0.627
471.63	0.630
471.83	0.630
472.04	0.628
472.24	0.627
472.44	0.632
472.64	0.632
472.84	0.630
473.05	0.629
473.25	0.632
473.45	0.632
473.65	0.629
473.85	0.630
474.06	0.632
474.26	0.631
474.46	0.632
474.66	0.630
474.86	0.631
475.07	0.632
475.27	0.630
475.47	0.627
475.67	0.629
475.87	0.631
476.08	0.628
476.28	0.628
476.48	0.630
476.68	0.629
476.88	0.626
477.09	0.627
477.29	0.629
477.49	0.629
477.69	0.628
477.89	0.628
478.09	0.627
478.30	0.629
478.50	0.626
478.70	0.625
478.90	0.625
479.10	0.628
479.31	0.629
479.51	0.627
479.71	0.628
479.91	0.628
480.11	0.627
480.31	0.627
480.52	0.627
480.72	0.627
480.92	0.626
481.12	0.626
481.32	0.624
481.52	0.622
481.72	0.621
481.93	0.625
482.13	0.626
482.33	0.625
482.53	0.622
482.73	0.623
482.93	0.624
483.14	0.623
483.34	0.622
483.54	0.623
483.74	0.622
483.94	0.622
484.14	0.618
484.34	0.618
484.55	0.619
484.75	0.619
484.95	0.617
485.15	0.617
485.35	0.618
485.55	0.617
485.75	0.614
485.96	0.615
486.16	0.617
486.36	0.617
486.56	0.615
486.76	0.615
486.96	0.615
487.16	0.615
487.36	0.613
487.57	0.613
487.77	0.614
487.97	0.615
488.17	0.613
488.37	0.612
488.57	0.613
488.77	0.613
488.97	0.612
489.18	0.611
489.38	0.614
489.58	0.615
489.78	0.614
489.98	0.613
490.18	0.613
490.38	0.614
490.58	0.613
490.78	0.613
490.98	0.615
491.19	0.616
491.39	0.615
491.59	0.613
491.79	0.617
491.99	0.618
492.19	0.616
492.39	0.619
492.59	0.619
492.79	0.621
492.99	0.621
493.20	0.622
493.40	0.622
493.60	0.623
493.80	0.621
494.00	0.619
494.20	0.619
494.40	0.619
494.60	0.617
494.80	0.621
495.00	0.621
495.20	0.619
495.40	0.618
495.61	0.620
495.81	0.619
496.01	0.623
496.21	0.624
496.41	0.623
496.61	0.624
496.81	0.623
497.01	0.618
497.21	0.617
497.41	0.618
497.61	0.618
497.81	0.616
498.01	0.616
498.21	0.614
498.41	0.612
498.61	0.612
498.82	0.614
499.02	0.616
499.22	0.616
499.42	0.615
499.62	0.616
499.82	0.617
500.02	0.618
500.22	0.617
500.42	0.619
500.62	0.620
500.82	0.620
501.02	0.618
501.22	0.618
501.42	0.618
501.62	0.621
501.82	0.620
502.02	0.620
502.22	0.620
502.42	0.622
502.62	0.619
502.82	0.619
503.02	0.620
503.22	0.620
503.42	0.618
503.63	0.618
503.83	0.616
504.03	0.615
504.23	0.614
504.43	0.614
504.63	0.615
504.83	0.615
505.03	0.614
505.23	0.615
505.43	0.617
505.63	0.618
505.83	0.617
506.03	0.619
506.23	0.622
506.43	0.622
506.63	0.620
506.83	0.620
507.03	0.622
507.23	0.622
507.43	0.619
507.63	0.620
507.83	0.621
508.03	0.621
508.23	0.620
508.43	0.618
508.63	0.620
508.83	0.621
509.03	0.622
509.23	0.621
509.43	0.623
509.63	0.623
509.83	0.621
510.03	0.624
510.23	0.625
510.43	0.626
510.63	0.626
510.83	0.626
511.03	0.628
511.23	0.625
511.43	0.624
511.63	0.625
511.83	0.629
512.03	0.628
512.22	0.624
512.42	0.624
512.62	0.625
512.82	0.625
513.02	0.624
513.22	0.623
513.42	0.626
513.62	0.628
513.82	0.626
514.02	0.625
514.22	0.627
514.42	0.628
514.62	0.627
514.82	0.628
515.02	0.631
515.22	0.634
515.42	0.633
515.62	0.635
515.82	0.634
516.02	0.635
516.22	0.635
516.42	0.636
516.62	0.638
516.82	0.639
517.01	0.636
517.21	0.635
517.41	0.639
517.61	0.640
517.81	0.635
518.01	0.634
518.21	0.635
518.41	0.633
518.61	0.632
518.81	0.633
519.01	0.634
519.21	0.634
519.41	0.633
519.61	0.627
519.81	0.630
520.00	0.631
520.20	0.631
520.40	0.634
520.60	0.636
520.80	0.635
521.00	0.635
521.20	0.637
521.40	0.642
521.60	0.643
521.80	0.641
522.00	0.642
522.20	0.645
522.39	0.644
522.59	0.641
522.79	0.643
522.99	0.645
523.19	0.643
523.39	0.640
523.59	0.638
523.79	0.641
523.99	0.644
524.19	0.642
524.38	0.641
524.58	0.643
524.78	0.644
524.98	0.641
525.18	0.643
525.38	0.644
525.58	0.645
525.78	0.642
525.98	0.641
526.18	0.641
526.37	0.640
526.57	0.641
526.77	0.641
526.97	0.642
527.17	0.642
527.37	0.638
527.57	0.640
527.77	0.642
527.96	0.643
528.16	0.641
528.36	0.642
528.56	0.645
528.76	0.643
528.96	0.642
529.16	0.643
529.36	0.647
529.55	0.647
529.75	0.644
529.95	0.644
530.15	0.646
530.35	0.649
530.55	0.646
530.75	0.646
530.94	0.648
531.14	0.648
531.34	0.646
531.54	0.644
531.74	0.648
531.94	0.650
532.13	0.647
532.33	0.649
532.53	0.648
532.73	0.648
532.93	0.645
533.13	0.647
533.33	0.647
533.52	0.647
533.72	0.650
533.92	0.648
534.12	0.647
534.32	0.647
534.52	0.645
534.71	0.646
534.91	0.650
535.11	0.651
535.31	0.649
535.51	0.651
535.71	0.653
535.90	0.650
536.10	0.651
536.30	0.653
536.50	0.654
536.70	0.655
536.89	0.652
537.09	0.651
537.29	0.653
537.49	0.654
537.69	0.652
537.89	0.652
538.08	0.652
538.28	0.650
538.48	0.650
538.68	0.652
538.88	0.654
539.07	0.655
539.27	0.652
539.47	0.652
539.67	0.653
539.87	0.654
540.06	0.652
540.26	0.653
540.46	0.656
540.66	0.653
540.86	0.650
541.05	0.650
541.25	0.652
541.45	0.652
541.65	0.649
541.84	0.651
542.04	0.652
542.24	0.653
542.44	0.651
542.64	0.652
542.83	0.655
543.03	0.655
543.23	0.652
543.43	0.653
543.62	0.655
543.82	0.656
544.02	0.654
544.22	0.654
544.42	0.658
544.61	0.659
544.81	0.655
545.01	0.654
545.21	0.657
545.40	0.658
545.60	0.655
545.80	0.659
546.00	0.660
546.19	0.659
546.39	0.658
546.59	0.656
546.79	0.657
546.98	0.658
547.18	0.656
547.38	0.657
547.58	0.660
547.77	0.660
547.97	0.656
548.17	0.657
548.37	0.658
548.56	0.658
548.76	0.657
548.96	0.659
549.16	0.663
549.35	0.662
549.55	0.660
549.75	0.661
549.95	0.665
550.14	0.665
550.34	0.662
550.54	0.667
550.73	0.672
550.93	0.672
551.13	0.668
551.33	0.666
551.52	0.668
551.72	0.668
551.92	0.665
552.12	0.664
552.31	0.665
552.51	0.666
552.71	0.660
552.90	0.660
553.10	0.662
553.30	0.662
553.50	0.661
553.69	0.662
553.89	0.664
554.09	0.664
554.28	0.661
554.48	0.663
554.68	0.665
554.87	0.666
555.07	0.662
555.27	0.662
555.47	0.664
555.66	0.665
555.86	0.663
556.06	0.665
556.25	0.667
556.45	0.675
556.65	0.672
556.84	0.676
557.04	0.680
557.24	0.681
557.43	0.680
557.63	0.682
557.83	0.685
558.02	0.685
558.22	0.688
558.42	0.689
558.61	0.682
558.81	0.682
559.01	0.678
559.21	0.678
559.40	0.679
559.60	0.679
559.80	0.675
559.99	0.677
560.19	0.680
560.39	0.673
560.58	0.671
560.78	0.671
560.97	0.675
561.17	0.674
561.37	0.671
561.56	0.672
561.76	0.674
561.96	0.674
562.15	0.670
562.35	0.672
562.55	0.675
562.74	0.674
562.94	0.672
563.14	0.670
563.33	0.671
563.53	0.672
563.73	0.668
563.92	0.671
564.12	0.674
564.31	0.677
564.51	0.674
564.71	0.675
564.90	0.679
565.10	0.681
565.30	0.683
565.49	0.684
565.69	0.686
565.89	0.686
566.08	0.682
566.28	0.683
566.47	0.685
566.67	0.683
566.87	0.680
567.06	0.680
567.26	0.687
567.46	0.682
567.65	0.681
567.85	0.682
568.04	0.685
568.24	0.685
568.44	0.682
568.63	0.680
568.83	0.682
569.02	0.680
569.22	0.675
569.42	0.671
569.61	0.674
569.81	0.673
570.00	0.670
570.20	0.672
570.40	0.674
570.59	0.673
570.79	0.670
570.98	0.669
571.18	0.670
571.38	0.671
571.57	0.667
571.77	0.665
571.96	0.669
572.16	0.667
572.35	0.661
572.55	0.662
572.75	0.661
572.94	0.661
573.14	0.659
573.33	0.659
573.53	0.661
573.73	0.660
573.92	0.658
574.12	0.656
574.31	0.659
574.51	0.660
574.70	0.656
574.90	0.658
575.09	0.661
575.29	0.661
575.49	0.658
575.68	0.658
575.88	0.660
576.07	0.662
576.27	0.660
576.46	0.659
576.66	0.658
576.86	0.657
577.05	0.654
577.25	0.652
577.44	0.654
577.64	0.654
577.83	0.652
578.03	0.652
578.22	0.652
578.42	0.651
578.61	0.650
578.81	0.651
579.00	0.652
579.20	0.653
579.40	0.651
579.59	0.650
579.79	0.652
579.98	0.651
580.18	0.651
580.37	0.651
580.57	0.654
580.76	0.658
580.96	0.656
581.15	0.656
581.35	0.658
581.54	0.658
581.74	0.656
581.93	0.657
582.13	0.659
582.32	0.657
582.52	0.655
582.71	0.655
582.91	0.651
583.10	0.652
583.30	0.650
583.49	0.650
583.69	0.655
583.88	0.656
584.08	0.654
584.27	0.656
584.47	0.659
584.66	0.660
584.86	0.658
585.05	0.659
585.25	0.662
585.44	0.662
585.64	0.660
585.83	0.656
586.03	0.658
586.22	0.657
586.42	0.653
586.61	0.655
586.81	0.658
587.00	0.658
587.20	0.656
587.39	0.657
587.59	0.659
587.78	0.660
587.98	0.660
588.17	0.661
588.37	0.663
588.56	0.665
588.76	0.660
588.95	0.661
589.15	0.665
589.34	0.667
589.54	0.665
589.73	0.666
589.92	0.669
590.12	0.669
590.31	0.666
590.51	0.671
590.70	0.673
590.90	0.673
591.09	0.670
591.29	0.668
591.48	0.669
591.68	0.669
591.87	0.666
592.06	0.666
592.26	0.669
592.45	0.669
592.65	0.662
592.84	0.662
593.04	0.665
593.23	0.667
593.43	0.665
593.62	0.664
593.81	0.666
594.01	0.666
594.20	0.663
594.40	0.662
594.59	0.665
594.79	0.667
594.98	0.665
595.17	0.664
595.37	0.665
595.56	0.666
595.76	0.665
595.95	0.665
596.14	0.668
596.34	0.669
596.53	0.666
596.73	0.668
596.92	0.669
597.12	0.671
597.31	0.670
597.50	0.670
597.70	0.672
597.89	0.672
598.09	0.668
598.28	0.670
598.47	0.673
598.67	0.672
598.86	0.667
599.06	0.670
599.25	0.671
599.44	0.669
599.64	0.666
599.83	0.665
600.03	0.669
600.22	0.670
600.41	0.669
600.61	0.667
600.80	0.671
601.00	0.672
601.19	0.667
601.38	0.665
601.58	0.669
601.77	0.670
601.96	0.671
602.16	0.671
602.35	0.681
602.55	0.678
602.74	0.678
602.93	0.679
603.13	0.684
603.32	0.685
603.51	0.684
603.71	0.686
603.90	0.688
604.09	0.688
604.29	0.684
604.48	0.678
604.68	0.680
604.87	0.679
605.06	0.675
605.26	0.672
605.45	0.673
605.64	0.672
605.84	0.667
606.03	0.666
606.22	0.666
606.42	0.665
606.61	0.662
606.80	0.662
607.00	0.664
607.19	0.665
607.38	0.663
607.58	0.664
607.77	0.668
607.96	0.668
608.16	0.666
608.35	0.671
608.54	0.675
608.74	0.679
608.93	0.683
609.12	0.686
609.32	0.689
609.51	0.692
609.70	0.690
609.90	0.692
610.09	0.696
610.28	0.701
610.48	0.694
610.67	0.695
610.86	0.696
611.06	0.690
611.25	0.687
611.44	0.688
611.64	0.689
611.83	0.691
612.02	0.687
612.21	0.686
612.41	0.686
612.60	0.685
612.79	0.680
612.99	0.680
613.18	0.683
613.37	0.680
613.57	0.677
613.76	0.679
613.95	0.678
614.14	0.678
614.34	0.675
614.53	0.676
614.72	0.680
614.92	0.681
615.11	0.677
615.30	0.674
615.49	0.677
615.69	0.680
615.88	0.676
616.07	0.677
616.26	0.681
616.46	0.681
616.65	0.677
616.84	0.676
617.04	0.678
617.23	0.682
617.42	0.681
617.61	0.685
617.81	0.686
618.00	0.687
618.19	0.685
618.38	0.688
618.58	0.692
618.77	0.692
618.96	0.691
619.15	0.693
619.35	0.695
619.54	0.697
619.73	0.691
619.92	0.693
620.12	0.698
620.31	0.698
620.50	0.693
620.69	0.693
620.89	0.698
621.08	0.698
621.27	0.697
621.46	0.696
621.66	0.701
621.85	0.701
622.04	0.697
622.23	0.696
622.43	0.698
622.62	0.697
622.81	0.696
623.00	0.696
623.19	0.702
623.39	0.700
623.58	0.696
623.77	0.694
623.96	0.698
624.16	0.699
624.35	0.694
624.54	0.697
624.73	0.702
624.92	0.700
625.12	0.696
625.31	0.697
625.50	0.702
625.69	0.702
625.88	0.698
626.08	0.698
626.27	0.700
626.46	0.701
626.65	0.696
626.84	0.696
627.04	0.703
627.23	0.703
627.42	0.697
627.61	0.698
627.80	0.703
628.00	0.703
628.19	0.701
628.38	0.704
628.57	0.709
628.76	0.709
628.96	0.704
629.15	0.704
629.34	0.708
629.53	0.709
629.72	0.702
629.91	0.702
630.11	0.707
630.30	0.707
630.49	0.708
630.68	0.708
630.87	0.713
631.06	0.715
631.26	0.709
631.45	0.711
631.64	0.720
631.83	0.723
632.02	0.720
632.21	0.719
632.41	0.727
632.60	0.722
632.79	0.720
632.98	0.720
633.17	0.723
633.36	0.725
633.55	0.720
633.75	0.715
633.94	0.717
634.13	0.716
634.32	0.712
634.51	0.706
634.70	0.710
634.89	0.709
635.09	0.706
635.28	0.706
635.47	0.709
635.66	0.713
635.85	0.708
636.04	0.710
636.23	0.717
636.43	0.719
636.62	0.718
636.81	0.716
637.00	0.720
637.19	0.724
637.38	0.719
637.57	0.718
637.76	0.720
637.95	0.721
638.15	0.716
638.34	0.713
638.53	0.718
638.72	0.719
638.91	0.716
639.10	0.712
639.29	0.713
639.48	0.714
639.67	0.714
639.87	0.712
640.06	0.719
640.25	0.718
640.44	0.716
640.63	0.715
640.82	0.718
641.01	0.718
641.20	0.717
641.39	0.718
641.58	0.721
641.78	0.719
641.97	0.715
642.16	0.730
642.35	0.732
642.54	0.732
642.73	0.725
642.92	0.724
643.11	0.728
643.30	0.729
643.49	0.723
643.68	0.726
643.87	0.729
644.06	0.729
644.25	0.707
644.45	0.710
644.64	0.713
644.83	0.714
645.02	0.709
645.21	0.709
645.40	0.712
645.59	0.711
645.78	0.703
645.97	0.705
646.16	0.708
646.35	0.708
646.54	0.705
646.73	0.705
646.92	0.707
647.11	0.706
647.30	0.700
647.49	0.702
647.68	0.702
647.88	0.701
648.07	0.693
648.26	0.696
648.45	0.699
648.64	0.695
648.83	0.691
649.02	0.694
649.21	0.706
649.40	0.705
649.59	0.700
649.78	0.701
649.97	0.718
650.16	0.717
650.35	0.711
650.54	0.713
650.73	0.723
650.92	0.720
651.11	0.712
651.30	0.709
651.49	0.714
651.68	0.714
651.87	0.710
652.06	0.699
652.25	0.702
652.44	0.702
652.63	0.696
652.82	0.694
653.01	0.693
653.20	0.690
653.39	0.677
653.58	0.675
653.77	0.675
653.96	0.671
654.15	0.662
654.34	0.661
654.53	0.657
654.72	0.653
654.91	0.644
655.10	0.641
655.29	0.641
655.48	0.639
655.67	0.634
655.86	0.631
656.05	0.630
656.24	0.630
656.43	0.624
656.62	0.624
656.81	0.626
657.00	0.626
657.19	0.624
657.38	0.625
657.57	0.626
657.76	0.629
657.95	0.627
658.14	0.632
658.33	0.636
658.51	0.642
658.70	0.643
658.89	0.643
659.08	0.651
659.27	0.656
659.46	0.655
659.65	0.661
659.84	0.664
660.03	0.667
660.22	0.668
660.41	0.672
660.60	0.672
660.79	0.673
660.98	0.678
661.17	0.677
661.36	0.677
661.55	0.677
661.74	0.674
661.92	0.676
662.11	0.678
662.30	0.676
662.49	0.668
662.68	0.667
662.87	0.671
663.06	0.665
663.25	0.665
663.44	0.666
663.63	0.667
663.82	0.667
664.01	0.662
664.20	0.660
664.38	0.663
664.57	0.663
664.76	0.663
664.95	0.663
665.14	0.669
665.33	0.664
665.52	0.671
665.71	0.675
665.90	0.675
666.09	0.676
666.28	0.673
666.46	0.672
666.65	0.674
666.84	0.672
667.03	0.667
667.22	0.664
667.41	0.668
667.60	0.657
667.79	0.650
667.98	0.652
668.16	0.654
668.35	0.653
668.54	0.648
668.73	0.649
668.92	0.650
669.11	0.648
669.30	0.641
669.49	0.637
669.67	0.639
669.86	0.641
670.05	0.638
670.24	0.636
670.43	0.635
670.62	0.634
670.81	0.628
671.00	0.629
671.18	0.630
671.37	0.629
671.56	0.626
671.75	0.625
671.94	0.622
672.13	0.620
672.32	0.614
672.50	0.613
672.69	0.615
672.88	0.616
673.07	0.612
673.26	0.614
673.45	0.617
673.63	0.616
673.82	0.612
674.01	0.614
674.20	0.614
674.39	0.614
674.58	0.612
674.76	0.612
674.95	0.611
675.14	0.611
675.33	0.605
675.52	0.604
675.71	0.604
675.89	0.603
676.08	0.597
676.27	0.598
676.46	0.598
676.65	0.598
676.84	0.596
677.02	0.597
677.21	0.600
677.40	0.599
677.59	0.596
677.78	0.597
677.96	0.600
678.15	0.600
678.34	0.598
678.53	0.599
678.72	0.600
678.90	0.597
679.09	0.592
679.28	0.589
679.47	0.589
679.66	0.589
679.84	0.585
680.03	0.583
680.22	0.582
680.41	0.584
680.60	0.580
680.78	0.579
680.97	0.582
681.16	0.582
681.35	0.580
681.53	0.579
681.72	0.581
681.91	0.583
682.10	0.580
682.29	0.583
682.47	0.581
682.66	0.580
682.85	0.578
683.04	0.576
683.22	0.576
683.41	0.578
683.60	0.577
683.79	0.578
683.97	0.577
684.16	0.575
684.35	0.571
684.54	0.572
684.72	0.573
684.91	0.574
685.10	0.572
685.29	0.574
685.47	0.571
685.66	0.570
685.85	0.566
686.04	0.566
686.22	0.569
686.41	0.572
686.60	0.568
686.79	0.571
686.97	0.572
687.16	0.574
687.35	0.570
687.54	0.573
687.72	0.577
687.91	0.577
688.10	0.578
688.29	0.577
688.47	0.576
688.66	0.576
688.85	0.571
689.03	0.569
689.22	0.574
689.41	0.574
689.60	0.569
689.78	0.567
689.97	0.568
690.16	0.565
690.34	0.561
690.53	0.560
690.72	0.562
690.91	0.560
691.09	0.558
691.28	0.551
691.47	0.551
691.65	0.550
691.84	0.547
692.03	0.546
692.21	0.544
692.40	0.544
692.59	0.542
692.77	0.540
692.96	0.542
693.15	0.543
693.34	0.540
693.52	0.540
693.71	0.541
693.90	0.542
694.08	0.542
694.27	0.544
694.46	0.554
694.64	0.555
694.83	0.554
695.02	0.553
695.20	0.553
695.39	0.553
695.58	0.552
695.76	0.553
695.95	0.552
696.14	0.552
696.32	0.549
696.51	0.539
696.70	0.539
696.88	0.540
697.07	0.538
697.26	0.540
697.44	0.541
697.63	0.539
697.81	0.537
698.00	0.537
698.19	0.537
698.37	0.538
698.56	0.537
698.75	0.537
698.93	0.537
699.12	0.536
699.31	0.535
699.49	0.534
699.68	0.536
699.87	0.539
700.05	0.538
700.24	0.537
700.42	0.539
700.61	0.538
700.80	0.536
700.98	0.536
701.17	0.538
701.36	0.537
701.54	0.536
701.73	0.537
701.91	0.535
702.10	0.535
702.29	0.532
702.47	0.531
702.66	0.533
702.84	0.534
703.03	0.532
703.22	0.534
703.40	0.535
703.59	0.537
703.77	0.536
703.96	0.536
704.15	0.537
704.33	0.537
704.52	0.536
704.70	0.535
704.89	0.536
705.08	0.534
705.26	0.529
705.45	0.528
705.63	0.528
705.82	0.525
706.00	0.523
706.19	0.522
706.38	0.523
706.56	0.522
706.75	0.519
706.93	0.518
707.12	0.520
707.30	0.521
707.49	0.518
707.68	0.516
707.86	0.515
708.05	0.515
708.23	0.512
708.42	0.513
708.60	0.516
708.79	0.517
708.98	0.515
709.16	0.514
709.35	0.517
709.53	0.520
709.72	0.519
709.90	0.520
710.09	0.523
710.27	0.525
710.46	0.528
710.64	0.526
710.83	0.528
711.02	0.530
711.20	0.527
711.39	0.526
711.57	0.524
711.76	0.524
711.94	0.522
712.13	0.522
712.31	0.522
712.50	0.517
712.68	0.514
712.87	0.515
713.05	0.516
713.24	0.516
713.42	0.515
713.61	0.515
713.79	0.517
713.98	0.517
714.16	0.517
714.35	0.517
714.54	0.519
714.72	0.519
714.91	0.516
715.09	0.523
715.28	0.527
715.46	0.526
715.65	0.523
715.83	0.523
716.02	0.526
716.20	0.523
716.39	0.522
716.57	0.523
716.76	0.526
716.94	0.526
717.12	0.517
717.31	0.518
717.49	0.522
717.68	0.524
717.86	0.523
718.05	0.525
718.23	0.528
718.42	0.531
718.60	0.532
718.79	0.540
718.97	0.543
719.16	0.544
719.34	0.541
719.53	0.540
719.71	0.541
719.90	0.543
720.08	0.539
720.27	0.539
720.45	0.540
720.63	0.537
720.82	0.531
721.00	0.533
721.19	0.537
721.37	0.537
721.56	0.537
721.74	0.539
721.93	0.548
722.11	0.553
722.30	0.551
722.48	0.556
722.66	0.558
722.85	0.558
723.03	0.557
723.22	0.555
723.40	0.559
723.59	0.559
723.77	0.562
723.95	0.556
724.14	0.560
724.32	0.562
724.51	0.560
724.69	0.562
724.88	0.562
725.06	0.560
725.24	0.560
725.43	0.562
725.61	0.565
725.80	0.559
725.98	0.555
726.16	0.552
726.35	0.559
726.53	0.558
726.72	0.555
726.90	0.566
727.09	0.568
727.27	0.573
727.45	0.568
727.64	0.577
727.82	0.587
728.01	0.592
728.19	0.587
728.37	0.593
728.56	0.598
728.74	0.605
728.92	0.591
729.11	0.595
729.29	0.596
729.48	0.598
729.66	0.586
729.84	0.585
730.03	0.590
730.21	0.593
730.40	0.581
730.58	0.581
730.76	0.583
730.95	0.585
731.13	0.581
731.31	0.594
731.50	0.606
731.68	0.610
731.86	0.604
732.05	0.620
732.23	0.625
732.42	0.628
732.60	0.631
732.78	0.637
732.97	0.658
733.15	0.667
733.33	0.652
733.52	0.657
733.70	0.670
733.88	0.679
734.07	0.661
734.25	0.689
734.43	0.702
734.62	0.705
734.80	0.697
734.98	0.685
735.17	0.695
735.35	0.704
735.53	0.692
735.72	0.695
735.90	0.723
736.08	0.744
736.27	0.714
736.45	0.720
736.63	0.737
736.82	0.748
737.00	0.746
737.18	0.755
737.37	0.790
737.55	0.815
737.73	0.806
737.92	0.807
738.10	0.805
738.28	0.827
738.46	0.813
738.65	0.824
738.83	0.850
739.01	0.909
739.20	0.895
739.38	0.877
739.56	0.869
739.75	0.874
739.93	0.831
740.11	0.857
740.29	0.865
740.48	0.872
740.66	0.849
740.84	0.844
741.03	0.812
741.21	0.825
741.39	0.799
741.57	0.813
741.76	0.838
741.94	0.850
742.12	0.809
742.31	0.815
742.49	0.839
742.67	0.863
742.85	0.875
743.04	0.875
743.22	0.890
743.40	0.947
743.58	0.921
743.77	0.941
743.95	0.983
744.13	1.041
744.31	1.015
744.50	1.010
744.68	1.020
744.86	0.992
745.04	0.999
745.23	1.070
745.41	1.070
745.59	1.074
745.77	1.019
745.96	1.009
746.14	1.035
746.32	1.025
746.50	1.007
746.69	0.991
746.87	1.008
747.05	0.989
747.23	0.904
747.42	0.888
747.60	0.928
747.78	0.936
747.96	0.961
748.14	0.903
748.33	0.942
748.51	0.932
748.69	0.916
748.87	0.947
749.06	0.954
749.24	0.950
749.42	0.924
749.60	0.903
749.78	0.920
749.97	0.871
750.15	0.862
750.33	0.863
750.51	0.901
750.69	0.907
750.88	0.905
751.06	0.914
751.24	0.954
751.42	0.945
751.60	0.929
751.79	1.013
751.97	1.076
752.15	1.076
752.33	1.028
752.51	1.104
752.69	1.130
752.88	1.089
753.06	1.137
753.24	1.104
753.42	1.151
753.60	1.374
753.78	1.158
753.97	1.177
754.15	1.210
754.33	1.252
754.51	1.089
754.69	1.072
754.87	1.115
755.06	1.026
755.24	1.022
755.42	1.032
755.60	0.932
755.78	0.945
755.96	0.879
756.15	0.881
756.33	0.892
756.51	0.913
756.69	0.897
756.87	0.860
757.05	0.892
757.23	0.873
757.42	0.832
757.60	0.827
757.78	0.814
757.96	0.812
758.14	0.787
758.32	0.771
758.50	0.788
758.69	0.786
758.87	0.775
759.05	0.777
759.23	0.791
759.41	0.793
759.59	0.782
759.77	0.810
759.95	0.847
760.13	0.903
760.32	0.900
760.50	0.893
760.68	0.926
760.86	0.923
761.04	0.890
761.22	0.892
761.40	0.950
761.58	0.952
761.76	0.914
761.95	0.894
762.13	0.847
762.31	0.841
762.49	0.804
762.67	0.821
762.85	0.840
763.03	0.831
763.21	0.810
763.39	0.793
763.57	0.800
763.75	0.795
763.94	0.774
764.12	0.775
764.30	0.807
764.48	0.810
764.66	0.766
764.84	0.767
765.02	0.815
765.20	0.821
765.38	0.793
765.56	0.796
765.74	0.844
765.92	0.844
766.10	0.854
766.28	0.845
766.46	0.885
766.65	0.887
766.83	0.869
767.01	0.847
767.19	0.859
767.37	0.861
767.55	0.843
767.73	0.821
767.91	0.828
768.09	0.814
768.27	0.796
768.45	0.785
768.63	0.792
768.81	0.792
768.99	0.760
769.17	0.786
769.35	0.807
769.53	0.805
769.71	0.781
769.89	0.793
770.07	0.803
770.25	0.787
770.43	0.758
770.61	0.788
770.79	0.800
770.97	0.814
771.15	0.778
771.33	0.781
771.51	0.788
771.69	0.797
771.87	0.800
772.05	0.804
772.24	0.819
772.42	0.829
772.60	0.798
772.78	0.863
772.96	0.895
773.14	0.888
773.32	0.859
773.49	0.868
773.67	0.870
773.85	0.847
774.03	0.831
774.21	0.860
774.39	0.880
774.57	0.907
774.75	0.822
774.93	0.819
775.11	0.849
775.29	0.854
775.47	0.850
775.65	0.866
775.83	0.890
776.01	0.918
776.19	0.863
776.37	0.865
776.55	0.866
776.73	0.862
776.91	0.851
777.09	0.834
777.27	0.837
777.45	0.827
777.63	0.798
777.81	0.799
777.99	0.791
778.17	0.791
778.35	0.764
778.53	0.753
778.71	0.763
778.89	0.750
779.07	0.733
779.24	0.738
779.42	0.741
779.60	0.760
779.78	0.752
779.96	0.755
780.14	0.766
780.32	0.787
780.50	0.765
780.68	0.764
780.86	0.758
781.04	0.775
781.22	0.777
781.40	0.791
781.58	0.786
781.75	0.777
781.93	0.755
782.11	0.758
782.29	0.745
782.47	0.745
782.65	0.728
782.83	0.760
783.01	0.758
783.19	0.751
783.37	0.732
783.55	0.734
783.72	0.754
783.90	0.766
784.08	0.752
784.26	0.764
784.44	0.790
784.62	0.794
784.80	0.755
784.98	0.757
785.16	0.764
785.33	0.778
785.51	0.757
785.69	0.743
785.87	0.742
786.05	0.753
786.23	0.747
786.41	0.745
786.59	0.755
786.77	0.754
786.94	0.739
787.12	0.744
787.30	0.749
787.48	0.745
787.66	0.727
787.84	0.731
788.02	0.723
788.19	0.722
788.37	0.704
788.55	0.705
788.73	0.710
788.91	0.704
789.09	0.684
789.27	0.672
789.44	0.690
789.62	0.696
789.80	0.702
789.98	0.731
790.16	0.718
790.34	0.715
790.51	0.700
790.69	0.719
790.87	0.729
791.05	0.726
791.23	0.718
791.41	0.717
791.58	0.730
791.76	0.708
791.94	0.671
792.12	0.680
792.30	0.685
792.48	0.681
792.65	0.671
792.83	0.678
793.01	0.689
793.19	0.687
793.37	0.668
793.54	0.665
793.72	0.678
793.90	0.678
794.08	0.665
794.26	0.667
794.43	0.679
794.61	0.660
794.79	0.646
794.97	0.644
795.15	0.651
795.32	0.655
795.50	0.641
795.68	0.636
795.86	0.643
796.04	0.643
796.21	0.635
796.39	0.634
796.57	0.653
796.75	0.663
796.92	0.663
797.10	0.669
797.28	0.673
797.46	0.678
797.64	0.677
797.81	0.684
797.99	0.690
798.17	0.693
798.35	0.684
798.52	0.687
798.70	0.683
798.88	0.691
799.06	0.688
799.23	0.692
799.41	0.702
799.59	0.695
799.77	0.683
799.94	0.694
800.12	0.706
800.30	0.725
800.48	0.721
800.65	0.720
800.83	0.713
801.01	0.705
801.19	0.701
801.36	0.698
801.54	0.704
801.72	0.713
801.90	0.695
802.07	0.691
802.25	0.677
802.43	0.661
802.60	0.653
802.78	0.660
802.96	0.665
803.14	0.659
803.31	0.654
803.49	0.654
803.67	0.653
803.84	0.656
804.02	0.645
804.20	0.648
804.38	0.655
804.55	0.656
804.73	0.638
804.91	0.639
805.08	0.655
805.26	0.650
805.44	0.711
805.61	0.715
805.79	0.721
805.97	0.722
806.15	0.709
806.32	0.706
806.50	0.716
806.68	0.718
806.85	0.706
807.03	0.698
807.21	0.719
807.38	0.652
807.56	0.639
807.74	0.649
807.91	0.656
808.09	0.660
808.27	0.677
808.44	0.702
808.62	0.715
808.80	0.716
808.97	0.705
809.15	0.698
809.33	0.720
809.50	0.725
809.68	0.706
809.86	0.714
810.03	0.752
810.21	0.730
810.39	0.710
810.56	0.716
810.74	0.745
810.91	0.829
811.09	0.814
811.27	0.834
811.44	0.844
811.62	0.843
811.80	0.819
811.97	0.786
812.15	0.786
812.33	0.780
812.50	0.762
812.68	0.749
812.85	0.690
813.03	0.693
813.21	0.658
813.38	0.654
813.56	0.661
813.74	0.674
813.91	0.680
814.09	0.712
814.26	0.709
814.44	0.712
814.62	0.699
814.79	0.703
814.97	0.712
815.14	0.717
815.32	0.717
815.50	0.735
815.67	0.741
815.85	0.732
816.02	0.721
816.20	0.727
816.38	0.746
816.55	0.752
816.73	0.749
816.90	0.762
817.08	0.802
817.26	0.809
817.43	0.783
817.61	0.809
817.78	0.836
817.96	0.811
818.13	0.797
818.31	0.797
818.49	0.817
818.66	0.803
818.84	0.781
819.01	0.754
819.19	0.768
819.36	0.771
819.54	0.734
819.71	0.777
819.89	0.796
820.07	0.811
820.24	0.797
820.42	0.798
820.59	0.827
820.77	0.854
820.94	0.840
821.12	0.857
821.29	0.879
821.47	0.883
821.64	0.809
821.82	0.824
822.00	0.823
822.17	0.821
822.35	0.807
822.52	0.810
822.70	0.801
822.87	0.808
823.05	0.779
823.22	0.792
823.40	0.826
823.57	0.851
823.75	0.828
823.92	0.859
824.10	0.886
824.27	0.938
824.45	0.919
824.62	0.994
824.80	1.026
824.97	1.051
825.15	1.035
825.32	1.059
825.50	1.067
825.67	1.084
825.85	1.046
826.02	1.080
826.20	1.119
826.37	1.324
826.55	1.190
826.72	1.568
826.90	1.812
827.07	2.104
827.25	1.786
827.42	-0.000
827.60	-0.000
827.77	-0.000
827.95	-0.000
828.12	-0.000
828.30	-0.000
828.47	-0.000
828.65	1.903
828.82	2.284
829.00	-0.000
829.17	-0.000
829.34	-0.000
829.52	-0.000
829.69	-0.000
829.87	-0.000
830.04	-0.000
830.22	-0.000
830.39	-0.000
830.57	-0.000
830.74	-0.000
830.92	-0.000
831.09	-0.000
831.26	-0.000
831.44	-0.000
831.61	-0.000
831.79	-0.000
831.96	-0.000
832.14	-0.000
832.31	-0.000
832.49	-0.000
832.66	-0.000
832.83	-0.000
833.01	-0.000
833.18	-0.000
833.36	-0.000
833.53	-0.000
833.70	-0.000
833.88	-0.000
834.05	-0.000
834.23	-0.000
834.40	-0.000
834.58	-0.000
834.75	-0.000
834.92	-0.000
835.10	-0.000
835.27	-0.000
835.45	-0.000
835.62	-0.000
835.79	-0.000
835.97	-0.000
836.14	-0.000
836.32	-0.000
836.49	-0.000
836.66	-0.000
836.84	-0.000
837.01	-0.000
837.18	-0.000
837.36	-0.000
837.53	-0.000
837.71	-0.000
837.88	-0.000
838.05	-0.000
838.23	-0.000
838.40	-0.000
838.58	-0.000
838.75	-0.000
838.92	-0.000
839.10	-0.000
839.27	-0.000
839.44	-0.000
839.62	-0.000
839.79	-0.000
839.96	-0.000
840.14	-0.000
840.31	-0.000
840.48	-0.000
840.66	-0.000
840.83	-0.000
841.01	-0.000
841.18	-0.000
841.35	-0.000
841.53	-0.000
841.70	-0.000
841.87	-0.000
842.05	-0.000
842.22	-0.000
842.39	-0.000
842.57	-0.000
842.74	-0.000
842.91	-0.000
843.09	-0.000
843.26	-0.000
843.43	-0.000
843.60	-0.000
843.78	-0.000
843.95	-0.000
844.12	-0.000
844.30	-0.000
844.47	-0.000
844.64	-0.000
844.82	-0.000
844.99	-0.000
845.16	-0.000
845.34	-0.000
845.51	-0.000
845.68	-0.000
845.85	-0.000
846.03	-0.000
846.20	-0.000
846.37	-0.000
846.55	-0.000
846.72	-0.000
846.89	-0.000
847.06	-0.000
847.24	-0.000
847.41	-0.000
847.58	-0.000
847.76	-0.000
847.93	-0.000
848.10	-0.000
848.27	-0.000
848.45	-0.000
848.62	-0.000
848.79	-0.000
848.97	-0.000
849.14	-0.000
849.31	-0.000
849.48	-0.000
849.66	-0.000
849.83	-0.000
850.00	-0.000
850.17	-0.000
850.35	-0.000
850.52	-0.000
850.69	-0.000
850.86	-0.000
851.04	-0.000
851.21	-0.000
851.38	-0.000
851.55	-0.000
851.72	-0.000
851.90	-0.000
852.07	-0.000
852.24	-0.000
852.41	-0.000
852.59	-0.000
852.76	-0.000
852.93	-0.000
853.10	-0.000
853.28	-0.000
853.45	-0.000
853.62	-0.000
853.79	-0.000
853.96	-0.000
854.14	-0.000
854.31	-0.000
854.48	-0.000
854.65	-0.000
854.82	-0.000
855.00	-0.000
855.17	-0.000
855.34	-0.000
855.51	-0.000
855.68	-0.000
855.86	-0.000
856.03	-0.000
856.20	-0.000
856.37	-0.000
856.54	-0.000
856.72	-0.000
856.89	-0.000
857.06	-0.000
857.23	-0.000
857.40	-0.000
857.57	-0.000
857.75	-0.000
857.92	-0.000
858.09	-0.000
858.26	-0.000
858.43	-0.000
858.60	-0.000
858.78	-0.000
858.95	-0.000
859.12	-0.000
859.29	-0.000
859.46	-0.000
859.63	-0.000
859.81	-0.000
859.98	-0.000
860.15	-0.000
860.32	-0.000
860.49	-0.000
860.66	-0.000
860.83	-0.000
861.01	-0.000
861.18	-0.000
861.35	-0.000
861.52	-0.000
861.69	-0.000
861.86	-0.000
862.03	-0.000
862.21	-0.000
862.38	-0.000
862.55	-0.000
862.72	-0.000
862.89	-0.000
863.06	-0.000
863.23	-0.000
863.40	-0.000
863.58	-0.000
863.75	-0.000
863.92	-0.000
864.09	-0.000
864.26	-0.000
864.43	-0.000
864.60	-0.000
864.77	-0.000
864.94	-0.000
865.11	-0.000
865.29	-0.000
865.46	-0.000
865.63	-0.000
865.80	-0.000
865.97	-0.000
866.14	-0.000
866.31	-0.000
866.48	-0.000
866.65	-0.000
866.82	-0.000
866.99	-0.000
867.16	-0.000
867.34	-0.000
867.51	-0.000
867.68	-0.000
867.85	-0.000
868.02	-0.000
868.19	-0.000
868.36	-0.000
868.53	-0.000
868.70	-0.000
868.87	-0.000
869.04	-0.000
869.21	-0.000
869.38	-0.000
869.55	-0.000
869.72	-0.000
869.89	-0.000
870.06	-0.000
870.24	-0.000
870.41	-0.000
870.58	-0.000
870.75	-0.000
870.92	-0.000
871.09	-0.000
871.26	-0.000
871.43	-0.000
871.60	-0.000
871.77	-0.000
871.94	-0.000
872.11	-0.000
872.28	-0.000
872.45	-0.000
872.62	-0.000
872.79	-0.000
872.96	-0.000
873.13	-0.000
873.30	-0.000
873.47	-0.000
873.64	-0.000
873.81	-0.000
873.98	-0.000
874.15	-0.000
874.32	-0.000
874.49	-0.000
874.66	-0.000
874.83	-0.000
875.00	-0.000
875.17	-0.000
875.34	-0.000
875.51	-0.000
875.68	-0.000
875.85	-0.000
876.02	-0.000
876.19	-0.000
876.36	-0.000
876.53	-0.000
876.70	-0.000
876.87	-0.000
877.04	-0.000
877.21	-0.000
877.38	-0.000
877.55	-0.000
877.72	-0.000
877.89	-0.000
878.06	-0.000
878.23	-0.000
878.39	-0.000
878.56	-0.000
878.73	-0.000
878.90	-0.000
879.07	-0.000
879.24	-0.000
879.41	-0.000
879.58	-0.000
879.75	-0.000
879.92	-0.000
880.09	-0.000
880.26	-0.000
880.43	-0.000
880.60	-0.000
880.77	-0.000
880.94	-0.000
881.11	-0.000
881.27	-0.000
881.44	-0.000
881.61	-0.000
881.78	-0.000
881.95	-0.000
882.12	-0.000
882.29	-0.000
882.46	-0.000
882.63	-0.000
882.80	-0.000
882.97	-0.000
883.14	-0.000
883.30	-0.000
883.47	-0.000
883.64	-0.000
883.81	-0.000
883.98	-0.000
884.15	-0.000
884.32	-0.000
884.49	-0.000
884.66	-0.000
884.82	-0.000
884.99	-0.000
885.16	-0.000
885.33	-0.000
885.50	-0.000
885.67	-0.000
885.84	-0.000
886.01	-0.000
886.17	-0.000
886.34	-0.000
886.51	-0.000
886.68	-0.000
886.85	-0.000
887.02	-0.000
887.19	-0.000
887.36	-0.000
887.52	-0.000
887.69	-0.000
887.86	-0.000
888.03	-0.000
888.20	-0.000
888.37	-0.000
888.54	-0.000
888.70	-0.000
888.87	-0.000
889.04	-0.000
889.21	-0.000
889.38	-0.000
889.55	-0.000
889.71	-0.000
889.88	-0.000
890.05	-0.000
890.22	-0.000
890.39	-0.000
>>>>>End Processed Spectral Data<<<<<
