SpectraSuite Data File
++++++++++++++++++++++++++++++++++++
Date: Fri Jun 19 15:02:06 CEST 2015
User: introlabs
Dark Spectrum Present: Yes
Reference Spectrum Present: Yes
Number of Sampled Component Spectra: 1
Spectrometers: USB4H08886
Integration Time (usec): 745692 (USB4H08886)
Spectra Averaged: 5 (USB4H08886)
Boxcar Smoothing: 5 (USB4H08886)
Correct for Electrical Dark: Yes (USB4H08886)
Strobe/Lamp Enabled: No (USB4H08886)
Correct for Detector Non-linearity: Yes (USB4H08886)
Correct for Stray Light: Yes (USB4H08886)
Number of Pixels in Processed Spectrum: 3648
>>>>>Begin Processed Spectral Data<<<<<
178.14	-0.000
178.36	-0.000
178.57	-0.000
178.79	-0.000
179.01	-0.000
179.22	-0.000
179.44	-0.000
179.65	-0.000
179.87	-0.000
180.08	-0.000
180.30	-0.000
180.52	-0.000
180.73	-0.000
180.95	-0.000
181.16	-0.000
181.38	-0.000
181.59	-0.000
181.81	-0.000
182.03	-0.000
182.24	-0.000
182.46	-0.000
182.67	-0.000
182.89	-0.000
183.10	-0.000
183.32	-0.000
183.54	-0.000
183.75	-0.000
183.97	-0.000
184.18	-0.000
184.40	-0.000
184.61	-0.000
184.83	-0.000
185.04	-0.000
185.26	-0.000
185.48	-0.000
185.69	-0.000
185.91	-0.000
186.12	-0.000
186.34	-0.000
186.55	-0.000
186.77	-0.000
186.98	-0.000
187.20	-0.000
187.42	-0.000
187.63	-0.000
187.85	-0.000
188.06	-0.000
188.28	-0.000
188.49	-0.000
188.71	-0.000
188.92	-0.000
189.14	-0.000
189.36	-0.000
189.57	-0.000
189.79	-0.000
190.00	-0.000
190.22	-0.000
190.43	-0.000
190.65	-0.000
190.86	-0.000
191.08	-0.000
191.29	-0.000
191.51	-0.000
191.72	-0.000
191.94	-0.000
192.16	-0.000
192.37	-0.000
192.59	-0.000
192.80	-0.000
193.02	-0.000
193.23	-0.000
193.45	-0.000
193.66	-0.000
193.88	-0.000
194.09	-0.000
194.31	-0.000
194.52	-0.000
194.74	-0.000
194.95	-0.000
195.17	-0.000
195.38	-0.000
195.60	-0.000
195.81	-0.000
196.03	-0.000
196.25	-0.000
196.46	-0.000
196.68	-0.000
196.89	-0.000
197.11	-0.000
197.32	-0.000
197.54	-0.000
197.75	-0.000
197.97	-0.000
198.18	-0.000
198.40	-0.000
198.61	-0.000
198.83	-0.000
199.04	-0.000
199.26	-0.000
199.47	-0.000
199.69	-0.000
199.90	-0.000
200.12	-0.000
200.33	-0.000
200.55	-0.000
200.76	-0.000
200.98	-0.000
201.19	-0.000
201.41	-0.000
201.62	-0.000
201.84	-0.000
202.05	-0.000
202.27	-0.000
202.48	-0.000
202.70	-0.000
202.91	-0.000
203.13	-0.000
203.34	-0.000
203.56	-0.000
203.77	-0.000
203.99	-0.000
204.20	-0.000
204.42	-0.000
204.63	-0.000
204.85	-0.000
205.06	-0.000
205.28	-0.000
205.49	-0.000
205.71	-0.000
205.92	-0.000
206.14	-0.000
206.35	-0.000
206.56	-0.000
206.78	-0.000
206.99	-0.000
207.21	-0.000
207.42	-0.000
207.64	-0.000
207.85	-0.000
208.07	-0.000
208.28	-0.000
208.50	-0.000
208.71	-0.000
208.93	-0.000
209.14	-0.000
209.36	-0.000
209.57	-0.000
209.79	-0.000
210.00	-0.000
210.22	-0.000
210.43	-0.000
210.64	-0.000
210.86	-0.000
211.07	-0.000
211.29	-0.000
211.50	-0.000
211.72	-0.000
211.93	-0.000
212.15	-0.000
212.36	-0.000
212.58	-0.000
212.79	-0.000
213.01	-0.000
213.22	-0.000
213.43	-0.000
213.65	-0.000
213.86	-0.000
214.08	-0.000
214.29	-0.000
214.51	-0.000
214.72	-0.000
214.94	-0.000
215.15	-0.000
215.36	-0.000
215.58	-0.000
215.79	-0.000
216.01	-0.000
216.22	-0.000
216.44	-0.000
216.65	-0.000
216.87	-0.000
217.08	-0.000
217.29	-0.000
217.51	-0.000
217.72	-0.000
217.94	-0.000
218.15	-0.000
218.37	-0.000
218.58	-0.000
218.80	-0.000
219.01	-0.000
219.22	-0.000
219.44	-0.000
219.65	-0.000
219.87	-0.000
220.08	-0.000
220.30	-0.000
220.51	-0.000
220.72	-0.000
220.94	-0.000
221.15	-0.000
221.37	-0.000
221.58	-0.000
221.79	-0.000
222.01	-0.000
222.22	-0.000
222.44	-0.000
222.65	-0.000
222.87	-0.000
223.08	-0.000
223.29	-0.000
223.51	-0.000
223.72	-0.000
223.94	-0.000
224.15	-0.000
224.36	-0.000
224.58	-0.000
224.79	-0.000
225.01	-0.000
225.22	-0.000
225.44	-0.000
225.65	-0.000
225.86	-0.000
226.08	-0.000
226.29	-0.000
226.51	-0.000
226.72	-0.000
226.93	-0.000
227.15	-0.000
227.36	-0.000
227.58	-0.000
227.79	-0.000
228.00	-0.000
228.22	-0.000
228.43	-0.000
228.65	-0.000
228.86	-0.000
229.07	-0.000
229.29	-0.000
229.50	-0.000
229.72	-0.000
229.93	-0.000
230.14	-0.000
230.36	-0.000
230.57	-0.000
230.78	-0.000
231.00	-0.000
231.21	-0.000
231.43	-0.000
231.64	-0.000
231.85	-0.000
232.07	-0.000
232.28	-0.000
232.50	-0.000
232.71	-0.000
232.92	-0.000
233.14	-0.000
233.35	-0.000
233.56	-0.000
233.78	-0.000
233.99	-0.000
234.21	-0.000
234.42	-0.000
234.63	-0.000
234.85	-0.000
235.06	-0.000
235.27	-0.000
235.49	-0.000
235.70	-0.000
235.91	-0.000
236.13	-0.000
236.34	-0.000
236.56	-0.000
236.77	-0.000
236.98	-0.000
237.20	-0.000
237.41	-0.000
237.62	-0.000
237.84	-0.000
238.05	-0.000
238.26	-0.000
238.48	-0.000
238.69	-0.000
238.91	-0.000
239.12	-0.000
239.33	-0.000
239.55	-0.000
239.76	-0.000
239.97	-0.000
240.19	-0.000
240.40	-0.000
240.61	-0.000
240.83	-0.000
241.04	-0.000
241.25	-0.000
241.47	-0.000
241.68	-0.000
241.89	-0.000
242.11	-0.000
242.32	-0.000
242.53	-0.000
242.75	-0.000
242.96	-0.000
243.17	-0.000
243.39	-0.000
243.60	-0.000
243.81	-0.000
244.03	-0.000
244.24	-0.000
244.45	-0.000
244.67	-0.000
244.88	-0.000
245.09	-0.000
245.31	-0.000
245.52	-0.000
245.73	-0.000
245.95	-0.000
246.16	-0.000
246.37	-0.000
246.59	-0.000
246.80	-0.000
247.01	-0.000
247.23	-0.000
247.44	-0.000
247.65	-0.000
247.87	-0.000
248.08	-0.000
248.29	-0.000
248.51	-0.000
248.72	-0.000
248.93	-0.000
249.15	-0.000
249.36	-0.000
249.57	-0.000
249.78	-0.000
250.00	-0.000
250.21	-0.000
250.42	-0.000
250.64	-0.000
250.85	-0.000
251.06	-0.000
251.28	-0.000
251.49	-0.000
251.70	-0.000
251.92	-0.000
252.13	-0.000
252.34	-0.000
252.55	-0.000
252.77	-0.000
252.98	-0.000
253.19	-0.000
253.41	-0.000
253.62	-0.000
253.83	-0.000
254.05	-0.000
254.26	-0.000
254.47	-0.000
254.68	-0.000
254.90	-0.000
255.11	-0.000
255.32	-0.000
255.54	-0.000
255.75	-0.000
255.96	-0.000
256.17	-0.000
256.39	-0.000
256.60	-0.000
256.81	-0.000
257.03	-0.000
257.24	-0.000
257.45	-0.000
257.66	-0.000
257.88	-0.000
258.09	-0.000
258.30	-0.000
258.51	-0.000
258.73	-0.000
258.94	-0.000
259.15	-0.000
259.37	-0.000
259.58	-0.000
259.79	-0.000
260.00	-0.000
260.22	-0.000
260.43	-0.000
260.64	-0.000
260.85	-0.000
261.07	-0.000
261.28	-0.000
261.49	-0.000
261.71	-0.000
261.92	-0.000
262.13	-0.000
262.34	-0.000
262.56	-0.000
262.77	-0.000
262.98	-0.000
263.19	-0.000
263.41	-0.000
263.62	-0.000
263.83	-0.000
264.04	-0.000
264.26	-0.000
264.47	-0.000
264.68	-0.000
264.89	-0.000
265.11	-0.000
265.32	-0.000
265.53	-0.000
265.74	-0.000
265.96	-0.000
266.17	-0.000
266.38	-0.000
266.59	-0.000
266.81	-0.000
267.02	-0.000
267.23	-0.000
267.44	-0.000
267.65	-0.000
267.87	-0.000
268.08	-0.000
268.29	-0.000
268.50	-0.000
268.72	-0.000
268.93	-0.000
269.14	-0.000
269.35	-0.000
269.57	-0.000
269.78	-0.000
269.99	-0.000
270.20	-0.000
270.41	-0.000
270.63	-0.000
270.84	-0.000
271.05	-0.000
271.26	-0.000
271.48	-0.000
271.69	-0.000
271.90	-0.000
272.11	-0.000
272.32	-0.000
272.54	-0.000
272.75	-0.000
272.96	-0.000
273.17	-0.000
273.39	-0.000
273.60	-0.000
273.81	-0.000
274.02	-0.000
274.23	-0.000
274.45	-0.000
274.66	-0.000
274.87	-0.000
275.08	-0.000
275.29	-0.000
275.51	-0.000
275.72	-0.000
275.93	-0.000
276.14	-0.000
276.35	-0.000
276.57	-0.000
276.78	-0.000
276.99	-0.000
277.20	-0.000
277.41	-0.000
277.63	-0.000
277.84	-0.000
278.05	-0.000
278.26	-0.000
278.47	-0.000
278.69	-0.000
278.90	-0.000
279.11	-0.000
279.32	-0.000
279.53	-0.000
279.74	-0.000
279.96	-0.000
280.17	-0.000
280.38	-0.000
280.59	-0.000
280.80	-0.000
281.02	-0.000
281.23	-0.000
281.44	-0.000
281.65	-0.000
281.86	-0.000
282.07	-0.000
282.29	-0.000
282.50	-0.000
282.71	-0.000
282.92	-0.000
283.13	-0.000
283.35	-0.000
283.56	-0.000
283.77	-0.000
283.98	-0.000
284.19	-0.000
284.40	-0.000
284.62	-0.000
284.83	-0.000
285.04	-0.000
285.25	-0.000
285.46	-0.000
285.67	-0.000
285.88	-0.000
286.10	-0.000
286.31	-0.000
286.52	-0.000
286.73	-0.000
286.94	-0.000
287.15	-0.000
287.37	-0.000
287.58	-0.000
287.79	-0.000
288.00	-0.000
288.21	-0.000
288.42	-0.000
288.63	-0.000
288.85	-0.000
289.06	-0.000
289.27	-0.000
289.48	-0.000
289.69	-0.000
289.90	-0.000
290.11	-0.000
290.33	-0.000
290.54	-0.000
290.75	-0.000
290.96	-0.000
291.17	-0.000
291.38	-0.000
291.59	-0.000
291.81	-0.000
292.02	-0.000
292.23	-0.000
292.44	-0.000
292.65	-0.000
292.86	-0.000
293.07	-0.000
293.28	-0.000
293.50	-0.000
293.71	-0.000
293.92	-0.000
294.13	-0.000
294.34	-0.000
294.55	-0.000
294.76	-0.000
294.97	-0.000
295.19	-0.000
295.40	-0.000
295.61	-0.000
295.82	-0.000
296.03	3.820
296.24	-0.000
296.45	2.022
296.66	1.730
296.87	1.743
297.09	1.793
297.30	1.993
297.51	1.680
297.72	1.655
297.93	1.733
298.14	1.707
298.35	1.664
298.56	1.643
298.77	1.753
298.99	1.735
299.20	1.727
299.41	1.712
299.62	1.655
299.83	1.635
300.04	1.588
300.25	1.579
300.46	1.606
300.67	1.587
300.88	1.538
301.10	1.533
301.31	1.597
301.52	1.539
301.73	1.487
301.94	1.493
302.15	1.510
302.36	1.463
302.57	1.403
302.78	1.415
302.99	1.450
303.20	1.473
303.41	1.392
303.63	1.372
303.84	1.377
304.05	1.376
304.26	1.319
304.47	1.323
304.68	1.324
304.89	1.317
305.10	1.278
305.31	1.270
305.52	1.310
305.73	1.301
305.94	1.266
306.15	1.258
306.37	1.278
306.58	1.284
306.79	1.258
307.00	1.280
307.21	1.317
307.42	1.313
307.63	1.276
307.84	1.241
308.05	1.277
308.26	1.278
308.47	1.257
308.68	1.254
308.89	1.252
309.10	1.250
309.31	1.210
309.52	1.201
309.73	1.212
309.95	1.206
310.16	1.183
310.37	1.174
310.58	1.192
310.79	1.191
311.00	1.186
311.21	1.187
311.42	1.189
311.63	1.185
311.84	1.171
312.05	1.168
312.26	1.188
312.47	1.196
312.68	1.172
312.89	1.153
313.10	1.160
313.31	1.133
313.52	1.139
313.73	1.139
313.94	1.142
314.15	1.122
314.36	1.104
314.57	1.098
314.78	1.085
314.99	1.079
315.21	1.068
315.42	1.070
315.63	1.083
315.84	1.060
316.05	1.046
316.26	1.051
316.47	1.067
316.68	1.063
316.89	1.045
317.10	1.066
317.31	1.074
317.52	1.073
317.73	1.055
317.94	1.053
318.15	1.093
318.36	1.092
318.57	1.075
318.78	1.061
318.99	1.094
319.20	1.090
319.41	1.056
319.62	1.057
319.83	1.070
320.04	1.067
320.25	1.055
320.46	1.024
320.67	1.028
320.88	1.024
321.09	1.014
321.30	1.001
321.51	1.016
321.72	1.013
321.93	0.996
322.14	0.989
322.35	1.012
322.56	1.014
322.77	1.002
322.98	1.014
323.19	1.023
323.40	1.028
323.61	1.008
323.82	1.003
324.03	1.009
324.24	1.009
324.45	0.996
324.66	0.980
324.87	0.975
325.08	0.976
325.29	0.957
325.50	0.949
325.71	0.955
325.92	0.962
326.13	0.949
326.34	0.949
326.55	0.955
326.76	0.955
326.97	0.944
327.18	0.939
327.39	0.963
327.60	0.965
327.80	0.967
328.01	0.964
328.22	0.964
328.43	0.968
328.64	0.956
328.85	0.961
329.06	0.963
329.27	0.964
329.48	0.959
329.69	0.939
329.90	0.948
330.11	0.941
330.32	0.935
330.53	0.928
330.74	0.928
330.95	0.928
331.16	0.914
331.37	0.922
331.58	0.922
331.79	0.922
332.00	0.916
332.21	0.909
332.42	0.913
332.63	0.904
332.83	0.900
333.04	0.902
333.25	0.914
333.46	0.912
333.67	0.898
333.88	0.899
334.09	0.909
334.30	0.905
334.51	0.897
334.72	0.891
334.93	0.895
335.14	0.893
335.35	0.887
335.56	0.882
335.77	0.891
335.98	0.889
336.18	0.884
336.39	0.877
336.60	0.880
336.81	0.879
337.02	0.878
337.23	0.882
337.44	0.885
337.65	0.886
337.86	0.876
338.07	0.871
338.28	0.876
338.49	0.875
338.70	0.868
338.91	0.876
339.11	0.882
339.32	0.879
339.53	0.868
339.74	0.865
339.95	0.861
340.16	0.860
340.37	0.853
340.58	0.850
340.79	0.853
341.00	0.852
341.21	0.841
341.41	0.841
341.62	0.843
341.83	0.844
342.04	0.839
342.25	0.849
342.46	0.853
342.67	0.852
342.88	0.847
343.09	0.845
343.30	0.853
343.50	0.856
343.71	0.847
343.92	0.846
344.13	0.850
344.34	0.850
344.55	0.834
344.76	0.833
344.97	0.838
345.18	0.836
345.38	0.833
345.59	0.827
345.80	0.825
346.01	0.823
346.22	0.819
346.43	0.813
346.64	0.820
346.85	0.820
347.06	0.812
347.26	0.811
347.47	0.814
347.68	0.810
347.89	0.807
348.10	0.802
348.31	0.808
348.52	0.806
348.73	0.805
348.93	0.803
349.14	0.804
349.35	0.803
349.56	0.799
349.77	0.796
349.98	0.801
350.19	0.799
350.39	0.794
350.60	0.790
350.81	0.805
351.02	0.804
351.23	0.800
351.44	0.803
351.65	0.806
351.86	0.804
352.06	0.802
352.27	0.802
352.48	0.803
352.69	0.803
352.90	0.798
353.11	0.785
353.31	0.793
353.52	0.789
353.73	0.781
353.94	0.782
354.15	0.787
354.36	0.787
354.57	0.778
354.77	0.780
354.98	0.779
355.19	0.779
355.40	0.777
355.61	0.782
355.82	0.787
356.02	0.785
356.23	0.778
356.44	0.780
356.65	0.783
356.86	0.785
357.07	0.779
357.27	0.782
357.48	0.785
357.69	0.781
357.90	0.766
358.11	0.761
358.32	0.765
358.52	0.769
358.73	0.760
358.94	0.762
359.15	0.765
359.36	0.765
359.56	0.761
359.77	0.758
359.98	0.764
360.19	0.765
360.40	0.762
360.61	0.764
360.81	0.762
361.02	0.763
361.23	0.756
361.44	0.754
361.65	0.754
361.85	0.753
362.06	0.751
362.27	0.753
362.48	0.753
362.69	0.755
362.89	0.748
363.10	0.749
363.31	0.753
363.52	0.756
363.73	0.752
363.93	0.752
364.14	0.755
364.35	0.757
364.56	0.746
364.77	0.748
364.97	0.750
365.18	0.751
365.39	0.746
365.60	0.742
365.81	0.743
366.01	0.742
366.22	0.739
366.43	0.738
366.64	0.740
366.84	0.745
367.05	0.742
367.26	0.741
367.47	0.743
367.68	0.743
367.88	0.740
368.09	0.738
368.30	0.740
368.51	0.740
368.71	0.739
368.92	0.743
369.13	0.742
369.34	0.741
369.55	0.740
369.75	0.739
369.96	0.746
370.17	0.745
370.38	0.742
370.58	0.741
370.79	0.747
371.00	0.745
371.21	0.737
371.41	0.741
371.62	0.746
371.83	0.742
372.04	0.740
372.24	0.734
372.45	0.736
372.66	0.737
372.87	0.734
373.07	0.730
373.28	0.732
373.49	0.735
373.70	0.725
373.90	0.724
374.11	0.733
374.32	0.732
374.53	0.731
374.73	0.732
374.94	0.734
375.15	0.735
375.36	0.733
375.56	0.742
375.77	0.741
375.98	0.742
376.19	0.740
376.39	0.734
376.60	0.737
376.81	0.738
377.02	0.736
377.22	0.735
377.43	0.735
377.64	0.735
377.84	0.725
378.05	0.730
378.26	0.736
378.47	0.734
378.67	0.732
378.88	0.730
379.09	0.730
379.30	0.730
379.50	0.728
379.71	0.730
379.92	0.733
380.12	0.732
380.33	0.724
380.54	0.720
380.75	0.728
380.95	0.728
381.16	0.726
381.37	0.726
381.57	0.728
381.78	0.728
381.99	0.728
382.20	0.728
382.40	0.730
382.61	0.730
382.82	0.727
383.02	0.720
383.23	0.723
383.44	0.723
383.64	0.722
383.85	0.724
384.06	0.726
384.27	0.723
384.47	0.722
384.68	0.723
384.89	0.728
385.09	0.727
385.30	0.727
385.51	0.726
385.71	0.729
385.92	0.729
386.13	0.728
386.33	0.730
386.54	0.731
386.75	0.730
386.95	0.726
387.16	0.722
387.37	0.724
387.58	0.724
387.78	0.722
387.99	0.720
388.20	0.722
388.40	0.719
388.61	0.715
388.82	0.719
389.02	0.720
389.23	0.720
389.44	0.719
389.64	0.719
389.85	0.730
390.06	0.730
390.26	0.731
390.47	0.731
390.68	0.733
390.88	0.732
391.09	0.728
391.30	0.728
391.50	0.728
391.71	0.728
391.92	0.727
392.12	0.719
392.33	0.719
392.53	0.718
392.74	0.719
392.95	0.718
393.15	0.720
393.36	0.722
393.57	0.720
393.77	0.723
393.98	0.725
394.19	0.725
394.39	0.724
394.60	0.726
394.81	0.728
395.01	0.725
395.22	0.724
395.43	0.725
395.63	0.729
395.84	0.731
396.04	0.727
396.25	0.729
396.46	0.730
396.66	0.729
396.87	0.726
397.08	0.722
397.28	0.724
397.49	0.725
397.69	0.722
397.90	0.717
398.11	0.718
398.31	0.719
398.52	0.715
398.73	0.716
398.93	0.715
399.14	0.715
399.34	0.715
399.55	0.716
399.76	0.716
399.96	0.717
400.17	0.715
400.37	0.714
400.58	0.720
400.79	0.722
400.99	0.720
401.20	0.726
401.41	0.728
401.61	0.728
401.82	0.734
402.02	0.734
402.23	0.735
402.44	0.735
402.64	0.735
402.85	0.730
403.05	0.729
403.26	0.728
403.47	0.721
403.67	0.720
403.88	0.721
404.08	0.714
404.29	0.713
404.50	0.713
404.70	0.713
404.91	0.712
405.11	0.708
405.32	0.709
405.52	0.709
405.73	0.709
405.94	0.708
406.14	0.711
406.35	0.714
406.55	0.714
406.76	0.711
406.97	0.713
407.17	0.715
407.38	0.714
407.58	0.713
407.79	0.716
407.99	0.718
408.20	0.718
408.41	0.714
408.61	0.712
408.82	0.713
409.02	0.713
409.23	0.710
409.43	0.709
409.64	0.711
409.84	0.711
410.05	0.708
410.26	0.707
410.46	0.706
410.67	0.706
410.87	0.707
411.08	0.709
411.28	0.710
411.49	0.712
411.69	0.709
411.90	0.710
412.11	0.711
412.31	0.712
412.52	0.711
412.72	0.712
412.93	0.712
413.13	0.711
413.34	0.708
413.54	0.710
413.75	0.711
413.95	0.711
414.16	0.708
414.37	0.710
414.57	0.710
414.78	0.712
414.98	0.710
415.19	0.711
415.39	0.708
415.60	0.710
415.80	0.709
416.01	0.707
416.21	0.709
416.42	0.709
416.62	0.705
416.83	0.706
417.03	0.706
417.24	0.705
417.44	0.704
417.65	0.703
417.86	0.703
418.06	0.701
418.27	0.699
418.47	0.700
418.68	0.701
418.88	0.701
419.09	0.700
419.29	0.701
419.50	0.702
419.70	0.702
419.91	0.700
420.11	0.698
420.32	0.701
420.52	0.701
420.73	0.700
420.93	0.701
421.14	0.703
421.34	0.701
421.55	0.697
421.75	0.696
421.96	0.697
422.16	0.698
422.37	0.697
422.57	0.694
422.78	0.696
422.98	0.692
423.19	0.690
423.39	0.688
423.60	0.692
423.80	0.694
424.01	0.693
424.21	0.695
424.42	0.696
424.62	0.696
424.83	0.695
425.03	0.696
425.23	0.697
425.44	0.697
425.64	0.697
425.85	0.696
426.05	0.697
426.26	0.698
426.46	0.694
426.67	0.693
426.87	0.698
427.08	0.698
427.28	0.695
427.49	0.697
427.69	0.697
427.90	0.696
428.10	0.693
428.31	0.693
428.51	0.695
428.71	0.694
428.92	0.695
429.12	0.692
429.33	0.692
429.53	0.696
429.74	0.700
429.94	0.700
430.15	0.700
430.35	0.699
430.56	0.696
430.76	0.695
430.96	0.696
431.17	0.693
431.37	0.690
431.58	0.688
431.78	0.685
431.99	0.678
432.19	0.680
432.40	0.682
432.60	0.683
432.80	0.685
433.01	0.684
433.21	0.684
433.42	0.686
433.62	0.686
433.83	0.686
434.03	0.689
434.23	0.691
434.44	0.690
434.64	0.688
434.85	0.693
435.05	0.694
435.26	0.694
435.46	0.692
435.66	0.693
435.87	0.693
436.07	0.692
436.28	0.688
436.48	0.686
436.69	0.685
436.89	0.686
437.09	0.680
437.30	0.679
437.50	0.679
437.71	0.691
437.91	0.690
438.11	0.691
438.32	0.695
438.52	0.696
438.73	0.695
438.93	0.693
439.13	0.692
439.34	0.695
439.54	0.693
439.75	0.693
439.95	0.683
440.15	0.687
440.36	0.685
440.56	0.682
440.77	0.683
440.97	0.682
441.17	0.681
441.38	0.682
441.58	0.680
441.79	0.679
441.99	0.678
442.19	0.676
442.40	0.674
442.60	0.673
442.81	0.671
443.01	0.671
443.21	0.672
443.42	0.671
443.62	0.670
443.82	0.669
444.03	0.671
444.23	0.670
444.44	0.671
444.64	0.671
444.84	0.672
445.05	0.672
445.25	0.669
445.45	0.670
445.66	0.672
445.86	0.671
446.06	0.672
446.27	0.672
446.47	0.675
446.68	0.672
446.88	0.671
447.08	0.671
447.29	0.673
447.49	0.673
447.69	0.672
447.90	0.671
448.10	0.675
448.30	0.672
448.51	0.673
448.71	0.671
448.91	0.673
449.12	0.672
449.32	0.674
449.52	0.673
449.73	0.676
449.93	0.675
450.14	0.675
450.34	0.675
450.54	0.677
450.75	0.674
450.95	0.674
451.15	0.673
451.36	0.676
451.56	0.673
451.76	0.672
451.97	0.669
452.17	0.669
452.37	0.667
452.58	0.664
452.78	0.663
452.98	0.665
453.19	0.665
453.39	0.665
453.59	0.663
453.79	0.663
454.00	0.663
454.20	0.663
454.40	0.663
454.61	0.666
454.81	0.667
455.01	0.665
455.22	0.664
455.42	0.667
455.62	0.664
455.83	0.664
456.03	0.667
456.23	0.668
456.44	0.669
456.64	0.668
456.84	0.668
457.04	0.668
457.25	0.668
457.45	0.666
457.65	0.664
457.86	0.666
458.06	0.665
458.26	0.660
458.47	0.660
458.67	0.661
458.87	0.660
459.07	0.658
459.28	0.660
459.48	0.662
459.68	0.662
459.89	0.660
460.09	0.658
460.29	0.659
460.49	0.660
460.70	0.659
460.90	0.659
461.10	0.660
461.31	0.660
461.51	0.657
461.71	0.659
461.91	0.660
462.12	0.661
462.32	0.661
462.52	0.662
462.72	0.665
462.93	0.665
463.13	0.664
463.33	0.664
463.53	0.666
463.74	0.665
463.94	0.660
464.14	0.661
464.35	0.662
464.55	0.662
464.75	0.660
464.95	0.657
465.16	0.659
465.36	0.658
465.56	0.656
465.76	0.655
465.97	0.656
466.17	0.657
466.37	0.654
466.57	0.655
466.78	0.656
466.98	0.656
467.18	0.654
467.38	0.652
467.59	0.654
467.79	0.656
467.99	0.655
468.19	0.655
468.39	0.658
468.60	0.658
468.80	0.656
469.00	0.658
469.20	0.659
469.41	0.659
469.61	0.659
469.81	0.659
470.01	0.659
470.22	0.660
470.42	0.659
470.62	0.657
470.82	0.659
471.02	0.658
471.23	0.655
471.43	0.656
471.63	0.658
471.83	0.657
472.04	0.655
472.24	0.654
472.44	0.659
472.64	0.659
472.84	0.657
473.05	0.657
473.25	0.659
473.45	0.659
473.65	0.657
473.85	0.658
474.06	0.660
474.26	0.660
474.46	0.661
474.66	0.657
474.86	0.658
475.07	0.658
475.27	0.656
475.47	0.654
475.67	0.654
475.87	0.656
476.08	0.653
476.28	0.654
476.48	0.655
476.68	0.654
476.88	0.651
477.09	0.652
477.29	0.654
477.49	0.654
477.69	0.653
477.89	0.653
478.09	0.653
478.30	0.655
478.50	0.652
478.70	0.651
478.90	0.652
479.10	0.655
479.31	0.656
479.51	0.654
479.71	0.654
479.91	0.654
480.11	0.653
480.31	0.653
480.52	0.652
480.72	0.652
480.92	0.651
481.12	0.651
481.32	0.648
481.52	0.645
481.72	0.646
481.93	0.649
482.13	0.650
482.33	0.649
482.53	0.647
482.73	0.648
482.93	0.649
483.14	0.648
483.34	0.648
483.54	0.649
483.74	0.648
483.94	0.647
484.14	0.643
484.34	0.644
484.55	0.644
484.75	0.644
484.95	0.643
485.15	0.642
485.35	0.642
485.55	0.642
485.75	0.640
485.96	0.640
486.16	0.642
486.36	0.641
486.56	0.639
486.76	0.639
486.96	0.639
487.16	0.638
487.36	0.636
487.57	0.636
487.77	0.637
487.97	0.638
488.17	0.636
488.37	0.635
488.57	0.636
488.77	0.636
488.97	0.635
489.18	0.634
489.38	0.637
489.58	0.638
489.78	0.637
489.98	0.636
490.18	0.636
490.38	0.637
490.58	0.636
490.78	0.636
490.98	0.638
491.19	0.638
491.39	0.637
491.59	0.636
491.79	0.639
491.99	0.640
492.19	0.639
492.39	0.642
492.59	0.643
492.79	0.644
492.99	0.645
493.20	0.645
493.40	0.645
493.60	0.647
493.80	0.645
494.00	0.643
494.20	0.643
494.40	0.643
494.60	0.640
494.80	0.644
495.00	0.643
495.20	0.641
495.40	0.641
495.61	0.642
495.81	0.641
496.01	0.645
496.21	0.646
496.41	0.645
496.61	0.645
496.81	0.644
497.01	0.640
497.21	0.639
497.41	0.640
497.61	0.639
497.81	0.637
498.01	0.637
498.21	0.635
498.41	0.633
498.61	0.632
498.82	0.634
499.02	0.636
499.22	0.636
499.42	0.635
499.62	0.637
499.82	0.638
500.02	0.640
500.22	0.638
500.42	0.640
500.62	0.640
500.82	0.641
501.02	0.639
501.22	0.639
501.42	0.639
501.62	0.641
501.82	0.640
502.02	0.640
502.22	0.639
502.42	0.640
502.62	0.638
502.82	0.638
503.02	0.639
503.22	0.639
503.42	0.637
503.63	0.637
503.83	0.635
504.03	0.633
504.23	0.632
504.43	0.633
504.63	0.634
504.83	0.634
505.03	0.633
505.23	0.635
505.43	0.636
505.63	0.637
505.83	0.637
506.03	0.638
506.23	0.640
506.43	0.640
506.63	0.640
506.83	0.638
507.03	0.640
507.23	0.641
507.43	0.638
507.63	0.638
507.83	0.639
508.03	0.639
508.23	0.638
508.43	0.637
508.63	0.639
508.83	0.639
509.03	0.640
509.23	0.638
509.43	0.640
509.63	0.640
509.83	0.639
510.03	0.642
510.23	0.643
510.43	0.644
510.63	0.644
510.83	0.644
511.03	0.645
511.23	0.643
511.43	0.643
511.63	0.644
511.83	0.646
512.03	0.646
512.22	0.642
512.42	0.642
512.62	0.642
512.82	0.642
513.02	0.642
513.22	0.641
513.42	0.643
513.62	0.646
513.82	0.643
514.02	0.643
514.22	0.644
514.42	0.644
514.62	0.644
514.82	0.644
515.02	0.647
515.22	0.649
515.42	0.648
515.62	0.651
515.82	0.650
516.02	0.651
516.22	0.651
516.42	0.652
516.62	0.654
516.82	0.656
517.01	0.655
517.21	0.654
517.41	0.657
517.61	0.658
517.81	0.654
518.01	0.653
518.21	0.653
518.41	0.652
518.61	0.651
518.81	0.651
519.01	0.651
519.21	0.651
519.41	0.650
519.61	0.644
519.81	0.646
520.00	0.647
520.20	0.647
520.40	0.650
520.60	0.651
520.80	0.650
521.00	0.650
521.20	0.652
521.40	0.657
521.60	0.657
521.80	0.656
522.00	0.656
522.20	0.659
522.39	0.658
522.59	0.655
522.79	0.657
522.99	0.659
523.19	0.657
523.39	0.654
523.59	0.653
523.79	0.655
523.99	0.658
524.19	0.657
524.38	0.656
524.58	0.657
524.78	0.657
524.98	0.655
525.18	0.658
525.38	0.659
525.58	0.660
525.78	0.657
525.98	0.656
526.18	0.656
526.37	0.655
526.57	0.657
526.77	0.657
526.97	0.657
527.17	0.657
527.37	0.654
527.57	0.656
527.77	0.659
527.96	0.659
528.16	0.658
528.36	0.659
528.56	0.661
528.76	0.659
528.96	0.658
529.16	0.659
529.36	0.662
529.55	0.662
529.75	0.659
529.95	0.658
530.15	0.660
530.35	0.662
530.55	0.660
530.75	0.660
530.94	0.661
531.14	0.661
531.34	0.659
531.54	0.657
531.74	0.660
531.94	0.663
532.13	0.661
532.33	0.662
532.53	0.661
532.73	0.661
532.93	0.660
533.13	0.661
533.33	0.661
533.52	0.662
533.72	0.665
533.92	0.663
534.12	0.662
534.32	0.662
534.52	0.660
534.71	0.662
534.91	0.664
535.11	0.666
535.31	0.664
535.51	0.666
535.71	0.667
535.90	0.664
536.10	0.665
536.30	0.667
536.50	0.667
536.70	0.668
536.89	0.666
537.09	0.666
537.29	0.668
537.49	0.668
537.69	0.666
537.89	0.667
538.08	0.667
538.28	0.666
538.48	0.666
538.68	0.668
538.88	0.669
539.07	0.669
539.27	0.667
539.47	0.666
539.67	0.666
539.87	0.667
540.06	0.665
540.26	0.666
540.46	0.668
540.66	0.665
540.86	0.662
541.05	0.662
541.25	0.664
541.45	0.665
541.65	0.663
541.84	0.666
542.04	0.667
542.24	0.667
542.44	0.666
542.64	0.667
542.83	0.671
543.03	0.672
543.23	0.670
543.43	0.670
543.62	0.672
543.82	0.672
544.02	0.670
544.22	0.670
544.42	0.673
544.61	0.674
544.81	0.670
545.01	0.669
545.21	0.671
545.40	0.671
545.60	0.669
545.80	0.672
546.00	0.672
546.19	0.671
546.39	0.670
546.59	0.667
546.79	0.668
546.98	0.669
547.18	0.668
547.38	0.669
547.58	0.672
547.77	0.672
547.97	0.669
548.17	0.671
548.37	0.671
548.56	0.672
548.76	0.671
548.96	0.673
549.16	0.675
549.35	0.675
549.55	0.673
549.75	0.673
549.95	0.677
550.14	0.677
550.34	0.675
550.54	0.680
550.73	0.683
550.93	0.685
551.13	0.682
551.33	0.680
551.52	0.681
551.72	0.681
551.92	0.679
552.12	0.679
552.31	0.679
552.51	0.679
552.71	0.674
552.90	0.675
553.10	0.675
553.30	0.675
553.50	0.675
553.69	0.676
553.89	0.677
554.09	0.677
554.28	0.674
554.48	0.675
554.68	0.677
554.87	0.677
555.07	0.674
555.27	0.675
555.47	0.676
555.66	0.676
555.86	0.675
556.06	0.676
556.25	0.678
556.45	0.686
556.65	0.683
556.84	0.687
557.04	0.690
557.24	0.691
557.43	0.691
557.63	0.694
557.83	0.695
558.02	0.696
558.22	0.700
558.42	0.701
558.61	0.694
558.81	0.695
559.01	0.691
559.21	0.690
559.40	0.691
559.60	0.691
559.80	0.687
559.99	0.688
560.19	0.690
560.39	0.684
560.58	0.682
560.78	0.682
560.97	0.686
561.17	0.684
561.37	0.682
561.56	0.683
561.76	0.685
561.96	0.685
562.15	0.682
562.35	0.684
562.55	0.685
562.74	0.685
562.94	0.684
563.14	0.682
563.33	0.683
563.53	0.683
563.73	0.680
563.92	0.681
564.12	0.683
564.31	0.686
564.51	0.684
564.71	0.685
564.90	0.688
565.10	0.689
565.30	0.692
565.49	0.693
565.69	0.695
565.89	0.696
566.08	0.694
566.28	0.696
566.47	0.697
566.67	0.696
566.87	0.694
567.06	0.695
567.26	0.701
567.46	0.697
567.65	0.697
567.85	0.699
568.04	0.702
568.24	0.701
568.44	0.698
568.63	0.697
568.83	0.698
569.02	0.697
569.22	0.692
569.42	0.688
569.61	0.690
569.81	0.688
570.00	0.686
570.20	0.687
570.40	0.689
570.59	0.689
570.79	0.686
570.98	0.684
571.18	0.685
571.38	0.686
571.57	0.683
571.77	0.681
571.96	0.685
572.16	0.682
572.35	0.677
572.55	0.677
572.75	0.676
572.94	0.676
573.14	0.674
573.33	0.675
573.53	0.675
573.73	0.674
573.92	0.672
574.12	0.670
574.31	0.673
574.51	0.674
574.70	0.671
574.90	0.673
575.09	0.675
575.29	0.675
575.49	0.672
575.68	0.673
575.88	0.675
576.07	0.676
576.27	0.673
576.46	0.672
576.66	0.671
576.86	0.670
577.05	0.668
577.25	0.666
577.44	0.667
577.64	0.667
577.83	0.665
578.03	0.666
578.22	0.665
578.42	0.665
578.61	0.663
578.81	0.664
579.00	0.664
579.20	0.664
579.40	0.663
579.59	0.662
579.79	0.662
579.98	0.662
580.18	0.661
580.37	0.661
580.57	0.663
580.76	0.668
580.96	0.666
581.15	0.667
581.35	0.669
581.54	0.669
581.74	0.668
581.93	0.670
582.13	0.671
582.32	0.668
582.52	0.666
582.71	0.665
582.91	0.661
583.10	0.661
583.30	0.659
583.49	0.659
583.69	0.662
583.88	0.663
584.08	0.663
584.27	0.665
584.47	0.668
584.66	0.670
584.86	0.668
585.05	0.671
585.25	0.673
585.44	0.673
585.64	0.671
585.83	0.668
586.03	0.668
586.22	0.666
586.42	0.662
586.61	0.663
586.81	0.665
587.00	0.665
587.20	0.663
587.39	0.663
587.59	0.665
587.78	0.666
587.98	0.667
588.17	0.668
588.37	0.671
588.56	0.673
588.76	0.668
588.95	0.668
589.15	0.672
589.34	0.675
589.54	0.673
589.73	0.674
589.92	0.677
590.12	0.677
590.31	0.675
590.51	0.681
590.70	0.683
590.90	0.684
591.09	0.682
591.29	0.680
591.48	0.680
591.68	0.681
591.87	0.679
592.06	0.679
592.26	0.681
592.45	0.681
592.65	0.674
592.84	0.673
593.04	0.676
593.23	0.678
593.43	0.676
593.62	0.675
593.81	0.675
594.01	0.675
594.20	0.672
594.40	0.671
594.59	0.673
594.79	0.674
594.98	0.672
595.17	0.671
595.37	0.672
595.56	0.674
595.76	0.674
595.95	0.675
596.14	0.678
596.34	0.680
596.53	0.679
596.73	0.680
596.92	0.681
597.12	0.684
597.31	0.684
597.50	0.683
597.70	0.685
597.89	0.684
598.09	0.681
598.28	0.682
598.47	0.684
598.67	0.683
598.86	0.679
599.06	0.681
599.25	0.681
599.44	0.679
599.64	0.677
599.83	0.673
600.03	0.677
600.22	0.677
600.41	0.678
600.61	0.676
600.80	0.678
601.00	0.678
601.19	0.674
601.38	0.673
601.58	0.676
601.77	0.677
601.96	0.680
602.16	0.680
602.35	0.688
602.55	0.685
602.74	0.686
602.93	0.688
603.13	0.693
603.32	0.694
603.51	0.694
603.71	0.696
603.90	0.698
604.09	0.698
604.29	0.696
604.48	0.690
604.68	0.691
604.87	0.690
605.06	0.686
605.26	0.683
605.45	0.683
605.64	0.682
605.84	0.678
606.03	0.677
606.22	0.675
606.42	0.674
606.61	0.671
606.80	0.671
607.00	0.673
607.19	0.673
607.38	0.671
607.58	0.673
607.77	0.675
607.96	0.675
608.16	0.674
608.35	0.678
608.54	0.681
608.74	0.684
608.93	0.689
609.12	0.691
609.32	0.693
609.51	0.697
609.70	0.697
609.90	0.698
610.09	0.702
610.28	0.707
610.48	0.701
610.67	0.703
610.86	0.703
611.06	0.698
611.25	0.696
611.44	0.697
611.64	0.697
611.83	0.700
612.02	0.697
612.21	0.696
612.41	0.695
612.60	0.694
612.79	0.690
612.99	0.690
613.18	0.692
613.37	0.690
613.57	0.687
613.76	0.689
613.95	0.686
614.14	0.686
614.34	0.683
614.53	0.684
614.72	0.686
614.92	0.686
615.11	0.683
615.30	0.680
615.49	0.681
615.69	0.683
615.88	0.679
616.07	0.681
616.26	0.683
616.46	0.683
616.65	0.680
616.84	0.679
617.04	0.681
617.23	0.684
617.42	0.685
617.61	0.688
617.81	0.688
618.00	0.689
618.19	0.688
618.38	0.691
618.58	0.695
618.77	0.697
618.96	0.696
619.15	0.698
619.35	0.700
619.54	0.700
619.73	0.696
619.92	0.698
620.12	0.703
620.31	0.704
620.50	0.699
620.69	0.699
620.89	0.702
621.08	0.701
621.27	0.701
621.46	0.700
621.66	0.704
621.85	0.704
622.04	0.701
622.23	0.702
622.43	0.702
622.62	0.701
622.81	0.700
623.00	0.700
623.19	0.704
623.39	0.702
623.58	0.700
623.77	0.698
623.96	0.701
624.16	0.701
624.35	0.695
624.54	0.698
624.73	0.702
624.92	0.700
625.12	0.698
625.31	0.698
625.50	0.701
625.69	0.702
625.88	0.698
626.08	0.697
626.27	0.699
626.46	0.699
626.65	0.696
626.84	0.696
627.04	0.701
627.23	0.701
627.42	0.698
627.61	0.699
627.80	0.702
628.00	0.703
628.19	0.702
628.38	0.705
628.57	0.708
628.76	0.708
628.96	0.704
629.15	0.705
629.34	0.708
629.53	0.708
629.72	0.703
629.91	0.703
630.11	0.707
630.30	0.707
630.49	0.709
630.68	0.709
630.87	0.713
631.06	0.715
631.26	0.710
631.45	0.712
631.64	0.719
631.83	0.721
632.02	0.718
632.21	0.717
632.41	0.725
632.60	0.720
632.79	0.718
632.98	0.719
633.17	0.719
633.36	0.721
633.55	0.718
633.75	0.715
633.94	0.717
634.13	0.716
634.32	0.713
634.51	0.706
634.70	0.708
634.89	0.708
635.09	0.704
635.28	0.705
635.47	0.706
635.66	0.708
635.85	0.704
636.04	0.706
636.23	0.711
636.43	0.713
636.62	0.713
636.81	0.712
637.00	0.715
637.19	0.718
637.38	0.714
637.57	0.714
637.76	0.715
637.95	0.716
638.15	0.712
638.34	0.709
638.53	0.711
638.72	0.712
638.91	0.709
639.10	0.708
639.29	0.708
639.48	0.709
639.67	0.709
639.87	0.709
640.06	0.713
640.25	0.712
640.44	0.713
640.63	0.714
640.82	0.716
641.01	0.715
641.20	0.715
641.39	0.716
641.58	0.719
641.78	0.717
641.97	0.713
642.16	0.726
642.35	0.727
642.54	0.727
642.73	0.721
642.92	0.720
643.11	0.724
643.30	0.724
643.49	0.720
643.68	0.722
643.87	0.723
644.06	0.724
644.25	0.704
644.45	0.707
644.64	0.707
644.83	0.708
645.02	0.706
645.21	0.704
645.40	0.705
645.59	0.704
645.78	0.699
645.97	0.701
646.16	0.702
646.35	0.701
646.54	0.700
646.73	0.701
646.92	0.703
647.11	0.701
647.30	0.698
647.49	0.701
647.68	0.700
647.88	0.699
648.07	0.692
648.26	0.696
648.45	0.697
648.64	0.692
648.83	0.690
649.02	0.692
649.21	0.703
649.40	0.702
649.59	0.697
649.78	0.698
649.97	0.712
650.16	0.712
650.35	0.706
650.54	0.710
650.73	0.718
650.92	0.715
651.11	0.708
651.30	0.706
651.49	0.710
651.68	0.711
651.87	0.708
652.06	0.698
652.25	0.701
652.44	0.704
652.63	0.703
652.82	0.704
653.01	0.704
653.20	0.702
653.39	0.690
653.58	0.688
653.77	0.688
653.96	0.683
654.15	0.676
654.34	0.674
654.53	0.668
654.72	0.662
654.91	0.653
655.10	0.649
655.29	0.647
655.48	0.645
655.67	0.640
655.86	0.637
656.05	0.636
656.24	0.635
656.43	0.630
656.62	0.629
656.81	0.628
657.00	0.625
657.19	0.622
657.38	0.621
657.57	0.620
657.76	0.621
657.95	0.619
658.14	0.621
658.33	0.624
658.51	0.628
658.70	0.628
658.89	0.630
659.08	0.640
659.27	0.647
659.46	0.647
659.65	0.654
659.84	0.658
660.03	0.662
660.22	0.662
660.41	0.666
660.60	0.666
660.79	0.667
660.98	0.673
661.17	0.671
661.36	0.671
661.55	0.673
661.74	0.670
661.92	0.673
662.11	0.675
662.30	0.675
662.49	0.668
662.68	0.668
662.87	0.671
663.06	0.666
663.25	0.667
663.44	0.668
663.63	0.669
663.82	0.668
664.01	0.662
664.20	0.661
664.38	0.661
664.57	0.662
664.76	0.661
664.95	0.662
665.14	0.666
665.33	0.661
665.52	0.667
665.71	0.671
665.90	0.671
666.09	0.673
666.28	0.671
666.46	0.670
666.65	0.670
666.84	0.668
667.03	0.663
667.22	0.661
667.41	0.664
667.60	0.654
667.79	0.647
667.98	0.647
668.16	0.648
668.35	0.648
668.54	0.644
668.73	0.646
668.92	0.648
669.11	0.647
669.30	0.641
669.49	0.637
669.67	0.640
669.86	0.642
670.05	0.639
670.24	0.636
670.43	0.634
670.62	0.633
670.81	0.628
671.00	0.628
671.18	0.628
671.37	0.628
671.56	0.625
671.75	0.624
671.94	0.622
672.13	0.620
672.32	0.616
672.50	0.615
672.69	0.615
672.88	0.615
673.07	0.611
673.26	0.613
673.45	0.613
673.63	0.613
673.82	0.610
674.01	0.610
674.20	0.610
674.39	0.610
674.58	0.609
674.76	0.609
674.95	0.608
675.14	0.608
675.33	0.604
675.52	0.603
675.71	0.603
675.89	0.602
676.08	0.598
676.27	0.598
676.46	0.598
676.65	0.597
676.84	0.597
677.02	0.599
677.21	0.601
677.40	0.599
677.59	0.597
677.78	0.598
677.96	0.601
678.15	0.600
678.34	0.598
678.53	0.599
678.72	0.599
678.90	0.596
679.09	0.592
679.28	0.589
679.47	0.589
679.66	0.588
679.84	0.585
680.03	0.582
680.22	0.581
680.41	0.582
680.60	0.579
680.78	0.579
680.97	0.581
681.16	0.582
681.35	0.581
681.53	0.580
681.72	0.581
681.91	0.583
682.10	0.581
682.29	0.585
682.47	0.582
682.66	0.582
682.85	0.579
683.04	0.577
683.22	0.577
683.41	0.579
683.60	0.577
683.79	0.578
683.97	0.577
684.16	0.576
684.35	0.571
684.54	0.573
684.72	0.573
684.91	0.574
685.10	0.572
685.29	0.573
685.47	0.570
685.66	0.569
685.85	0.566
686.04	0.566
686.22	0.568
686.41	0.572
686.60	0.569
686.79	0.572
686.97	0.573
687.16	0.574
687.35	0.571
687.54	0.574
687.72	0.578
687.91	0.578
688.10	0.580
688.29	0.579
688.47	0.577
688.66	0.577
688.85	0.572
689.03	0.570
689.22	0.575
689.41	0.576
689.60	0.571
689.78	0.568
689.97	0.568
690.16	0.566
690.34	0.563
690.53	0.563
690.72	0.563
690.91	0.561
691.09	0.559
691.28	0.553
691.47	0.551
691.65	0.551
691.84	0.548
692.03	0.547
692.21	0.544
692.40	0.543
692.59	0.541
692.77	0.540
692.96	0.541
693.15	0.542
693.34	0.539
693.52	0.539
693.71	0.539
693.90	0.540
694.08	0.541
694.27	0.541
694.46	0.551
694.64	0.551
694.83	0.550
695.02	0.549
695.20	0.549
695.39	0.549
695.58	0.549
695.76	0.551
695.95	0.550
696.14	0.549
696.32	0.546
696.51	0.537
696.70	0.537
696.88	0.538
697.07	0.537
697.26	0.538
697.44	0.539
697.63	0.538
697.81	0.536
698.00	0.535
698.19	0.535
698.37	0.535
698.56	0.534
698.75	0.534
698.93	0.534
699.12	0.534
699.31	0.533
699.49	0.532
699.68	0.532
699.87	0.535
700.05	0.535
700.24	0.535
700.42	0.536
700.61	0.536
700.80	0.534
700.98	0.534
701.17	0.535
701.36	0.535
701.54	0.534
701.73	0.535
701.91	0.533
702.10	0.532
702.29	0.530
702.47	0.529
702.66	0.531
702.84	0.532
703.03	0.530
703.22	0.531
703.40	0.530
703.59	0.531
703.77	0.531
703.96	0.531
704.15	0.532
704.33	0.533
704.52	0.532
704.70	0.531
704.89	0.530
705.08	0.529
705.26	0.526
705.45	0.526
705.63	0.525
705.82	0.522
706.00	0.521
706.19	0.521
706.38	0.520
706.56	0.520
706.75	0.518
706.93	0.517
707.12	0.519
707.30	0.519
707.49	0.517
707.68	0.515
707.86	0.515
708.05	0.515
708.23	0.512
708.42	0.513
708.60	0.515
708.79	0.514
708.98	0.513
709.16	0.512
709.35	0.513
709.53	0.516
709.72	0.515
709.90	0.517
710.09	0.519
710.27	0.520
710.46	0.524
710.64	0.523
710.83	0.526
711.02	0.527
711.20	0.526
711.39	0.524
711.57	0.523
711.76	0.524
711.94	0.521
712.13	0.522
712.31	0.521
712.50	0.517
712.68	0.514
712.87	0.514
713.05	0.515
713.24	0.515
713.42	0.515
713.61	0.516
713.79	0.516
713.98	0.516
714.16	0.517
714.35	0.517
714.54	0.518
714.72	0.518
714.91	0.516
715.09	0.522
715.28	0.525
715.46	0.525
715.65	0.523
715.83	0.523
716.02	0.526
716.20	0.522
716.39	0.521
716.57	0.522
716.76	0.524
716.94	0.524
717.12	0.516
717.31	0.517
717.49	0.520
717.68	0.522
717.86	0.522
718.05	0.523
718.23	0.525
718.42	0.528
718.60	0.529
718.79	0.537
718.97	0.539
719.16	0.540
719.34	0.538
719.53	0.537
719.71	0.537
719.90	0.539
720.08	0.536
720.27	0.536
720.45	0.536
720.63	0.534
720.82	0.528
721.00	0.531
721.19	0.534
721.37	0.533
721.56	0.534
721.74	0.536
721.93	0.544
722.11	0.551
722.30	0.550
722.48	0.554
722.66	0.556
722.85	0.555
723.03	0.555
723.22	0.553
723.40	0.556
723.59	0.555
723.77	0.560
723.95	0.554
724.14	0.554
724.32	0.556
724.51	0.556
724.69	0.557
724.88	0.557
725.06	0.556
725.24	0.557
725.43	0.559
725.61	0.561
725.80	0.556
725.98	0.554
726.16	0.552
726.35	0.556
726.53	0.556
726.72	0.555
726.90	0.565
727.09	0.565
727.27	0.571
727.45	0.569
727.64	0.577
727.82	0.585
728.01	0.588
728.19	0.586
728.37	0.592
728.56	0.595
728.74	0.601
728.92	0.590
729.11	0.593
729.29	0.590
729.48	0.591
729.66	0.581
729.84	0.581
730.03	0.584
730.21	0.585
730.40	0.576
730.58	0.576
730.76	0.577
730.95	0.580
731.13	0.581
731.31	0.595
731.50	0.604
731.68	0.608
731.86	0.605
732.05	0.618
732.23	0.622
732.42	0.626
732.60	0.630
732.78	0.634
732.97	0.651
733.15	0.656
733.33	0.644
733.52	0.651
733.70	0.661
733.88	0.669
734.07	0.656
734.25	0.682
734.43	0.688
734.62	0.689
734.80	0.685
734.98	0.675
735.17	0.681
735.35	0.688
735.53	0.676
735.72	0.679
735.90	0.699
736.08	0.716
736.27	0.692
736.45	0.700
736.63	0.712
736.82	0.720
737.00	0.722
737.18	0.734
737.37	0.765
737.55	0.786
737.73	0.780
737.92	0.782
738.10	0.780
738.28	0.800
738.46	0.788
738.65	0.798
738.83	0.818
739.01	0.865
739.20	0.851
739.38	0.832
739.56	0.824
739.75	0.828
739.93	0.798
740.11	0.820
740.29	0.819
740.48	0.824
740.66	0.804
740.84	0.799
741.03	0.767
741.21	0.778
741.39	0.760
741.57	0.772
741.76	0.786
741.94	0.795
742.12	0.763
742.31	0.767
742.49	0.789
742.67	0.814
742.85	0.827
743.04	0.831
743.22	0.840
743.40	0.891
743.58	0.874
743.77	0.890
743.95	0.920
744.13	0.966
744.31	0.951
744.50	0.947
744.68	0.942
744.86	0.915
745.04	0.925
745.23	0.980
745.41	0.963
745.59	0.970
745.77	0.937
745.96	0.927
746.14	0.935
746.32	0.933
746.50	0.919
746.69	0.909
746.87	0.918
747.05	0.905
747.23	0.841
747.42	0.827
747.60	0.847
747.78	0.849
747.96	0.871
748.14	0.832
748.33	0.858
748.51	0.852
748.69	0.842
748.87	0.866
749.06	0.859
749.24	0.858
749.42	0.845
749.60	0.832
749.78	0.842
749.97	0.803
750.15	0.799
750.33	0.803
750.51	0.827
750.69	0.831
750.88	0.836
751.06	0.848
751.24	0.869
751.42	0.864
751.60	0.857
751.79	0.922
751.97	0.966
752.15	0.962
752.33	0.928
752.51	0.988
752.69	1.000
752.88	0.973
753.06	1.016
753.24	0.997
753.42	1.025
753.60	1.172
753.78	1.042
753.97	1.058
754.15	1.071
754.33	1.097
754.51	0.984
754.69	0.975
754.87	0.999
755.06	0.936
755.24	0.937
755.42	0.951
755.60	0.857
755.78	0.866
755.96	0.817
756.15	0.816
756.33	0.821
756.51	0.844
756.69	0.832
756.87	0.800
757.05	0.818
757.23	0.805
757.42	0.772
757.60	0.774
757.78	0.765
757.96	0.763
758.14	0.749
758.32	0.735
758.50	0.743
758.69	0.744
758.87	0.736
759.05	0.739
759.23	0.747
759.41	0.748
759.59	0.739
759.77	0.758
759.95	0.782
760.13	0.826
760.32	0.826
760.50	0.820
760.68	0.841
760.86	0.846
761.04	0.822
761.22	0.826
761.40	0.870
761.58	0.875
761.76	0.852
761.95	0.835
762.13	0.795
762.31	0.797
762.49	0.769
762.67	0.785
762.85	0.796
763.03	0.791
763.21	0.773
763.39	0.753
763.57	0.752
763.75	0.747
763.94	0.734
764.12	0.736
764.30	0.754
764.48	0.759
764.66	0.725
764.84	0.723
765.02	0.756
765.20	0.763
765.38	0.747
765.56	0.754
765.74	0.789
765.92	0.790
766.10	0.793
766.28	0.790
766.46	0.812
766.65	0.813
766.83	0.803
767.01	0.788
767.19	0.794
767.37	0.795
767.55	0.782
767.73	0.766
767.91	0.769
768.09	0.760
768.27	0.748
768.45	0.741
768.63	0.746
768.81	0.748
768.99	0.725
769.17	0.750
769.35	0.759
769.53	0.759
769.71	0.741
769.89	0.748
770.07	0.751
770.25	0.735
770.43	0.717
770.61	0.738
770.79	0.740
770.97	0.747
771.15	0.717
771.33	0.722
771.51	0.722
771.69	0.729
771.87	0.738
772.05	0.742
772.24	0.752
772.42	0.760
772.60	0.737
772.78	0.796
772.96	0.822
773.14	0.821
773.32	0.801
773.49	0.809
773.67	0.808
773.85	0.786
774.03	0.777
774.21	0.803
774.39	0.813
774.57	0.837
774.75	0.770
774.93	0.766
775.11	0.782
775.29	0.786
775.47	0.785
775.65	0.794
775.83	0.812
776.01	0.831
776.19	0.790
776.37	0.792
776.55	0.789
776.73	0.785
776.91	0.778
777.09	0.763
777.27	0.762
777.45	0.754
777.63	0.732
777.81	0.727
777.99	0.716
778.17	0.716
778.35	0.697
778.53	0.686
778.71	0.691
778.89	0.682
779.07	0.672
779.24	0.677
779.42	0.678
779.60	0.696
779.78	0.693
779.96	0.696
780.14	0.704
780.32	0.720
780.50	0.706
780.68	0.704
780.86	0.695
781.04	0.712
781.22	0.715
781.40	0.724
781.58	0.715
781.75	0.710
781.93	0.695
782.11	0.694
782.29	0.681
782.47	0.681
782.65	0.671
782.83	0.697
783.01	0.691
783.19	0.684
783.37	0.673
783.55	0.673
783.72	0.689
783.90	0.699
784.08	0.692
784.26	0.702
784.44	0.720
784.62	0.723
784.80	0.693
784.98	0.700
785.16	0.707
785.33	0.718
785.51	0.708
785.69	0.694
785.87	0.692
786.05	0.703
786.23	0.701
786.41	0.698
786.59	0.704
786.77	0.704
786.94	0.691
787.12	0.693
787.30	0.695
787.48	0.692
787.66	0.685
787.84	0.686
788.02	0.676
788.19	0.676
788.37	0.663
788.55	0.666
788.73	0.665
788.91	0.658
789.09	0.642
789.27	0.632
789.44	0.642
789.62	0.646
789.80	0.656
789.98	0.677
790.16	0.663
790.34	0.658
790.51	0.646
790.69	0.666
790.87	0.672
791.05	0.671
791.23	0.667
791.41	0.669
791.58	0.674
791.76	0.654
791.94	0.626
792.12	0.635
792.30	0.638
792.48	0.635
792.65	0.629
792.83	0.635
793.01	0.643
793.19	0.639
793.37	0.623
793.54	0.620
793.72	0.630
793.90	0.629
794.08	0.620
794.26	0.621
794.43	0.630
794.61	0.614
794.79	0.604
794.97	0.601
795.15	0.606
795.32	0.612
795.50	0.603
795.68	0.598
795.86	0.603
796.04	0.604
796.21	0.598
796.39	0.595
796.57	0.609
796.75	0.618
796.92	0.622
797.10	0.628
797.28	0.629
797.46	0.631
797.64	0.633
797.81	0.640
797.99	0.642
798.17	0.648
798.35	0.643
798.52	0.645
798.70	0.640
798.88	0.646
799.06	0.644
799.23	0.647
799.41	0.653
799.59	0.646
799.77	0.637
799.94	0.645
800.12	0.651
800.30	0.667
800.48	0.667
800.65	0.665
800.83	0.655
801.01	0.649
801.19	0.649
801.36	0.647
801.54	0.649
801.72	0.658
801.90	0.647
802.07	0.642
802.25	0.629
802.43	0.614
802.60	0.612
802.78	0.617
802.96	0.620
803.14	0.615
803.31	0.614
803.49	0.615
803.67	0.610
803.84	0.614
804.02	0.606
804.20	0.608
804.38	0.612
804.55	0.612
804.73	0.601
804.91	0.602
805.08	0.613
805.26	0.608
805.44	0.670
805.61	0.674
805.79	0.672
805.97	0.674
806.15	0.669
806.32	0.665
806.50	0.670
806.68	0.671
806.85	0.663
807.03	0.654
807.21	0.668
807.38	0.604
807.56	0.594
807.74	0.605
807.91	0.610
808.09	0.610
808.27	0.628
808.44	0.652
808.62	0.659
808.80	0.659
808.97	0.653
809.15	0.648
809.33	0.662
809.50	0.668
809.68	0.655
809.86	0.662
810.03	0.692
810.21	0.672
810.39	0.658
810.56	0.664
810.74	0.685
810.91	0.754
811.09	0.746
811.27	0.768
811.44	0.774
811.62	0.773
811.80	0.756
811.97	0.728
812.15	0.728
812.33	0.723
812.50	0.711
812.68	0.699
812.85	0.645
813.03	0.647
813.21	0.619
813.38	0.612
813.56	0.616
813.74	0.627
813.91	0.633
814.09	0.661
814.26	0.653
814.44	0.656
814.62	0.649
814.79	0.654
814.97	0.657
815.14	0.659
815.32	0.667
815.50	0.681
815.67	0.683
815.85	0.675
816.02	0.664
816.20	0.671
816.38	0.684
816.55	0.688
816.73	0.687
816.90	0.698
817.08	0.725
817.26	0.727
817.43	0.711
817.61	0.733
817.78	0.750
817.96	0.731
818.13	0.721
818.31	0.722
818.49	0.732
818.66	0.721
818.84	0.708
819.01	0.691
819.19	0.695
819.36	0.695
819.54	0.670
819.71	0.707
819.89	0.719
820.07	0.730
820.24	0.724
820.42	0.725
820.59	0.745
820.77	0.766
820.94	0.756
821.12	0.773
821.29	0.788
821.47	0.788
821.64	0.734
821.82	0.744
822.00	0.743
822.17	0.739
822.35	0.731
822.52	0.732
822.70	0.721
822.87	0.729
823.05	0.708
823.22	0.715
823.40	0.738
823.57	0.758
823.75	0.741
823.92	0.764
824.10	0.783
824.27	0.820
824.45	0.810
824.62	0.862
824.80	0.879
824.97	0.889
825.15	0.882
825.32	0.894
825.50	0.894
825.67	0.904
825.85	0.881
826.02	0.891
826.20	0.907
826.37	1.018
826.55	0.953
826.72	1.105
826.90	1.166
827.07	1.206
827.25	1.159
827.42	1.273
827.60	1.381
827.77	1.503
827.95	1.491
828.12	1.564
828.30	1.313
828.47	1.403
828.65	1.131
828.82	1.176
829.00	1.213
829.17	1.281
829.34	1.277
829.52	1.297
829.69	-0.000
829.87	-0.000
830.04	-0.000
830.22	-0.000
830.39	-0.000
830.57	-0.000
830.74	-0.000
830.92	-0.000
831.09	-0.000
831.26	-0.000
831.44	-0.000
831.61	-0.000
831.79	-0.000
831.96	-0.000
832.14	-0.000
832.31	-0.000
832.49	-0.000
832.66	-0.000
832.83	-0.000
833.01	-0.000
833.18	-0.000
833.36	-0.000
833.53	-0.000
833.70	-0.000
833.88	-0.000
834.05	-0.000
834.23	-0.000
834.40	-0.000
834.58	-0.000
834.75	-0.000
834.92	-0.000
835.10	-0.000
835.27	-0.000
835.45	-0.000
835.62	-0.000
835.79	-0.000
835.97	-0.000
836.14	-0.000
836.32	-0.000
836.49	-0.000
836.66	-0.000
836.84	-0.000
837.01	-0.000
837.18	-0.000
837.36	-0.000
837.53	-0.000
837.71	-0.000
837.88	-0.000
838.05	-0.000
838.23	-0.000
838.40	-0.000
838.58	-0.000
838.75	-0.000
838.92	-0.000
839.10	-0.000
839.27	-0.000
839.44	-0.000
839.62	-0.000
839.79	-0.000
839.96	-0.000
840.14	-0.000
840.31	-0.000
840.48	-0.000
840.66	-0.000
840.83	-0.000
841.01	-0.000
841.18	-0.000
841.35	-0.000
841.53	-0.000
841.70	-0.000
841.87	-0.000
842.05	-0.000
842.22	-0.000
842.39	-0.000
842.57	-0.000
842.74	-0.000
842.91	-0.000
843.09	-0.000
843.26	-0.000
843.43	-0.000
843.60	-0.000
843.78	-0.000
843.95	-0.000
844.12	-0.000
844.30	-0.000
844.47	-0.000
844.64	-0.000
844.82	-0.000
844.99	-0.000
845.16	-0.000
845.34	-0.000
845.51	-0.000
845.68	-0.000
845.85	-0.000
846.03	-0.000
846.20	-0.000
846.37	-0.000
846.55	-0.000
846.72	-0.000
846.89	-0.000
847.06	-0.000
847.24	-0.000
847.41	-0.000
847.58	-0.000
847.76	-0.000
847.93	-0.000
848.10	-0.000
848.27	-0.000
848.45	-0.000
848.62	-0.000
848.79	-0.000
848.97	-0.000
849.14	-0.000
849.31	-0.000
849.48	-0.000
849.66	-0.000
849.83	-0.000
850.00	-0.000
850.17	-0.000
850.35	-0.000
850.52	-0.000
850.69	-0.000
850.86	-0.000
851.04	-0.000
851.21	-0.000
851.38	-0.000
851.55	-0.000
851.72	-0.000
851.90	-0.000
852.07	-0.000
852.24	-0.000
852.41	-0.000
852.59	-0.000
852.76	-0.000
852.93	-0.000
853.10	-0.000
853.28	-0.000
853.45	-0.000
853.62	-0.000
853.79	-0.000
853.96	-0.000
854.14	-0.000
854.31	-0.000
854.48	-0.000
854.65	-0.000
854.82	-0.000
855.00	-0.000
855.17	-0.000
855.34	-0.000
855.51	-0.000
855.68	-0.000
855.86	-0.000
856.03	-0.000
856.20	-0.000
856.37	-0.000
856.54	-0.000
856.72	-0.000
856.89	-0.000
857.06	-0.000
857.23	-0.000
857.40	-0.000
857.57	-0.000
857.75	-0.000
857.92	-0.000
858.09	-0.000
858.26	-0.000
858.43	-0.000
858.60	-0.000
858.78	-0.000
858.95	-0.000
859.12	-0.000
859.29	-0.000
859.46	-0.000
859.63	-0.000
859.81	-0.000
859.98	-0.000
860.15	-0.000
860.32	-0.000
860.49	-0.000
860.66	-0.000
860.83	-0.000
861.01	-0.000
861.18	-0.000
861.35	-0.000
861.52	-0.000
861.69	-0.000
861.86	-0.000
862.03	-0.000
862.21	-0.000
862.38	-0.000
862.55	-0.000
862.72	-0.000
862.89	-0.000
863.06	-0.000
863.23	-0.000
863.40	-0.000
863.58	-0.000
863.75	-0.000
863.92	-0.000
864.09	-0.000
864.26	-0.000
864.43	-0.000
864.60	-0.000
864.77	-0.000
864.94	-0.000
865.11	-0.000
865.29	-0.000
865.46	-0.000
865.63	-0.000
865.80	-0.000
865.97	-0.000
866.14	-0.000
866.31	-0.000
866.48	-0.000
866.65	-0.000
866.82	-0.000
866.99	-0.000
867.16	-0.000
867.34	-0.000
867.51	-0.000
867.68	-0.000
867.85	-0.000
868.02	-0.000
868.19	-0.000
868.36	-0.000
868.53	-0.000
868.70	-0.000
868.87	-0.000
869.04	-0.000
869.21	-0.000
869.38	-0.000
869.55	-0.000
869.72	-0.000
869.89	-0.000
870.06	-0.000
870.24	-0.000
870.41	-0.000
870.58	-0.000
870.75	-0.000
870.92	-0.000
871.09	-0.000
871.26	-0.000
871.43	-0.000
871.60	-0.000
871.77	-0.000
871.94	-0.000
872.11	-0.000
872.28	-0.000
872.45	-0.000
872.62	-0.000
872.79	-0.000
872.96	-0.000
873.13	-0.000
873.30	-0.000
873.47	-0.000
873.64	-0.000
873.81	-0.000
873.98	-0.000
874.15	-0.000
874.32	-0.000
874.49	-0.000
874.66	-0.000
874.83	-0.000
875.00	-0.000
875.17	-0.000
875.34	-0.000
875.51	-0.000
875.68	-0.000
875.85	-0.000
876.02	-0.000
876.19	-0.000
876.36	-0.000
876.53	-0.000
876.70	-0.000
876.87	-0.000
877.04	-0.000
877.21	-0.000
877.38	-0.000
877.55	-0.000
877.72	-0.000
877.89	-0.000
878.06	-0.000
878.23	-0.000
878.39	-0.000
878.56	-0.000
878.73	-0.000
878.90	-0.000
879.07	-0.000
879.24	-0.000
879.41	-0.000
879.58	-0.000
879.75	-0.000
879.92	-0.000
880.09	-0.000
880.26	-0.000
880.43	-0.000
880.60	-0.000
880.77	-0.000
880.94	-0.000
881.11	-0.000
881.27	-0.000
881.44	-0.000
881.61	-0.000
881.78	-0.000
881.95	-0.000
882.12	-0.000
882.29	-0.000
882.46	-0.000
882.63	-0.000
882.80	-0.000
882.97	-0.000
883.14	-0.000
883.30	-0.000
883.47	-0.000
883.64	-0.000
883.81	-0.000
883.98	-0.000
884.15	-0.000
884.32	-0.000
884.49	-0.000
884.66	-0.000
884.82	-0.000
884.99	-0.000
885.16	-0.000
885.33	-0.000
885.50	-0.000
885.67	-0.000
885.84	-0.000
886.01	-0.000
886.17	-0.000
886.34	-0.000
886.51	-0.000
886.68	-0.000
886.85	-0.000
887.02	-0.000
887.19	-0.000
887.36	-0.000
887.52	-0.000
887.69	-0.000
887.86	-0.000
888.03	-0.000
888.20	-0.000
888.37	-0.000
888.54	-0.000
888.70	-0.000
888.87	-0.000
889.04	-0.000
889.21	-0.000
889.38	-0.000
889.55	-0.000
889.71	-0.000
889.88	-0.000
890.05	-0.000
890.22	-0.000
890.39	-0.000
>>>>>End Processed Spectral Data<<<<<
