SpectraSuite Data File
++++++++++++++++++++++++++++++++++++
Date: Fri Jun 19 14:16:48 CEST 2015
User: introlabs
Dark Spectrum Present: Yes
Reference Spectrum Present: Yes
Number of Sampled Component Spectra: 1
Spectrometers: USB4H08886
Integration Time (usec): 745692 (USB4H08886)
Spectra Averaged: 5 (USB4H08886)
Boxcar Smoothing: 5 (USB4H08886)
Correct for Electrical Dark: Yes (USB4H08886)
Strobe/Lamp Enabled: No (USB4H08886)
Correct for Detector Non-linearity: Yes (USB4H08886)
Correct for Stray Light: Yes (USB4H08886)
Number of Pixels in Processed Spectrum: 3648
>>>>>Begin Processed Spectral Data<<<<<
178.14	-0.000
178.36	-0.000
178.57	-0.000
178.79	-0.000
179.01	-0.000
179.22	-0.000
179.44	-0.000
179.65	-0.000
179.87	-0.000
180.08	-0.000
180.30	-0.000
180.52	-0.000
180.73	-0.000
180.95	-0.000
181.16	-0.000
181.38	-0.000
181.59	-0.000
181.81	-0.000
182.03	-0.000
182.24	-0.000
182.46	-0.000
182.67	-0.000
182.89	-0.000
183.10	-0.000
183.32	-0.000
183.54	-0.000
183.75	-0.000
183.97	-0.000
184.18	-0.000
184.40	-0.000
184.61	-0.000
184.83	-0.000
185.04	-0.000
185.26	-0.000
185.48	-0.000
185.69	-0.000
185.91	-0.000
186.12	-0.000
186.34	-0.000
186.55	-0.000
186.77	-0.000
186.98	-0.000
187.20	-0.000
187.42	-0.000
187.63	-0.000
187.85	-0.000
188.06	-0.000
188.28	-0.000
188.49	-0.000
188.71	-0.000
188.92	-0.000
189.14	-0.000
189.36	-0.000
189.57	-0.000
189.79	-0.000
190.00	-0.000
190.22	-0.000
190.43	-0.000
190.65	-0.000
190.86	-0.000
191.08	-0.000
191.29	-0.000
191.51	-0.000
191.72	-0.000
191.94	-0.000
192.16	-0.000
192.37	-0.000
192.59	-0.000
192.80	-0.000
193.02	-0.000
193.23	-0.000
193.45	-0.000
193.66	-0.000
193.88	-0.000
194.09	-0.000
194.31	-0.000
194.52	-0.000
194.74	-0.000
194.95	-0.000
195.17	-0.000
195.38	-0.000
195.60	-0.000
195.81	-0.000
196.03	-0.000
196.25	-0.000
196.46	-0.000
196.68	-0.000
196.89	-0.000
197.11	-0.000
197.32	-0.000
197.54	-0.000
197.75	-0.000
197.97	-0.000
198.18	-0.000
198.40	-0.000
198.61	-0.000
198.83	-0.000
199.04	-0.000
199.26	-0.000
199.47	-0.000
199.69	-0.000
199.90	-0.000
200.12	-0.000
200.33	-0.000
200.55	-0.000
200.76	-0.000
200.98	-0.000
201.19	-0.000
201.41	-0.000
201.62	-0.000
201.84	-0.000
202.05	-0.000
202.27	-0.000
202.48	-0.000
202.70	-0.000
202.91	-0.000
203.13	-0.000
203.34	-0.000
203.56	-0.000
203.77	-0.000
203.99	-0.000
204.20	-0.000
204.42	-0.000
204.63	-0.000
204.85	-0.000
205.06	-0.000
205.28	-0.000
205.49	-0.000
205.71	-0.000
205.92	-0.000
206.14	-0.000
206.35	-0.000
206.56	-0.000
206.78	-0.000
206.99	-0.000
207.21	-0.000
207.42	-0.000
207.64	-0.000
207.85	-0.000
208.07	-0.000
208.28	-0.000
208.50	-0.000
208.71	-0.000
208.93	-0.000
209.14	-0.000
209.36	-0.000
209.57	-0.000
209.79	-0.000
210.00	-0.000
210.22	-0.000
210.43	-0.000
210.64	-0.000
210.86	-0.000
211.07	-0.000
211.29	-0.000
211.50	-0.000
211.72	-0.000
211.93	-0.000
212.15	-0.000
212.36	-0.000
212.58	-0.000
212.79	-0.000
213.01	-0.000
213.22	-0.000
213.43	-0.000
213.65	-0.000
213.86	-0.000
214.08	-0.000
214.29	-0.000
214.51	-0.000
214.72	-0.000
214.94	-0.000
215.15	-0.000
215.36	-0.000
215.58	-0.000
215.79	-0.000
216.01	-0.000
216.22	-0.000
216.44	-0.000
216.65	-0.000
216.87	-0.000
217.08	-0.000
217.29	-0.000
217.51	-0.000
217.72	-0.000
217.94	-0.000
218.15	-0.000
218.37	-0.000
218.58	-0.000
218.80	-0.000
219.01	-0.000
219.22	-0.000
219.44	-0.000
219.65	-0.000
219.87	-0.000
220.08	-0.000
220.30	-0.000
220.51	-0.000
220.72	-0.000
220.94	-0.000
221.15	-0.000
221.37	-0.000
221.58	-0.000
221.79	-0.000
222.01	-0.000
222.22	-0.000
222.44	-0.000
222.65	-0.000
222.87	-0.000
223.08	-0.000
223.29	-0.000
223.51	-0.000
223.72	-0.000
223.94	-0.000
224.15	-0.000
224.36	-0.000
224.58	-0.000
224.79	-0.000
225.01	-0.000
225.22	-0.000
225.44	-0.000
225.65	-0.000
225.86	-0.000
226.08	-0.000
226.29	-0.000
226.51	-0.000
226.72	-0.000
226.93	-0.000
227.15	-0.000
227.36	-0.000
227.58	-0.000
227.79	-0.000
228.00	-0.000
228.22	-0.000
228.43	-0.000
228.65	-0.000
228.86	-0.000
229.07	-0.000
229.29	-0.000
229.50	-0.000
229.72	-0.000
229.93	-0.000
230.14	-0.000
230.36	-0.000
230.57	-0.000
230.78	-0.000
231.00	-0.000
231.21	-0.000
231.43	-0.000
231.64	-0.000
231.85	-0.000
232.07	-0.000
232.28	-0.000
232.50	-0.000
232.71	-0.000
232.92	-0.000
233.14	-0.000
233.35	-0.000
233.56	-0.000
233.78	-0.000
233.99	-0.000
234.21	-0.000
234.42	-0.000
234.63	-0.000
234.85	-0.000
235.06	-0.000
235.27	-0.000
235.49	-0.000
235.70	-0.000
235.91	-0.000
236.13	-0.000
236.34	-0.000
236.56	-0.000
236.77	-0.000
236.98	-0.000
237.20	-0.000
237.41	-0.000
237.62	-0.000
237.84	-0.000
238.05	-0.000
238.26	-0.000
238.48	-0.000
238.69	-0.000
238.91	-0.000
239.12	-0.000
239.33	-0.000
239.55	-0.000
239.76	-0.000
239.97	-0.000
240.19	-0.000
240.40	-0.000
240.61	-0.000
240.83	-0.000
241.04	-0.000
241.25	-0.000
241.47	-0.000
241.68	-0.000
241.89	-0.000
242.11	-0.000
242.32	-0.000
242.53	-0.000
242.75	-0.000
242.96	-0.000
243.17	-0.000
243.39	-0.000
243.60	-0.000
243.81	-0.000
244.03	-0.000
244.24	-0.000
244.45	-0.000
244.67	-0.000
244.88	-0.000
245.09	-0.000
245.31	-0.000
245.52	-0.000
245.73	-0.000
245.95	-0.000
246.16	-0.000
246.37	-0.000
246.59	-0.000
246.80	-0.000
247.01	-0.000
247.23	-0.000
247.44	-0.000
247.65	-0.000
247.87	-0.000
248.08	-0.000
248.29	-0.000
248.51	-0.000
248.72	-0.000
248.93	-0.000
249.15	-0.000
249.36	-0.000
249.57	-0.000
249.78	-0.000
250.00	-0.000
250.21	-0.000
250.42	-0.000
250.64	-0.000
250.85	-0.000
251.06	-0.000
251.28	-0.000
251.49	-0.000
251.70	-0.000
251.92	-0.000
252.13	-0.000
252.34	-0.000
252.55	-0.000
252.77	-0.000
252.98	-0.000
253.19	-0.000
253.41	-0.000
253.62	-0.000
253.83	-0.000
254.05	-0.000
254.26	-0.000
254.47	-0.000
254.68	-0.000
254.90	-0.000
255.11	-0.000
255.32	-0.000
255.54	-0.000
255.75	-0.000
255.96	-0.000
256.17	-0.000
256.39	-0.000
256.60	-0.000
256.81	-0.000
257.03	-0.000
257.24	-0.000
257.45	-0.000
257.66	-0.000
257.88	-0.000
258.09	-0.000
258.30	-0.000
258.51	-0.000
258.73	-0.000
258.94	-0.000
259.15	-0.000
259.37	-0.000
259.58	-0.000
259.79	-0.000
260.00	-0.000
260.22	-0.000
260.43	-0.000
260.64	-0.000
260.85	-0.000
261.07	-0.000
261.28	-0.000
261.49	-0.000
261.71	-0.000
261.92	-0.000
262.13	-0.000
262.34	-0.000
262.56	-0.000
262.77	-0.000
262.98	-0.000
263.19	-0.000
263.41	-0.000
263.62	-0.000
263.83	-0.000
264.04	-0.000
264.26	-0.000
264.47	-0.000
264.68	-0.000
264.89	-0.000
265.11	-0.000
265.32	-0.000
265.53	-0.000
265.74	-0.000
265.96	-0.000
266.17	-0.000
266.38	-0.000
266.59	-0.000
266.81	-0.000
267.02	-0.000
267.23	-0.000
267.44	-0.000
267.65	-0.000
267.87	-0.000
268.08	-0.000
268.29	-0.000
268.50	-0.000
268.72	-0.000
268.93	-0.000
269.14	-0.000
269.35	-0.000
269.57	-0.000
269.78	-0.000
269.99	-0.000
270.20	-0.000
270.41	-0.000
270.63	-0.000
270.84	-0.000
271.05	-0.000
271.26	-0.000
271.48	-0.000
271.69	-0.000
271.90	-0.000
272.11	-0.000
272.32	-0.000
272.54	-0.000
272.75	-0.000
272.96	-0.000
273.17	-0.000
273.39	-0.000
273.60	-0.000
273.81	-0.000
274.02	-0.000
274.23	-0.000
274.45	-0.000
274.66	-0.000
274.87	-0.000
275.08	-0.000
275.29	-0.000
275.51	-0.000
275.72	-0.000
275.93	-0.000
276.14	-0.000
276.35	-0.000
276.57	-0.000
276.78	-0.000
276.99	-0.000
277.20	-0.000
277.41	-0.000
277.63	-0.000
277.84	-0.000
278.05	-0.000
278.26	-0.000
278.47	-0.000
278.69	-0.000
278.90	-0.000
279.11	-0.000
279.32	-0.000
279.53	-0.000
279.74	-0.000
279.96	-0.000
280.17	-0.000
280.38	-0.000
280.59	-0.000
280.80	-0.000
281.02	-0.000
281.23	-0.000
281.44	-0.000
281.65	-0.000
281.86	-0.000
282.07	-0.000
282.29	-0.000
282.50	-0.000
282.71	-0.000
282.92	-0.000
283.13	-0.000
283.35	-0.000
283.56	-0.000
283.77	-0.000
283.98	-0.000
284.19	-0.000
284.40	-0.000
284.62	-0.000
284.83	-0.000
285.04	-0.000
285.25	-0.000
285.46	-0.000
285.67	-0.000
285.88	-0.000
286.10	-0.000
286.31	-0.000
286.52	-0.000
286.73	-0.000
286.94	-0.000
287.15	-0.000
287.37	-0.000
287.58	-0.000
287.79	-0.000
288.00	-0.000
288.21	-0.000
288.42	-0.000
288.63	-0.000
288.85	-0.000
289.06	-0.000
289.27	-0.000
289.48	-0.000
289.69	-0.000
289.90	-0.000
290.11	-0.000
290.33	-0.000
290.54	-0.000
290.75	-0.000
290.96	-0.000
291.17	-0.000
291.38	-0.000
291.59	-0.000
291.81	-0.000
292.02	-0.000
292.23	-0.000
292.44	-0.000
292.65	-0.000
292.86	-0.000
293.07	-0.000
293.28	2.749
293.50	-0.000
293.71	-0.000
293.92	-0.000
294.13	-0.000
294.34	-0.000
294.55	-0.000
294.76	-0.000
294.97	-0.000
295.19	-0.000
295.40	-0.000
295.61	-0.000
295.82	3.838
296.03	2.324
296.24	2.472
296.45	1.854
296.66	1.619
296.87	1.642
297.09	1.703
297.30	1.852
297.51	1.590
297.72	1.561
297.93	1.635
298.14	1.601
298.35	1.569
298.56	1.557
298.77	1.660
298.99	1.642
299.20	1.605
299.41	1.600
299.62	1.561
299.83	1.555
300.04	1.501
300.25	1.490
300.46	1.542
300.67	1.515
300.88	1.466
301.10	1.471
301.31	1.541
301.52	1.492
301.73	1.433
301.94	1.438
302.15	1.454
302.36	1.415
302.57	1.360
302.78	1.364
302.99	1.403
303.20	1.416
303.41	1.334
303.63	1.315
303.84	1.324
304.05	1.323
304.26	1.267
304.47	1.270
304.68	1.275
304.89	1.265
305.10	1.224
305.31	1.211
305.52	1.251
305.73	1.245
305.94	1.211
306.15	1.204
306.37	1.224
306.58	1.233
306.79	1.206
307.00	1.225
307.21	1.264
307.42	1.261
307.63	1.231
307.84	1.200
308.05	1.233
308.26	1.233
308.47	1.212
308.68	1.207
308.89	1.207
309.10	1.203
309.31	1.167
309.52	1.159
309.73	1.170
309.95	1.163
310.16	1.138
310.37	1.129
310.58	1.144
310.79	1.144
311.00	1.138
311.21	1.140
311.42	1.143
311.63	1.138
311.84	1.119
312.05	1.119
312.26	1.142
312.47	1.152
312.68	1.128
312.89	1.114
313.10	1.120
313.31	1.097
313.52	1.094
313.73	1.096
313.94	1.097
314.15	1.081
314.36	1.060
314.57	1.053
314.78	1.042
314.99	1.037
315.21	1.026
315.42	1.030
315.63	1.042
315.84	1.023
316.05	1.009
316.26	1.016
316.47	1.033
316.68	1.030
316.89	1.012
317.10	1.032
317.31	1.038
317.52	1.039
317.73	1.019
317.94	1.019
318.15	1.060
318.36	1.059
318.57	1.045
318.78	1.035
318.99	1.067
319.20	1.065
319.41	1.030
319.62	1.031
319.83	1.043
320.04	1.039
320.25	1.025
320.46	0.995
320.67	0.999
320.88	0.994
321.09	0.982
321.30	0.967
321.51	0.981
321.72	0.981
321.93	0.966
322.14	0.960
322.35	0.985
322.56	0.986
322.77	0.974
322.98	0.983
323.19	0.991
323.40	0.996
323.61	0.978
323.82	0.972
324.03	0.978
324.24	0.975
324.45	0.961
324.66	0.942
324.87	0.940
325.08	0.939
325.29	0.921
325.50	0.916
325.71	0.921
325.92	0.927
326.13	0.915
326.34	0.914
326.55	0.922
326.76	0.922
326.97	0.912
327.18	0.905
327.39	0.929
327.60	0.931
327.80	0.930
328.01	0.929
328.22	0.929
328.43	0.932
328.64	0.921
328.85	0.926
329.06	0.927
329.27	0.928
329.48	0.925
329.69	0.907
329.90	0.917
330.11	0.909
330.32	0.901
330.53	0.894
330.74	0.895
330.95	0.892
331.16	0.878
331.37	0.886
331.58	0.886
331.79	0.886
332.00	0.878
332.21	0.871
332.42	0.877
332.63	0.870
332.83	0.866
333.04	0.868
333.25	0.881
333.46	0.880
333.67	0.867
333.88	0.868
334.09	0.877
334.30	0.875
334.51	0.866
334.72	0.861
334.93	0.865
335.14	0.864
335.35	0.857
335.56	0.851
335.77	0.861
335.98	0.859
336.18	0.853
336.39	0.846
336.60	0.849
336.81	0.848
337.02	0.847
337.23	0.852
337.44	0.855
337.65	0.857
337.86	0.847
338.07	0.842
338.28	0.846
338.49	0.844
338.70	0.838
338.91	0.844
339.11	0.853
339.32	0.849
339.53	0.837
339.74	0.834
339.95	0.831
340.16	0.830
340.37	0.822
340.58	0.821
340.79	0.825
341.00	0.825
341.21	0.814
341.41	0.813
341.62	0.814
341.83	0.815
342.04	0.810
342.25	0.820
342.46	0.825
342.67	0.824
342.88	0.817
343.09	0.816
343.30	0.822
343.50	0.826
343.71	0.817
343.92	0.816
344.13	0.820
344.34	0.820
344.55	0.804
344.76	0.802
344.97	0.806
345.18	0.805
345.38	0.802
345.59	0.797
345.80	0.797
346.01	0.795
346.22	0.791
346.43	0.786
346.64	0.794
346.85	0.794
347.06	0.787
347.26	0.786
347.47	0.790
347.68	0.786
347.89	0.782
348.10	0.777
348.31	0.784
348.52	0.782
348.73	0.779
348.93	0.776
349.14	0.778
349.35	0.779
349.56	0.774
349.77	0.769
349.98	0.775
350.19	0.772
350.39	0.768
350.60	0.764
350.81	0.779
351.02	0.777
351.23	0.772
351.44	0.775
351.65	0.777
351.86	0.775
352.06	0.773
352.27	0.773
352.48	0.774
352.69	0.774
352.90	0.768
353.11	0.756
353.31	0.763
353.52	0.760
353.73	0.753
353.94	0.754
354.15	0.760
354.36	0.760
354.57	0.752
354.77	0.754
354.98	0.753
355.19	0.753
355.40	0.753
355.61	0.758
355.82	0.762
356.02	0.761
356.23	0.755
356.44	0.756
356.65	0.760
356.86	0.760
357.07	0.754
357.27	0.757
357.48	0.760
357.69	0.755
357.90	0.741
358.11	0.737
358.32	0.741
358.52	0.744
358.73	0.734
358.94	0.736
359.15	0.741
359.36	0.741
359.56	0.736
359.77	0.734
359.98	0.741
360.19	0.741
360.40	0.738
360.61	0.739
360.81	0.738
361.02	0.739
361.23	0.731
361.44	0.730
361.65	0.730
361.85	0.729
362.06	0.727
362.27	0.729
362.48	0.728
362.69	0.731
362.89	0.724
363.10	0.725
363.31	0.730
363.52	0.732
363.73	0.728
363.93	0.728
364.14	0.731
364.35	0.732
364.56	0.722
364.77	0.724
364.97	0.725
365.18	0.726
365.39	0.721
365.60	0.718
365.81	0.719
366.01	0.719
366.22	0.716
366.43	0.715
366.64	0.717
366.84	0.723
367.05	0.720
367.26	0.720
367.47	0.723
367.68	0.723
367.88	0.719
368.09	0.718
368.30	0.721
368.51	0.721
368.71	0.720
368.92	0.724
369.13	0.722
369.34	0.721
369.55	0.720
369.75	0.719
369.96	0.726
370.17	0.726
370.38	0.722
370.58	0.722
370.79	0.726
371.00	0.725
371.21	0.717
371.41	0.722
371.62	0.726
371.83	0.722
372.04	0.720
372.24	0.713
372.45	0.715
372.66	0.715
372.87	0.712
373.07	0.709
373.28	0.710
373.49	0.713
373.70	0.704
373.90	0.703
374.11	0.712
374.32	0.711
374.53	0.710
374.73	0.710
374.94	0.713
375.15	0.713
375.36	0.710
375.56	0.719
375.77	0.719
375.98	0.720
376.19	0.718
376.39	0.712
376.60	0.716
376.81	0.716
377.02	0.714
377.22	0.713
377.43	0.713
377.64	0.713
377.84	0.704
378.05	0.709
378.26	0.714
378.47	0.713
378.67	0.710
378.88	0.707
379.09	0.707
379.30	0.707
379.50	0.704
379.71	0.707
379.92	0.709
380.12	0.708
380.33	0.700
380.54	0.697
380.75	0.704
380.95	0.704
381.16	0.702
381.37	0.703
381.57	0.704
381.78	0.705
381.99	0.704
382.20	0.704
382.40	0.707
382.61	0.708
382.82	0.705
383.02	0.698
383.23	0.700
383.44	0.700
383.64	0.698
383.85	0.701
384.06	0.704
384.27	0.703
384.47	0.701
384.68	0.701
384.89	0.707
385.09	0.707
385.30	0.706
385.51	0.706
385.71	0.710
385.92	0.711
386.13	0.709
386.33	0.711
386.54	0.712
386.75	0.711
386.95	0.707
387.16	0.702
387.37	0.705
387.58	0.705
387.78	0.703
387.99	0.700
388.20	0.702
388.40	0.700
388.61	0.695
388.82	0.697
389.02	0.699
389.23	0.699
389.44	0.697
389.64	0.697
389.85	0.708
390.06	0.708
390.26	0.708
390.47	0.707
390.68	0.709
390.88	0.708
391.09	0.704
391.30	0.704
391.50	0.704
391.71	0.704
391.92	0.701
392.12	0.693
392.33	0.694
392.53	0.694
392.74	0.694
392.95	0.694
393.15	0.696
393.36	0.698
393.57	0.696
393.77	0.698
393.98	0.700
394.19	0.701
394.39	0.700
394.60	0.701
394.81	0.703
395.01	0.701
395.22	0.698
395.43	0.700
395.63	0.704
395.84	0.705
396.04	0.701
396.25	0.703
396.46	0.705
396.66	0.703
396.87	0.701
397.08	0.699
397.28	0.701
397.49	0.702
397.69	0.698
397.90	0.694
398.11	0.695
398.31	0.696
398.52	0.692
398.73	0.694
398.93	0.693
399.14	0.691
399.34	0.690
399.55	0.692
399.76	0.693
399.96	0.693
400.17	0.692
400.37	0.691
400.58	0.697
400.79	0.698
400.99	0.696
401.20	0.702
401.41	0.704
401.61	0.705
401.82	0.710
402.02	0.709
402.23	0.711
402.44	0.710
402.64	0.710
402.85	0.704
403.05	0.703
403.26	0.702
403.47	0.696
403.67	0.695
403.88	0.695
404.08	0.689
404.29	0.688
404.50	0.687
404.70	0.687
404.91	0.687
405.11	0.684
405.32	0.685
405.52	0.686
405.73	0.685
405.94	0.683
406.14	0.686
406.35	0.688
406.55	0.688
406.76	0.686
406.97	0.687
407.17	0.690
407.38	0.690
407.58	0.688
407.79	0.691
407.99	0.693
408.20	0.694
408.41	0.690
408.61	0.687
408.82	0.688
409.02	0.688
409.23	0.686
409.43	0.684
409.64	0.685
409.84	0.685
410.05	0.681
410.26	0.679
410.46	0.679
410.67	0.679
410.87	0.681
411.08	0.683
411.28	0.684
411.49	0.686
411.69	0.683
411.90	0.685
412.11	0.687
412.31	0.688
412.52	0.687
412.72	0.687
412.93	0.688
413.13	0.687
413.34	0.683
413.54	0.685
413.75	0.687
413.95	0.686
414.16	0.683
414.37	0.685
414.57	0.686
414.78	0.689
414.98	0.686
415.19	0.687
415.39	0.685
415.60	0.686
415.80	0.686
416.01	0.684
416.21	0.686
416.42	0.685
416.62	0.680
416.83	0.680
417.03	0.680
417.24	0.680
417.44	0.678
417.65	0.677
417.86	0.678
418.06	0.676
418.27	0.673
418.47	0.676
418.68	0.677
418.88	0.678
419.09	0.676
419.29	0.677
419.50	0.678
419.70	0.678
419.91	0.677
420.11	0.674
420.32	0.676
420.52	0.677
420.73	0.675
420.93	0.676
421.14	0.677
421.34	0.676
421.55	0.673
421.75	0.673
421.96	0.673
422.16	0.674
422.37	0.673
422.57	0.671
422.78	0.672
422.98	0.669
423.19	0.667
423.39	0.665
423.60	0.668
423.80	0.670
424.01	0.668
424.21	0.671
424.42	0.672
424.62	0.671
424.83	0.670
425.03	0.671
425.23	0.673
425.44	0.673
425.64	0.674
425.85	0.674
426.05	0.674
426.26	0.674
426.46	0.670
426.67	0.669
426.87	0.674
427.08	0.674
427.28	0.672
427.49	0.672
427.69	0.673
427.90	0.671
428.10	0.668
428.31	0.668
428.51	0.670
428.71	0.669
428.92	0.671
429.12	0.668
429.33	0.669
429.53	0.673
429.74	0.677
429.94	0.677
430.15	0.677
430.35	0.678
430.56	0.675
430.76	0.675
430.96	0.675
431.17	0.673
431.37	0.670
431.58	0.668
431.78	0.665
431.99	0.658
432.19	0.660
432.40	0.661
432.60	0.662
432.80	0.664
433.01	0.662
433.21	0.662
433.42	0.664
433.62	0.664
433.83	0.664
434.03	0.667
434.23	0.670
434.44	0.669
434.64	0.667
434.85	0.672
435.05	0.673
435.26	0.673
435.46	0.672
435.66	0.671
435.87	0.671
436.07	0.671
436.28	0.667
436.48	0.664
436.69	0.663
436.89	0.664
437.09	0.658
437.30	0.657
437.50	0.657
437.71	0.668
437.91	0.667
438.11	0.668
438.32	0.673
438.52	0.673
438.73	0.672
438.93	0.670
439.13	0.670
439.34	0.673
439.54	0.670
439.75	0.670
439.95	0.661
440.15	0.665
440.36	0.664
440.56	0.661
440.77	0.662
440.97	0.662
441.17	0.662
441.38	0.662
441.58	0.660
441.79	0.660
441.99	0.658
442.19	0.657
442.40	0.655
442.60	0.655
442.81	0.652
443.01	0.653
443.21	0.653
443.42	0.652
443.62	0.651
443.82	0.650
444.03	0.652
444.23	0.652
444.44	0.652
444.64	0.651
444.84	0.653
445.05	0.652
445.25	0.650
445.45	0.650
445.66	0.653
445.86	0.652
446.06	0.653
446.27	0.653
446.47	0.656
446.68	0.654
446.88	0.653
447.08	0.652
447.29	0.654
447.49	0.654
447.69	0.653
447.90	0.652
448.10	0.656
448.30	0.653
448.51	0.654
448.71	0.652
448.91	0.654
449.12	0.653
449.32	0.655
449.52	0.654
449.73	0.658
449.93	0.657
450.14	0.657
450.34	0.656
450.54	0.659
450.75	0.656
450.95	0.655
451.15	0.655
451.36	0.657
451.56	0.654
451.76	0.653
451.97	0.650
452.17	0.651
452.37	0.649
452.58	0.646
452.78	0.645
452.98	0.648
453.19	0.648
453.39	0.648
453.59	0.647
453.79	0.648
454.00	0.648
454.20	0.647
454.40	0.648
454.61	0.650
454.81	0.651
455.01	0.649
455.22	0.649
455.42	0.651
455.62	0.649
455.83	0.649
456.03	0.652
456.23	0.652
456.44	0.653
456.64	0.652
456.84	0.652
457.04	0.653
457.25	0.652
457.45	0.649
457.65	0.648
457.86	0.649
458.06	0.648
458.26	0.643
458.47	0.644
458.67	0.645
458.87	0.645
459.07	0.643
459.28	0.644
459.48	0.647
459.68	0.647
459.89	0.646
460.09	0.644
460.29	0.645
460.49	0.646
460.70	0.645
460.90	0.645
461.10	0.646
461.31	0.645
461.51	0.643
461.71	0.644
461.91	0.645
462.12	0.645
462.32	0.645
462.52	0.646
462.72	0.649
462.93	0.649
463.13	0.646
463.33	0.647
463.53	0.648
463.74	0.648
463.94	0.643
464.14	0.644
464.35	0.645
464.55	0.645
464.75	0.643
464.95	0.640
465.16	0.643
465.36	0.642
465.56	0.641
465.76	0.641
465.97	0.642
466.17	0.643
466.37	0.640
466.57	0.642
466.78	0.643
466.98	0.643
467.18	0.640
467.38	0.639
467.59	0.640
467.79	0.642
467.99	0.640
468.19	0.641
468.39	0.644
468.60	0.645
468.80	0.642
469.00	0.644
469.20	0.645
469.41	0.645
469.61	0.645
469.81	0.645
470.01	0.644
470.22	0.644
470.42	0.643
470.62	0.641
470.82	0.642
471.02	0.642
471.23	0.640
471.43	0.640
471.63	0.643
471.83	0.642
472.04	0.641
472.24	0.641
472.44	0.645
472.64	0.645
472.84	0.643
473.05	0.642
473.25	0.645
473.45	0.644
473.65	0.643
473.85	0.643
474.06	0.645
474.26	0.645
474.46	0.646
474.66	0.643
474.86	0.644
475.07	0.644
475.27	0.642
475.47	0.640
475.67	0.641
475.87	0.642
476.08	0.639
476.28	0.640
476.48	0.641
476.68	0.639
476.88	0.637
477.09	0.638
477.29	0.640
477.49	0.641
477.69	0.639
477.89	0.639
478.09	0.639
478.30	0.641
478.50	0.639
478.70	0.638
478.90	0.638
479.10	0.641
479.31	0.642
479.51	0.640
479.71	0.641
479.91	0.641
480.11	0.640
480.31	0.639
480.52	0.638
480.72	0.638
480.92	0.637
481.12	0.636
481.32	0.634
481.52	0.632
481.72	0.632
481.93	0.635
482.13	0.636
482.33	0.635
482.53	0.634
482.73	0.634
482.93	0.635
483.14	0.635
483.34	0.634
483.54	0.635
483.74	0.634
483.94	0.633
484.14	0.629
484.34	0.629
484.55	0.630
484.75	0.630
484.95	0.628
485.15	0.628
485.35	0.628
485.55	0.627
485.75	0.625
485.96	0.626
486.16	0.628
486.36	0.627
486.56	0.626
486.76	0.625
486.96	0.626
487.16	0.625
487.36	0.623
487.57	0.623
487.77	0.624
487.97	0.625
488.17	0.623
488.37	0.622
488.57	0.623
488.77	0.623
488.97	0.622
489.18	0.622
489.38	0.625
489.58	0.625
489.78	0.624
489.98	0.624
490.18	0.624
490.38	0.625
490.58	0.623
490.78	0.624
490.98	0.625
491.19	0.625
491.39	0.624
491.59	0.623
491.79	0.626
491.99	0.626
492.19	0.626
492.39	0.629
492.59	0.629
492.79	0.631
492.99	0.631
493.20	0.631
493.40	0.631
493.60	0.633
493.80	0.631
494.00	0.629
494.20	0.629
494.40	0.629
494.60	0.627
494.80	0.631
495.00	0.630
495.20	0.629
495.40	0.627
495.61	0.629
495.81	0.629
496.01	0.633
496.21	0.633
496.41	0.632
496.61	0.633
496.81	0.631
497.01	0.626
497.21	0.626
497.41	0.626
497.61	0.626
497.81	0.623
498.01	0.624
498.21	0.621
498.41	0.619
498.61	0.620
498.82	0.621
499.02	0.623
499.22	0.624
499.42	0.623
499.62	0.625
499.82	0.626
500.02	0.627
500.22	0.625
500.42	0.627
500.62	0.628
500.82	0.628
501.02	0.627
501.22	0.627
501.42	0.627
501.62	0.629
501.82	0.628
502.02	0.628
502.22	0.628
502.42	0.630
502.62	0.628
502.82	0.628
503.02	0.628
503.22	0.628
503.42	0.626
503.63	0.626
503.83	0.624
504.03	0.623
504.23	0.621
504.43	0.622
504.63	0.623
504.83	0.622
505.03	0.621
505.23	0.622
505.43	0.624
505.63	0.625
505.83	0.625
506.03	0.627
506.23	0.629
506.43	0.630
506.63	0.628
506.83	0.627
507.03	0.629
507.23	0.630
507.43	0.627
507.63	0.627
507.83	0.628
508.03	0.628
508.23	0.627
508.43	0.625
508.63	0.627
508.83	0.628
509.03	0.629
509.23	0.628
509.43	0.629
509.63	0.629
509.83	0.628
510.03	0.630
510.23	0.631
510.43	0.632
510.63	0.632
510.83	0.632
511.03	0.634
511.23	0.631
511.43	0.631
511.63	0.632
511.83	0.634
512.03	0.634
512.22	0.632
512.42	0.631
512.62	0.632
512.82	0.632
513.02	0.631
513.22	0.631
513.42	0.632
513.62	0.635
513.82	0.632
514.02	0.632
514.22	0.634
514.42	0.634
514.62	0.634
514.82	0.634
515.02	0.637
515.22	0.639
515.42	0.638
515.62	0.641
515.82	0.640
516.02	0.642
516.22	0.641
516.42	0.642
516.62	0.644
516.82	0.645
517.01	0.643
517.21	0.643
517.41	0.647
517.61	0.647
517.81	0.643
518.01	0.642
518.21	0.641
518.41	0.640
518.61	0.639
518.81	0.640
519.01	0.640
519.21	0.641
519.41	0.639
519.61	0.634
519.81	0.636
520.00	0.637
520.20	0.637
520.40	0.641
520.60	0.643
520.80	0.641
521.00	0.642
521.20	0.643
521.40	0.647
521.60	0.648
521.80	0.647
522.00	0.647
522.20	0.650
522.39	0.649
522.59	0.646
522.79	0.647
522.99	0.649
523.19	0.647
523.39	0.644
523.59	0.643
523.79	0.645
523.99	0.648
524.19	0.647
524.38	0.645
524.58	0.648
524.78	0.648
524.98	0.646
525.18	0.649
525.38	0.650
525.58	0.650
525.78	0.648
525.98	0.646
526.18	0.646
526.37	0.645
526.57	0.647
526.77	0.647
526.97	0.647
527.17	0.647
527.37	0.643
527.57	0.645
527.77	0.648
527.96	0.648
528.16	0.646
528.36	0.648
528.56	0.650
528.76	0.647
528.96	0.646
529.16	0.647
529.36	0.650
529.55	0.651
529.75	0.647
529.95	0.647
530.15	0.648
530.35	0.651
530.55	0.649
530.75	0.649
530.94	0.651
531.14	0.651
531.34	0.649
531.54	0.647
531.74	0.650
531.94	0.653
532.13	0.651
532.33	0.653
532.53	0.652
532.73	0.652
532.93	0.650
533.13	0.651
533.33	0.651
533.52	0.652
533.72	0.655
533.92	0.653
534.12	0.652
534.32	0.652
534.52	0.650
534.71	0.652
534.91	0.654
535.11	0.656
535.31	0.654
535.51	0.656
535.71	0.658
535.90	0.655
536.10	0.656
536.30	0.658
536.50	0.659
536.70	0.658
536.89	0.656
537.09	0.656
537.29	0.657
537.49	0.659
537.69	0.656
537.89	0.657
538.08	0.657
538.28	0.655
538.48	0.655
538.68	0.657
538.88	0.659
539.07	0.659
539.27	0.657
539.47	0.656
539.67	0.656
539.87	0.658
540.06	0.656
540.26	0.656
540.46	0.659
540.66	0.656
540.86	0.654
541.05	0.654
541.25	0.657
541.45	0.656
541.65	0.656
541.84	0.657
542.04	0.658
542.24	0.658
542.44	0.657
542.64	0.659
542.83	0.661
543.03	0.661
543.23	0.659
543.43	0.659
543.62	0.661
543.82	0.660
544.02	0.660
544.22	0.660
544.42	0.663
544.61	0.663
544.81	0.659
545.01	0.658
545.21	0.661
545.40	0.662
545.60	0.660
545.80	0.663
546.00	0.663
546.19	0.662
546.39	0.661
546.59	0.658
546.79	0.660
546.98	0.660
547.18	0.660
547.38	0.660
547.58	0.663
547.77	0.663
547.97	0.659
548.17	0.661
548.37	0.662
548.56	0.662
548.76	0.662
548.96	0.664
549.16	0.667
549.35	0.666
549.55	0.664
549.75	0.664
549.95	0.668
550.14	0.668
550.34	0.666
550.54	0.671
550.73	0.675
550.93	0.676
551.13	0.672
551.33	0.671
551.52	0.672
551.72	0.673
551.92	0.671
552.12	0.671
552.31	0.672
552.51	0.671
552.71	0.666
552.90	0.666
553.10	0.666
553.30	0.666
553.50	0.665
553.69	0.667
553.89	0.667
554.09	0.667
554.28	0.664
554.48	0.665
554.68	0.667
554.87	0.668
555.07	0.665
555.27	0.665
555.47	0.668
555.66	0.668
555.86	0.666
556.06	0.668
556.25	0.670
556.45	0.677
556.65	0.676
556.84	0.678
557.04	0.682
557.24	0.683
557.43	0.682
557.63	0.685
557.83	0.686
558.02	0.686
558.22	0.691
558.42	0.691
558.61	0.684
558.81	0.684
559.01	0.680
559.21	0.680
559.40	0.681
559.60	0.681
559.80	0.678
559.99	0.679
560.19	0.682
560.39	0.676
560.58	0.673
560.78	0.674
560.97	0.678
561.17	0.677
561.37	0.674
561.56	0.675
561.76	0.677
561.96	0.676
562.15	0.673
562.35	0.675
562.55	0.677
562.74	0.677
562.94	0.675
563.14	0.673
563.33	0.674
563.53	0.675
563.73	0.673
563.92	0.675
564.12	0.678
564.31	0.680
564.51	0.678
564.71	0.679
564.90	0.682
565.10	0.683
565.30	0.686
565.49	0.687
565.69	0.688
565.89	0.688
566.08	0.685
566.28	0.687
566.47	0.688
566.67	0.686
566.87	0.684
567.06	0.686
567.26	0.692
567.46	0.688
567.65	0.687
567.85	0.688
568.04	0.691
568.24	0.689
568.44	0.686
568.63	0.685
568.83	0.687
569.02	0.685
569.22	0.680
569.42	0.676
569.61	0.679
569.81	0.677
570.00	0.675
570.20	0.676
570.40	0.678
570.59	0.678
570.79	0.676
570.98	0.674
571.18	0.675
571.38	0.675
571.57	0.672
571.77	0.670
571.96	0.674
572.16	0.671
572.35	0.666
572.55	0.668
572.75	0.666
572.94	0.666
573.14	0.665
573.33	0.665
573.53	0.665
573.73	0.665
573.92	0.663
574.12	0.661
574.31	0.664
574.51	0.664
574.70	0.661
574.90	0.663
575.09	0.664
575.29	0.665
575.49	0.662
575.68	0.663
575.88	0.664
576.07	0.665
576.27	0.663
576.46	0.662
576.66	0.661
576.86	0.661
577.05	0.658
577.25	0.657
577.44	0.658
577.64	0.658
577.83	0.656
578.03	0.658
578.22	0.657
578.42	0.656
578.61	0.654
578.81	0.655
579.00	0.655
579.20	0.655
579.40	0.654
579.59	0.653
579.79	0.653
579.98	0.652
580.18	0.652
580.37	0.652
580.57	0.655
580.76	0.659
580.96	0.657
581.15	0.658
581.35	0.660
581.54	0.660
581.74	0.659
581.93	0.661
582.13	0.663
582.32	0.660
582.52	0.659
582.71	0.658
582.91	0.654
583.10	0.654
583.30	0.653
583.49	0.652
583.69	0.656
583.88	0.656
584.08	0.655
584.27	0.657
584.47	0.660
584.66	0.661
584.86	0.659
585.05	0.661
585.25	0.663
585.44	0.663
585.64	0.661
585.83	0.658
586.03	0.659
586.22	0.657
586.42	0.654
586.61	0.656
586.81	0.658
587.00	0.659
587.20	0.656
587.39	0.656
587.59	0.659
587.78	0.660
587.98	0.660
588.17	0.661
588.37	0.663
588.56	0.665
588.76	0.661
588.95	0.661
589.15	0.665
589.34	0.668
589.54	0.666
589.73	0.667
589.92	0.670
590.12	0.670
590.31	0.667
590.51	0.673
590.70	0.675
590.90	0.675
591.09	0.673
591.29	0.672
591.48	0.672
591.68	0.673
591.87	0.671
592.06	0.670
592.26	0.673
592.45	0.672
592.65	0.666
592.84	0.665
593.04	0.668
593.23	0.669
593.43	0.667
593.62	0.666
593.81	0.667
594.01	0.667
594.20	0.664
594.40	0.663
594.59	0.665
594.79	0.666
594.98	0.664
595.17	0.663
595.37	0.664
595.56	0.666
595.76	0.665
595.95	0.666
596.14	0.669
596.34	0.671
596.53	0.668
596.73	0.670
596.92	0.672
597.12	0.674
597.31	0.674
597.50	0.674
597.70	0.676
597.89	0.675
598.09	0.671
598.28	0.673
598.47	0.676
598.67	0.675
598.86	0.671
599.06	0.673
599.25	0.673
599.44	0.671
599.64	0.669
599.83	0.667
600.03	0.670
600.22	0.671
600.41	0.670
600.61	0.668
600.80	0.670
601.00	0.670
601.19	0.666
601.38	0.664
601.58	0.666
601.77	0.667
601.96	0.669
602.16	0.669
602.35	0.678
602.55	0.675
602.74	0.676
602.93	0.677
603.13	0.683
603.32	0.685
603.51	0.684
603.71	0.688
603.90	0.689
604.09	0.690
604.29	0.688
604.48	0.682
604.68	0.684
604.87	0.683
605.06	0.679
605.26	0.675
605.45	0.676
605.64	0.675
605.84	0.670
606.03	0.669
606.22	0.667
606.42	0.667
606.61	0.663
606.80	0.663
607.00	0.665
607.19	0.666
607.38	0.664
607.58	0.666
607.77	0.669
607.96	0.669
608.16	0.667
608.35	0.672
608.54	0.675
608.74	0.678
608.93	0.683
609.12	0.686
609.32	0.689
609.51	0.692
609.70	0.691
609.90	0.693
610.09	0.698
610.28	0.703
610.48	0.696
610.67	0.697
610.86	0.698
611.06	0.691
611.25	0.689
611.44	0.689
611.64	0.688
611.83	0.691
612.02	0.687
612.21	0.686
612.41	0.685
612.60	0.685
612.79	0.681
612.99	0.681
613.18	0.684
613.37	0.682
613.57	0.679
613.76	0.682
613.95	0.679
614.14	0.679
614.34	0.675
614.53	0.676
614.72	0.679
614.92	0.679
615.11	0.676
615.30	0.673
615.49	0.675
615.69	0.677
615.88	0.673
616.07	0.674
616.26	0.677
616.46	0.679
616.65	0.676
616.84	0.675
617.04	0.677
617.23	0.680
617.42	0.681
617.61	0.684
617.81	0.685
618.00	0.687
618.19	0.686
618.38	0.689
618.58	0.692
618.77	0.693
618.96	0.692
619.15	0.693
619.35	0.695
619.54	0.695
619.73	0.690
619.92	0.692
620.12	0.696
620.31	0.697
620.50	0.692
620.69	0.692
620.89	0.695
621.08	0.696
621.27	0.695
621.46	0.694
621.66	0.699
621.85	0.698
622.04	0.695
622.23	0.695
622.43	0.696
622.62	0.696
622.81	0.695
623.00	0.694
623.19	0.698
623.39	0.697
623.58	0.694
623.77	0.692
623.96	0.695
624.16	0.695
624.35	0.689
624.54	0.692
624.73	0.696
624.92	0.694
625.12	0.691
625.31	0.692
625.50	0.696
625.69	0.697
625.88	0.694
626.08	0.694
626.27	0.695
626.46	0.696
626.65	0.693
626.84	0.693
627.04	0.697
627.23	0.697
627.42	0.693
627.61	0.694
627.80	0.697
628.00	0.697
628.19	0.695
628.38	0.699
628.57	0.702
628.76	0.701
628.96	0.697
629.15	0.699
629.34	0.702
629.53	0.702
629.72	0.696
629.91	0.696
630.11	0.701
630.30	0.701
630.49	0.703
630.68	0.703
630.87	0.707
631.06	0.709
631.26	0.705
631.45	0.705
631.64	0.713
631.83	0.716
632.02	0.713
632.21	0.712
632.41	0.720
632.60	0.714
632.79	0.712
632.98	0.713
633.17	0.714
633.36	0.715
633.55	0.711
633.75	0.707
633.94	0.709
634.13	0.709
634.32	0.706
634.51	0.700
634.70	0.702
634.89	0.702
635.09	0.698
635.28	0.699
635.47	0.701
635.66	0.704
635.85	0.700
636.04	0.701
636.23	0.706
636.43	0.708
636.62	0.707
636.81	0.706
637.00	0.709
637.19	0.712
637.38	0.708
637.57	0.708
637.76	0.710
637.95	0.711
638.15	0.708
638.34	0.704
638.53	0.707
638.72	0.709
638.91	0.707
639.10	0.704
639.29	0.704
639.48	0.705
639.67	0.705
639.87	0.703
640.06	0.709
640.25	0.709
640.44	0.710
640.63	0.710
640.82	0.713
641.01	0.713
641.20	0.711
641.39	0.713
641.58	0.716
641.78	0.714
641.97	0.711
642.16	0.724
642.35	0.723
642.54	0.723
642.73	0.717
642.92	0.715
643.11	0.719
643.30	0.719
643.49	0.714
643.68	0.717
643.87	0.719
644.06	0.719
644.25	0.698
644.45	0.701
644.64	0.702
644.83	0.703
645.02	0.700
645.21	0.699
645.40	0.700
645.59	0.700
645.78	0.694
645.97	0.696
646.16	0.697
646.35	0.698
646.54	0.695
646.73	0.697
646.92	0.698
647.11	0.697
647.30	0.693
647.49	0.696
647.68	0.696
647.88	0.694
648.07	0.687
648.26	0.690
648.45	0.692
648.64	0.689
648.83	0.686
649.02	0.689
649.21	0.699
649.40	0.698
649.59	0.693
649.78	0.694
649.97	0.709
650.16	0.708
650.35	0.702
650.54	0.704
650.73	0.713
650.92	0.709
651.11	0.702
651.30	0.699
651.49	0.704
651.68	0.704
651.87	0.700
652.06	0.689
652.25	0.693
652.44	0.696
652.63	0.693
652.82	0.692
653.01	0.692
653.20	0.691
653.39	0.679
653.58	0.677
653.77	0.677
653.96	0.672
654.15	0.665
654.34	0.663
654.53	0.659
654.72	0.653
654.91	0.644
655.10	0.641
655.29	0.639
655.48	0.637
655.67	0.632
655.86	0.629
656.05	0.628
656.24	0.627
656.43	0.622
656.62	0.620
656.81	0.621
657.00	0.619
657.19	0.616
657.38	0.616
657.57	0.616
657.76	0.618
657.95	0.616
658.14	0.620
658.33	0.622
658.51	0.627
658.70	0.628
658.89	0.630
659.08	0.639
659.27	0.646
659.46	0.646
659.65	0.652
659.84	0.656
660.03	0.658
660.22	0.659
660.41	0.663
660.60	0.663
660.79	0.664
660.98	0.669
661.17	0.669
661.36	0.668
661.55	0.668
661.74	0.665
661.92	0.668
662.11	0.671
662.30	0.669
662.49	0.662
662.68	0.661
662.87	0.666
663.06	0.660
663.25	0.660
663.44	0.660
663.63	0.662
663.82	0.661
664.01	0.657
664.20	0.655
664.38	0.656
664.57	0.658
664.76	0.657
664.95	0.657
665.14	0.662
665.33	0.658
665.52	0.665
665.71	0.668
665.90	0.667
666.09	0.668
666.28	0.665
666.46	0.664
666.65	0.665
666.84	0.663
667.03	0.658
667.22	0.655
667.41	0.658
667.60	0.647
667.79	0.640
667.98	0.642
668.16	0.644
668.35	0.643
668.54	0.639
668.73	0.640
668.92	0.641
669.11	0.641
669.30	0.635
669.49	0.631
669.67	0.633
669.86	0.636
670.05	0.633
670.24	0.631
670.43	0.629
670.62	0.628
670.81	0.623
671.00	0.625
671.18	0.624
671.37	0.624
671.56	0.622
671.75	0.621
671.94	0.618
672.13	0.616
672.32	0.611
672.50	0.611
672.69	0.611
672.88	0.612
673.07	0.607
673.26	0.609
673.45	0.610
673.63	0.610
673.82	0.606
674.01	0.607
674.20	0.607
674.39	0.606
674.58	0.605
674.76	0.605
674.95	0.604
675.14	0.603
675.33	0.599
675.52	0.597
675.71	0.597
675.89	0.597
676.08	0.593
676.27	0.593
676.46	0.594
676.65	0.594
676.84	0.593
677.02	0.595
677.21	0.598
677.40	0.597
677.59	0.594
677.78	0.595
677.96	0.598
678.15	0.597
678.34	0.594
678.53	0.594
678.72	0.594
678.90	0.591
679.09	0.586
679.28	0.583
679.47	0.583
679.66	0.583
679.84	0.579
680.03	0.577
680.22	0.576
680.41	0.578
680.60	0.574
680.78	0.573
680.97	0.576
681.16	0.576
681.35	0.575
681.53	0.574
681.72	0.575
681.91	0.577
682.10	0.576
682.29	0.578
682.47	0.575
682.66	0.575
682.85	0.574
683.04	0.571
683.22	0.572
683.41	0.573
683.60	0.572
683.79	0.572
683.97	0.572
684.16	0.570
684.35	0.567
684.54	0.568
684.72	0.568
684.91	0.570
685.10	0.568
685.29	0.568
685.47	0.566
685.66	0.565
685.85	0.562
686.04	0.561
686.22	0.564
686.41	0.566
686.60	0.563
686.79	0.566
686.97	0.566
687.16	0.568
687.35	0.565
687.54	0.569
687.72	0.573
687.91	0.573
688.10	0.575
688.29	0.574
688.47	0.572
688.66	0.572
688.85	0.569
689.03	0.567
689.22	0.571
689.41	0.572
689.60	0.567
689.78	0.563
689.97	0.564
690.16	0.561
690.34	0.557
690.53	0.557
690.72	0.557
690.91	0.555
691.09	0.552
691.28	0.547
691.47	0.544
691.65	0.543
691.84	0.541
692.03	0.540
692.21	0.538
692.40	0.538
692.59	0.535
692.77	0.534
692.96	0.536
693.15	0.537
693.34	0.535
693.52	0.535
693.71	0.536
693.90	0.537
694.08	0.537
694.27	0.538
694.46	0.548
694.64	0.549
694.83	0.548
695.02	0.547
695.20	0.546
695.39	0.546
695.58	0.546
695.76	0.546
695.95	0.545
696.14	0.545
696.32	0.543
696.51	0.534
696.70	0.533
696.88	0.534
697.07	0.533
697.26	0.534
697.44	0.535
697.63	0.534
697.81	0.532
698.00	0.532
698.19	0.532
698.37	0.532
698.56	0.531
698.75	0.531
698.93	0.531
699.12	0.531
699.31	0.530
699.49	0.529
699.68	0.530
699.87	0.532
700.05	0.532
700.24	0.532
700.42	0.533
700.61	0.532
700.80	0.530
700.98	0.530
701.17	0.532
701.36	0.531
701.54	0.530
701.73	0.531
701.91	0.529
702.10	0.529
702.29	0.527
702.47	0.525
702.66	0.527
702.84	0.528
703.03	0.526
703.22	0.527
703.40	0.527
703.59	0.529
703.77	0.528
703.96	0.528
704.15	0.528
704.33	0.528
704.52	0.528
704.70	0.527
704.89	0.527
705.08	0.526
705.26	0.522
705.45	0.522
705.63	0.521
705.82	0.519
706.00	0.517
706.19	0.517
706.38	0.517
706.56	0.517
706.75	0.514
706.93	0.513
707.12	0.514
707.30	0.515
707.49	0.512
707.68	0.510
707.86	0.509
708.05	0.510
708.23	0.507
708.42	0.507
708.60	0.510
708.79	0.511
708.98	0.509
709.16	0.509
709.35	0.511
709.53	0.515
709.72	0.513
709.90	0.516
710.09	0.517
710.27	0.519
710.46	0.522
710.64	0.520
710.83	0.522
711.02	0.524
711.20	0.523
711.39	0.521
711.57	0.519
711.76	0.520
711.94	0.518
712.13	0.518
712.31	0.518
712.50	0.514
712.68	0.511
712.87	0.511
713.05	0.512
713.24	0.513
713.42	0.511
713.61	0.512
713.79	0.513
713.98	0.513
714.16	0.514
714.35	0.514
714.54	0.514
714.72	0.514
714.91	0.512
715.09	0.517
715.28	0.521
715.46	0.521
715.65	0.518
715.83	0.519
716.02	0.521
716.20	0.517
716.39	0.517
716.57	0.518
716.76	0.521
716.94	0.522
717.12	0.514
717.31	0.515
717.49	0.518
717.68	0.520
717.86	0.518
718.05	0.521
718.23	0.523
718.42	0.525
718.60	0.526
718.79	0.533
718.97	0.536
719.16	0.536
719.34	0.534
719.53	0.535
719.71	0.535
719.90	0.536
720.08	0.532
720.27	0.533
720.45	0.533
720.63	0.532
720.82	0.526
721.00	0.529
721.19	0.533
721.37	0.531
721.56	0.531
721.74	0.534
721.93	0.543
722.11	0.550
722.30	0.549
722.48	0.553
722.66	0.554
722.85	0.554
723.03	0.553
723.22	0.551
723.40	0.555
723.59	0.554
723.77	0.557
723.95	0.550
724.14	0.551
724.32	0.552
724.51	0.551
724.69	0.553
724.88	0.554
725.06	0.552
725.24	0.552
725.43	0.555
725.61	0.557
725.80	0.551
725.98	0.550
726.16	0.547
726.35	0.552
726.53	0.552
726.72	0.551
726.90	0.559
727.09	0.560
727.27	0.566
727.45	0.563
727.64	0.572
727.82	0.582
728.01	0.585
728.19	0.582
728.37	0.588
728.56	0.592
728.74	0.597
728.92	0.586
729.11	0.589
729.29	0.588
729.48	0.588
729.66	0.577
729.84	0.577
730.03	0.581
730.21	0.582
730.40	0.573
730.58	0.573
730.76	0.573
730.95	0.575
731.13	0.575
731.31	0.588
731.50	0.599
731.68	0.602
731.86	0.596
732.05	0.610
732.23	0.615
732.42	0.618
732.60	0.622
732.78	0.628
732.97	0.646
733.15	0.651
733.33	0.639
733.52	0.645
733.70	0.656
733.88	0.665
734.07	0.651
734.25	0.675
734.43	0.683
734.62	0.684
734.80	0.678
734.98	0.669
735.17	0.677
735.35	0.682
735.53	0.670
735.72	0.673
735.90	0.694
736.08	0.714
736.27	0.690
736.45	0.698
736.63	0.711
736.82	0.721
737.00	0.722
737.18	0.734
737.37	0.766
737.55	0.789
737.73	0.784
737.92	0.786
738.10	0.784
738.28	0.803
738.46	0.791
738.65	0.806
738.83	0.826
739.01	0.876
739.20	0.863
739.38	0.847
739.56	0.838
739.75	0.840
739.93	0.808
740.11	0.832
740.29	0.832
740.48	0.838
740.66	0.817
740.84	0.812
741.03	0.781
741.21	0.792
741.39	0.770
741.57	0.782
741.76	0.796
741.94	0.802
742.12	0.767
742.31	0.771
742.49	0.793
742.67	0.812
742.85	0.826
743.04	0.825
743.22	0.833
743.40	0.886
743.58	0.865
743.77	0.880
743.95	0.910
744.13	0.952
744.31	0.936
744.50	0.929
744.68	0.932
744.86	0.908
745.04	0.920
745.23	0.982
745.41	0.963
745.59	0.974
745.77	0.938
745.96	0.929
746.14	0.945
746.32	0.939
746.50	0.928
746.69	0.909
746.87	0.917
747.05	0.907
747.23	0.835
747.42	0.823
747.60	0.847
747.78	0.853
747.96	0.881
748.14	0.836
748.33	0.862
748.51	0.856
748.69	0.846
748.87	0.875
749.06	0.869
749.24	0.869
749.42	0.856
749.60	0.840
749.78	0.846
749.97	0.803
750.15	0.796
750.33	0.800
750.51	0.828
750.69	0.836
750.88	0.838
751.06	0.846
751.24	0.872
751.42	0.861
751.60	0.853
751.79	0.924
751.97	0.970
752.15	0.974
752.33	0.938
752.51	0.990
752.69	1.008
752.88	0.977
753.06	1.020
753.24	0.998
753.42	1.036
753.60	1.192
753.78	1.050
753.97	1.064
754.15	1.076
754.33	1.108
754.51	1.002
754.69	0.985
754.87	1.017
755.06	0.945
755.24	0.943
755.42	0.947
755.60	0.859
755.78	0.868
755.96	0.817
756.15	0.817
756.33	0.821
756.51	0.837
756.69	0.826
756.87	0.789
757.05	0.810
757.23	0.794
757.42	0.765
757.60	0.764
757.78	0.757
757.96	0.756
758.14	0.738
758.32	0.725
758.50	0.736
758.69	0.734
758.87	0.728
759.05	0.735
759.23	0.746
759.41	0.747
759.59	0.738
759.77	0.757
759.95	0.785
760.13	0.833
760.32	0.832
760.50	0.828
760.68	0.853
760.86	0.855
761.04	0.824
761.22	0.829
761.40	0.877
761.58	0.880
761.76	0.852
761.95	0.838
762.13	0.796
762.31	0.793
762.49	0.766
762.67	0.778
762.85	0.790
763.03	0.786
763.21	0.767
763.39	0.747
763.57	0.747
763.75	0.742
763.94	0.727
764.12	0.729
764.30	0.754
764.48	0.756
764.66	0.723
764.84	0.722
765.02	0.756
765.20	0.763
765.38	0.745
765.56	0.754
765.74	0.792
765.92	0.792
766.10	0.797
766.28	0.789
766.46	0.816
766.65	0.816
766.83	0.803
767.01	0.791
767.19	0.798
767.37	0.798
767.55	0.782
767.73	0.762
767.91	0.766
768.09	0.756
768.27	0.747
768.45	0.739
768.63	0.749
768.81	0.751
768.99	0.724
769.17	0.749
769.35	0.765
769.53	0.765
769.71	0.747
769.89	0.755
770.07	0.759
770.25	0.744
770.43	0.720
770.61	0.740
770.79	0.744
770.97	0.755
771.15	0.724
771.33	0.723
771.51	0.725
771.69	0.735
771.87	0.743
772.05	0.751
772.24	0.758
772.42	0.769
772.60	0.746
772.78	0.806
772.96	0.832
773.14	0.827
773.32	0.808
773.49	0.816
773.67	0.814
773.85	0.790
774.03	0.778
774.21	0.806
774.39	0.816
774.57	0.840
774.75	0.769
774.93	0.767
775.11	0.791
775.29	0.794
775.47	0.792
775.65	0.804
775.83	0.822
776.01	0.844
776.19	0.800
776.37	0.803
776.55	0.805
776.73	0.802
776.91	0.794
777.09	0.775
777.27	0.777
777.45	0.767
777.63	0.745
777.81	0.742
777.99	0.729
778.17	0.729
778.35	0.706
778.53	0.693
778.71	0.698
778.89	0.686
779.07	0.675
779.24	0.679
779.42	0.682
779.60	0.701
779.78	0.696
779.96	0.701
780.14	0.708
780.32	0.726
780.50	0.711
780.68	0.712
780.86	0.706
781.04	0.727
781.22	0.732
781.40	0.742
781.58	0.732
781.75	0.725
781.93	0.709
782.11	0.711
782.29	0.698
782.47	0.695
782.65	0.683
782.83	0.711
783.01	0.702
783.19	0.694
783.37	0.679
783.55	0.682
783.72	0.699
783.90	0.710
784.08	0.700
784.26	0.712
784.44	0.733
784.62	0.734
784.80	0.702
784.98	0.707
785.16	0.714
785.33	0.727
785.51	0.714
785.69	0.699
785.87	0.698
786.05	0.709
786.23	0.705
786.41	0.703
786.59	0.710
786.77	0.710
786.94	0.698
787.12	0.702
787.30	0.703
787.48	0.699
787.66	0.688
787.84	0.688
788.02	0.679
788.19	0.676
788.37	0.660
788.55	0.660
788.73	0.660
788.91	0.654
789.09	0.636
789.27	0.628
789.44	0.640
789.62	0.649
789.80	0.658
789.98	0.682
790.16	0.670
790.34	0.669
790.51	0.657
790.69	0.678
790.87	0.684
791.05	0.682
791.23	0.674
791.41	0.675
791.58	0.681
791.76	0.661
791.94	0.630
792.12	0.638
792.30	0.640
792.48	0.638
792.65	0.630
792.83	0.637
793.01	0.646
793.19	0.643
793.37	0.628
793.54	0.624
793.72	0.636
793.90	0.636
794.08	0.628
794.26	0.631
794.43	0.640
794.61	0.625
794.79	0.613
794.97	0.610
795.15	0.618
795.32	0.622
795.50	0.612
795.68	0.605
795.86	0.609
796.04	0.609
796.21	0.602
796.39	0.600
796.57	0.614
796.75	0.623
796.92	0.624
797.10	0.627
797.28	0.630
797.46	0.632
797.64	0.633
797.81	0.640
797.99	0.645
798.17	0.650
798.35	0.644
798.52	0.647
798.70	0.643
798.88	0.651
799.06	0.650
799.23	0.655
799.41	0.665
799.59	0.658
799.77	0.648
799.94	0.656
800.12	0.664
800.30	0.682
800.48	0.680
800.65	0.679
800.83	0.667
801.01	0.660
801.19	0.656
801.36	0.654
801.54	0.657
801.72	0.663
801.90	0.648
802.07	0.644
802.25	0.630
802.43	0.615
802.60	0.611
802.78	0.620
802.96	0.625
803.14	0.620
803.31	0.616
803.49	0.618
803.67	0.617
803.84	0.621
804.02	0.613
804.20	0.615
804.38	0.621
804.55	0.621
804.73	0.606
804.91	0.606
805.08	0.617
805.26	0.614
805.44	0.675
805.61	0.678
805.79	0.679
805.97	0.679
806.15	0.670
806.32	0.664
806.50	0.671
806.68	0.671
806.85	0.662
807.03	0.654
807.21	0.672
807.38	0.606
807.56	0.597
807.74	0.607
807.91	0.614
808.09	0.617
808.27	0.636
808.44	0.660
808.62	0.670
808.80	0.671
808.97	0.666
809.15	0.658
809.33	0.674
809.50	0.681
809.68	0.667
809.86	0.675
810.03	0.706
810.21	0.685
810.39	0.666
810.56	0.674
810.74	0.698
810.91	0.770
811.09	0.759
811.27	0.782
811.44	0.789
811.62	0.789
811.80	0.772
811.97	0.744
812.15	0.743
812.33	0.741
812.50	0.722
812.68	0.710
812.85	0.656
813.03	0.658
813.21	0.627
813.38	0.620
813.56	0.625
813.74	0.635
813.91	0.642
814.09	0.670
814.26	0.663
814.44	0.668
814.62	0.657
814.79	0.659
814.97	0.665
815.14	0.669
815.32	0.674
815.50	0.689
815.67	0.692
815.85	0.679
816.02	0.669
816.20	0.676
816.38	0.689
816.55	0.694
816.73	0.693
816.90	0.704
817.08	0.732
817.26	0.737
817.43	0.717
817.61	0.739
817.78	0.760
817.96	0.742
818.13	0.730
818.31	0.732
818.49	0.746
818.66	0.737
818.84	0.724
819.01	0.703
819.19	0.711
819.36	0.713
819.54	0.683
819.71	0.724
819.89	0.736
820.07	0.750
820.24	0.743
820.42	0.744
820.59	0.759
820.77	0.782
820.94	0.772
821.12	0.787
821.29	0.802
821.47	0.804
821.64	0.741
821.82	0.756
822.00	0.755
822.17	0.751
822.35	0.741
822.52	0.745
822.70	0.733
822.87	0.740
823.05	0.719
823.22	0.728
823.40	0.758
823.57	0.780
823.75	0.758
823.92	0.778
824.10	0.800
824.27	0.836
824.45	0.825
824.62	0.881
824.80	0.899
824.97	0.920
825.15	0.910
825.32	0.917
825.50	0.919
825.67	0.929
825.85	0.908
826.02	0.924
826.20	0.950
826.37	1.070
826.55	0.995
826.72	1.179
826.90	1.235
827.07	1.288
827.25	1.228
827.42	1.369
827.60	1.515
827.77	1.701
827.95	1.627
828.12	1.706
828.30	1.367
828.47	1.446
828.65	1.139
828.82	1.175
829.00	1.220
829.17	1.286
829.34	1.275
829.52	1.296
829.69	-0.000
829.87	-0.000
830.04	-0.000
830.22	-0.000
830.39	-0.000
830.57	-0.000
830.74	-0.000
830.92	-0.000
831.09	-0.000
831.26	-0.000
831.44	-0.000
831.61	-0.000
831.79	-0.000
831.96	-0.000
832.14	-0.000
832.31	-0.000
832.49	-0.000
832.66	-0.000
832.83	-0.000
833.01	-0.000
833.18	-0.000
833.36	-0.000
833.53	-0.000
833.70	-0.000
833.88	-0.000
834.05	-0.000
834.23	-0.000
834.40	-0.000
834.58	-0.000
834.75	-0.000
834.92	-0.000
835.10	-0.000
835.27	-0.000
835.45	-0.000
835.62	-0.000
835.79	-0.000
835.97	-0.000
836.14	-0.000
836.32	-0.000
836.49	-0.000
836.66	-0.000
836.84	-0.000
837.01	-0.000
837.18	-0.000
837.36	-0.000
837.53	-0.000
837.71	-0.000
837.88	-0.000
838.05	-0.000
838.23	-0.000
838.40	-0.000
838.58	-0.000
838.75	-0.000
838.92	-0.000
839.10	-0.000
839.27	-0.000
839.44	-0.000
839.62	-0.000
839.79	-0.000
839.96	-0.000
840.14	-0.000
840.31	-0.000
840.48	-0.000
840.66	-0.000
840.83	-0.000
841.01	-0.000
841.18	-0.000
841.35	-0.000
841.53	-0.000
841.70	-0.000
841.87	-0.000
842.05	-0.000
842.22	-0.000
842.39	-0.000
842.57	-0.000
842.74	-0.000
842.91	-0.000
843.09	-0.000
843.26	-0.000
843.43	-0.000
843.60	-0.000
843.78	-0.000
843.95	-0.000
844.12	-0.000
844.30	-0.000
844.47	-0.000
844.64	-0.000
844.82	-0.000
844.99	-0.000
845.16	-0.000
845.34	-0.000
845.51	-0.000
845.68	-0.000
845.85	-0.000
846.03	-0.000
846.20	-0.000
846.37	-0.000
846.55	-0.000
846.72	-0.000
846.89	-0.000
847.06	-0.000
847.24	-0.000
847.41	-0.000
847.58	-0.000
847.76	-0.000
847.93	-0.000
848.10	-0.000
848.27	-0.000
848.45	-0.000
848.62	-0.000
848.79	-0.000
848.97	-0.000
849.14	-0.000
849.31	-0.000
849.48	-0.000
849.66	-0.000
849.83	-0.000
850.00	-0.000
850.17	-0.000
850.35	-0.000
850.52	-0.000
850.69	-0.000
850.86	-0.000
851.04	-0.000
851.21	-0.000
851.38	-0.000
851.55	-0.000
851.72	-0.000
851.90	-0.000
852.07	-0.000
852.24	-0.000
852.41	-0.000
852.59	-0.000
852.76	-0.000
852.93	-0.000
853.10	-0.000
853.28	-0.000
853.45	-0.000
853.62	-0.000
853.79	-0.000
853.96	-0.000
854.14	-0.000
854.31	-0.000
854.48	-0.000
854.65	-0.000
854.82	-0.000
855.00	-0.000
855.17	-0.000
855.34	-0.000
855.51	-0.000
855.68	-0.000
855.86	-0.000
856.03	-0.000
856.20	-0.000
856.37	-0.000
856.54	-0.000
856.72	-0.000
856.89	-0.000
857.06	-0.000
857.23	-0.000
857.40	-0.000
857.57	-0.000
857.75	-0.000
857.92	-0.000
858.09	-0.000
858.26	-0.000
858.43	-0.000
858.60	-0.000
858.78	-0.000
858.95	-0.000
859.12	-0.000
859.29	-0.000
859.46	-0.000
859.63	-0.000
859.81	-0.000
859.98	-0.000
860.15	-0.000
860.32	-0.000
860.49	-0.000
860.66	-0.000
860.83	-0.000
861.01	-0.000
861.18	-0.000
861.35	-0.000
861.52	-0.000
861.69	-0.000
861.86	-0.000
862.03	-0.000
862.21	-0.000
862.38	-0.000
862.55	-0.000
862.72	-0.000
862.89	-0.000
863.06	-0.000
863.23	-0.000
863.40	-0.000
863.58	-0.000
863.75	-0.000
863.92	-0.000
864.09	-0.000
864.26	-0.000
864.43	-0.000
864.60	-0.000
864.77	-0.000
864.94	-0.000
865.11	-0.000
865.29	-0.000
865.46	-0.000
865.63	-0.000
865.80	-0.000
865.97	-0.000
866.14	-0.000
866.31	-0.000
866.48	-0.000
866.65	-0.000
866.82	-0.000
866.99	-0.000
867.16	-0.000
867.34	-0.000
867.51	-0.000
867.68	-0.000
867.85	-0.000
868.02	-0.000
868.19	-0.000
868.36	-0.000
868.53	-0.000
868.70	-0.000
868.87	-0.000
869.04	-0.000
869.21	-0.000
869.38	-0.000
869.55	-0.000
869.72	-0.000
869.89	-0.000
870.06	-0.000
870.24	-0.000
870.41	-0.000
870.58	-0.000
870.75	-0.000
870.92	-0.000
871.09	-0.000
871.26	-0.000
871.43	-0.000
871.60	-0.000
871.77	-0.000
871.94	-0.000
872.11	-0.000
872.28	-0.000
872.45	-0.000
872.62	-0.000
872.79	-0.000
872.96	-0.000
873.13	-0.000
873.30	-0.000
873.47	-0.000
873.64	-0.000
873.81	-0.000
873.98	-0.000
874.15	-0.000
874.32	-0.000
874.49	-0.000
874.66	-0.000
874.83	-0.000
875.00	-0.000
875.17	-0.000
875.34	-0.000
875.51	-0.000
875.68	-0.000
875.85	-0.000
876.02	-0.000
876.19	-0.000
876.36	-0.000
876.53	-0.000
876.70	-0.000
876.87	-0.000
877.04	-0.000
877.21	-0.000
877.38	-0.000
877.55	-0.000
877.72	-0.000
877.89	-0.000
878.06	-0.000
878.23	-0.000
878.39	-0.000
878.56	-0.000
878.73	-0.000
878.90	-0.000
879.07	-0.000
879.24	-0.000
879.41	-0.000
879.58	-0.000
879.75	-0.000
879.92	-0.000
880.09	-0.000
880.26	-0.000
880.43	-0.000
880.60	-0.000
880.77	-0.000
880.94	-0.000
881.11	-0.000
881.27	-0.000
881.44	-0.000
881.61	-0.000
881.78	-0.000
881.95	-0.000
882.12	-0.000
882.29	-0.000
882.46	-0.000
882.63	-0.000
882.80	-0.000
882.97	-0.000
883.14	-0.000
883.30	-0.000
883.47	-0.000
883.64	-0.000
883.81	-0.000
883.98	-0.000
884.15	-0.000
884.32	-0.000
884.49	-0.000
884.66	-0.000
884.82	-0.000
884.99	-0.000
885.16	-0.000
885.33	-0.000
885.50	-0.000
885.67	-0.000
885.84	-0.000
886.01	-0.000
886.17	-0.000
886.34	-0.000
886.51	-0.000
886.68	-0.000
886.85	-0.000
887.02	-0.000
887.19	-0.000
887.36	-0.000
887.52	-0.000
887.69	-0.000
887.86	-0.000
888.03	-0.000
888.20	-0.000
888.37	-0.000
888.54	-0.000
888.70	-0.000
888.87	-0.000
889.04	-0.000
889.21	-0.000
889.38	-0.000
889.55	-0.000
889.71	-0.000
889.88	-0.000
890.05	-0.000
890.22	-0.000
890.39	-0.000
>>>>>End Processed Spectral Data<<<<<
