SpectraSuite Data File
++++++++++++++++++++++++++++++++++++
Date: Fri Jun 19 15:39:31 CEST 2015
User: introlabs
Dark Spectrum Present: Yes
Reference Spectrum Present: Yes
Number of Sampled Component Spectra: 1
Spectrometers: USB4H08886
Integration Time (usec): 745692 (USB4H08886)
Spectra Averaged: 5 (USB4H08886)
Boxcar Smoothing: 5 (USB4H08886)
Correct for Electrical Dark: Yes (USB4H08886)
Strobe/Lamp Enabled: No (USB4H08886)
Correct for Detector Non-linearity: Yes (USB4H08886)
Correct for Stray Light: Yes (USB4H08886)
Number of Pixels in Processed Spectrum: 3648
>>>>>Begin Processed Spectral Data<<<<<
178.14	-0.000
178.36	-0.000
178.57	-0.000
178.79	-0.000
179.01	-0.000
179.22	-0.000
179.44	-0.000
179.65	-0.000
179.87	-0.000
180.08	-0.000
180.30	-0.000
180.52	-0.000
180.73	-0.000
180.95	-0.000
181.16	-0.000
181.38	-0.000
181.59	-0.000
181.81	-0.000
182.03	-0.000
182.24	-0.000
182.46	-0.000
182.67	-0.000
182.89	-0.000
183.10	-0.000
183.32	-0.000
183.54	-0.000
183.75	-0.000
183.97	-0.000
184.18	-0.000
184.40	-0.000
184.61	-0.000
184.83	-0.000
185.04	-0.000
185.26	-0.000
185.48	-0.000
185.69	-0.000
185.91	-0.000
186.12	-0.000
186.34	-0.000
186.55	-0.000
186.77	-0.000
186.98	-0.000
187.20	-0.000
187.42	-0.000
187.63	-0.000
187.85	-0.000
188.06	-0.000
188.28	-0.000
188.49	-0.000
188.71	-0.000
188.92	-0.000
189.14	-0.000
189.36	-0.000
189.57	-0.000
189.79	-0.000
190.00	-0.000
190.22	-0.000
190.43	-0.000
190.65	-0.000
190.86	-0.000
191.08	-0.000
191.29	-0.000
191.51	-0.000
191.72	-0.000
191.94	-0.000
192.16	-0.000
192.37	-0.000
192.59	-0.000
192.80	-0.000
193.02	-0.000
193.23	-0.000
193.45	-0.000
193.66	-0.000
193.88	-0.000
194.09	-0.000
194.31	-0.000
194.52	-0.000
194.74	-0.000
194.95	-0.000
195.17	-0.000
195.38	-0.000
195.60	-0.000
195.81	-0.000
196.03	-0.000
196.25	-0.000
196.46	-0.000
196.68	-0.000
196.89	-0.000
197.11	-0.000
197.32	-0.000
197.54	-0.000
197.75	-0.000
197.97	-0.000
198.18	-0.000
198.40	-0.000
198.61	-0.000
198.83	-0.000
199.04	-0.000
199.26	-0.000
199.47	-0.000
199.69	-0.000
199.90	-0.000
200.12	-0.000
200.33	-0.000
200.55	-0.000
200.76	-0.000
200.98	-0.000
201.19	-0.000
201.41	-0.000
201.62	-0.000
201.84	-0.000
202.05	-0.000
202.27	-0.000
202.48	-0.000
202.70	-0.000
202.91	-0.000
203.13	-0.000
203.34	-0.000
203.56	-0.000
203.77	-0.000
203.99	-0.000
204.20	-0.000
204.42	-0.000
204.63	-0.000
204.85	-0.000
205.06	-0.000
205.28	-0.000
205.49	-0.000
205.71	-0.000
205.92	-0.000
206.14	-0.000
206.35	-0.000
206.56	-0.000
206.78	-0.000
206.99	-0.000
207.21	-0.000
207.42	-0.000
207.64	-0.000
207.85	-0.000
208.07	-0.000
208.28	-0.000
208.50	-0.000
208.71	-0.000
208.93	-0.000
209.14	-0.000
209.36	-0.000
209.57	-0.000
209.79	-0.000
210.00	-0.000
210.22	-0.000
210.43	-0.000
210.64	-0.000
210.86	-0.000
211.07	-0.000
211.29	-0.000
211.50	-0.000
211.72	-0.000
211.93	-0.000
212.15	-0.000
212.36	-0.000
212.58	-0.000
212.79	-0.000
213.01	-0.000
213.22	-0.000
213.43	-0.000
213.65	-0.000
213.86	-0.000
214.08	-0.000
214.29	-0.000
214.51	-0.000
214.72	-0.000
214.94	-0.000
215.15	-0.000
215.36	-0.000
215.58	-0.000
215.79	-0.000
216.01	-0.000
216.22	-0.000
216.44	-0.000
216.65	-0.000
216.87	-0.000
217.08	-0.000
217.29	-0.000
217.51	-0.000
217.72	-0.000
217.94	-0.000
218.15	-0.000
218.37	-0.000
218.58	-0.000
218.80	-0.000
219.01	-0.000
219.22	-0.000
219.44	-0.000
219.65	-0.000
219.87	-0.000
220.08	-0.000
220.30	-0.000
220.51	-0.000
220.72	-0.000
220.94	-0.000
221.15	-0.000
221.37	-0.000
221.58	-0.000
221.79	-0.000
222.01	-0.000
222.22	-0.000
222.44	-0.000
222.65	-0.000
222.87	-0.000
223.08	-0.000
223.29	-0.000
223.51	-0.000
223.72	-0.000
223.94	-0.000
224.15	-0.000
224.36	-0.000
224.58	-0.000
224.79	-0.000
225.01	-0.000
225.22	-0.000
225.44	-0.000
225.65	-0.000
225.86	-0.000
226.08	-0.000
226.29	-0.000
226.51	-0.000
226.72	-0.000
226.93	-0.000
227.15	-0.000
227.36	-0.000
227.58	-0.000
227.79	-0.000
228.00	-0.000
228.22	-0.000
228.43	-0.000
228.65	-0.000
228.86	-0.000
229.07	-0.000
229.29	-0.000
229.50	-0.000
229.72	-0.000
229.93	-0.000
230.14	-0.000
230.36	-0.000
230.57	-0.000
230.78	-0.000
231.00	-0.000
231.21	-0.000
231.43	-0.000
231.64	-0.000
231.85	-0.000
232.07	-0.000
232.28	-0.000
232.50	-0.000
232.71	-0.000
232.92	-0.000
233.14	-0.000
233.35	-0.000
233.56	-0.000
233.78	-0.000
233.99	-0.000
234.21	-0.000
234.42	-0.000
234.63	-0.000
234.85	-0.000
235.06	-0.000
235.27	-0.000
235.49	-0.000
235.70	-0.000
235.91	-0.000
236.13	-0.000
236.34	-0.000
236.56	-0.000
236.77	-0.000
236.98	-0.000
237.20	-0.000
237.41	-0.000
237.62	-0.000
237.84	-0.000
238.05	-0.000
238.26	-0.000
238.48	-0.000
238.69	-0.000
238.91	-0.000
239.12	-0.000
239.33	-0.000
239.55	-0.000
239.76	-0.000
239.97	-0.000
240.19	-0.000
240.40	-0.000
240.61	-0.000
240.83	-0.000
241.04	-0.000
241.25	-0.000
241.47	-0.000
241.68	-0.000
241.89	-0.000
242.11	-0.000
242.32	-0.000
242.53	-0.000
242.75	-0.000
242.96	-0.000
243.17	-0.000
243.39	-0.000
243.60	-0.000
243.81	-0.000
244.03	-0.000
244.24	-0.000
244.45	-0.000
244.67	-0.000
244.88	-0.000
245.09	-0.000
245.31	-0.000
245.52	-0.000
245.73	-0.000
245.95	-0.000
246.16	-0.000
246.37	-0.000
246.59	-0.000
246.80	-0.000
247.01	-0.000
247.23	-0.000
247.44	-0.000
247.65	-0.000
247.87	-0.000
248.08	-0.000
248.29	-0.000
248.51	-0.000
248.72	-0.000
248.93	-0.000
249.15	-0.000
249.36	-0.000
249.57	-0.000
249.78	-0.000
250.00	-0.000
250.21	-0.000
250.42	-0.000
250.64	-0.000
250.85	-0.000
251.06	-0.000
251.28	-0.000
251.49	-0.000
251.70	-0.000
251.92	-0.000
252.13	-0.000
252.34	-0.000
252.55	-0.000
252.77	-0.000
252.98	-0.000
253.19	-0.000
253.41	-0.000
253.62	-0.000
253.83	-0.000
254.05	-0.000
254.26	-0.000
254.47	-0.000
254.68	-0.000
254.90	-0.000
255.11	-0.000
255.32	-0.000
255.54	-0.000
255.75	-0.000
255.96	-0.000
256.17	-0.000
256.39	-0.000
256.60	-0.000
256.81	-0.000
257.03	-0.000
257.24	-0.000
257.45	-0.000
257.66	-0.000
257.88	-0.000
258.09	-0.000
258.30	-0.000
258.51	-0.000
258.73	-0.000
258.94	-0.000
259.15	-0.000
259.37	-0.000
259.58	-0.000
259.79	-0.000
260.00	-0.000
260.22	-0.000
260.43	-0.000
260.64	-0.000
260.85	-0.000
261.07	-0.000
261.28	-0.000
261.49	-0.000
261.71	-0.000
261.92	-0.000
262.13	-0.000
262.34	-0.000
262.56	-0.000
262.77	-0.000
262.98	-0.000
263.19	-0.000
263.41	-0.000
263.62	-0.000
263.83	-0.000
264.04	-0.000
264.26	-0.000
264.47	-0.000
264.68	-0.000
264.89	-0.000
265.11	-0.000
265.32	-0.000
265.53	-0.000
265.74	-0.000
265.96	-0.000
266.17	-0.000
266.38	-0.000
266.59	-0.000
266.81	-0.000
267.02	-0.000
267.23	-0.000
267.44	-0.000
267.65	-0.000
267.87	-0.000
268.08	-0.000
268.29	-0.000
268.50	-0.000
268.72	-0.000
268.93	-0.000
269.14	-0.000
269.35	-0.000
269.57	-0.000
269.78	-0.000
269.99	-0.000
270.20	-0.000
270.41	-0.000
270.63	-0.000
270.84	-0.000
271.05	-0.000
271.26	-0.000
271.48	-0.000
271.69	-0.000
271.90	-0.000
272.11	-0.000
272.32	-0.000
272.54	-0.000
272.75	-0.000
272.96	-0.000
273.17	-0.000
273.39	-0.000
273.60	-0.000
273.81	-0.000
274.02	-0.000
274.23	-0.000
274.45	-0.000
274.66	-0.000
274.87	-0.000
275.08	-0.000
275.29	-0.000
275.51	-0.000
275.72	-0.000
275.93	-0.000
276.14	-0.000
276.35	-0.000
276.57	-0.000
276.78	-0.000
276.99	-0.000
277.20	-0.000
277.41	-0.000
277.63	-0.000
277.84	-0.000
278.05	-0.000
278.26	-0.000
278.47	-0.000
278.69	-0.000
278.90	-0.000
279.11	-0.000
279.32	-0.000
279.53	-0.000
279.74	-0.000
279.96	-0.000
280.17	-0.000
280.38	-0.000
280.59	-0.000
280.80	-0.000
281.02	-0.000
281.23	-0.000
281.44	-0.000
281.65	-0.000
281.86	-0.000
282.07	-0.000
282.29	-0.000
282.50	-0.000
282.71	-0.000
282.92	-0.000
283.13	-0.000
283.35	-0.000
283.56	-0.000
283.77	-0.000
283.98	-0.000
284.19	-0.000
284.40	-0.000
284.62	-0.000
284.83	-0.000
285.04	-0.000
285.25	-0.000
285.46	-0.000
285.67	-0.000
285.88	-0.000
286.10	-0.000
286.31	-0.000
286.52	-0.000
286.73	-0.000
286.94	-0.000
287.15	-0.000
287.37	-0.000
287.58	-0.000
287.79	-0.000
288.00	-0.000
288.21	-0.000
288.42	-0.000
288.63	-0.000
288.85	-0.000
289.06	-0.000
289.27	-0.000
289.48	-0.000
289.69	-0.000
289.90	-0.000
290.11	-0.000
290.33	-0.000
290.54	-0.000
290.75	-0.000
290.96	-0.000
291.17	-0.000
291.38	-0.000
291.59	-0.000
291.81	-0.000
292.02	-0.000
292.23	-0.000
292.44	-0.000
292.65	-0.000
292.86	-0.000
293.07	-0.000
293.28	-0.000
293.50	-0.000
293.71	-0.000
293.92	-0.000
294.13	-0.000
294.34	-0.000
294.55	-0.000
294.76	-0.000
294.97	-0.000
295.19	-0.000
295.40	-0.000
295.61	-0.000
295.82	-0.000
296.03	3.119
296.24	-0.000
296.45	1.986
296.66	1.703
296.87	1.723
297.09	1.764
297.30	1.913
297.51	1.638
297.72	1.616
297.93	1.685
298.14	1.658
298.35	1.610
298.56	1.597
298.77	1.693
298.99	1.685
299.20	1.672
299.41	1.643
299.62	1.593
299.83	1.589
300.04	1.540
300.25	1.536
300.46	1.572
300.67	1.548
300.88	1.503
301.10	1.509
301.31	1.566
301.52	1.509
301.73	1.470
301.94	1.472
302.15	1.485
302.36	1.443
302.57	1.387
302.78	1.390
302.99	1.427
303.20	1.440
303.41	1.363
303.63	1.349
303.84	1.351
304.05	1.350
304.26	1.302
304.47	1.305
304.68	1.305
304.89	1.298
305.10	1.264
305.31	1.255
305.52	1.301
305.73	1.293
305.94	1.255
306.15	1.249
306.37	1.265
306.58	1.272
306.79	1.246
307.00	1.266
307.21	1.301
307.42	1.294
307.63	1.263
307.84	1.228
308.05	1.260
308.26	1.261
308.47	1.244
308.68	1.240
308.89	1.238
309.10	1.236
309.31	1.202
309.52	1.195
309.73	1.209
309.95	1.203
310.16	1.176
310.37	1.165
310.58	1.181
310.79	1.180
311.00	1.179
311.21	1.179
311.42	1.177
311.63	1.172
311.84	1.156
312.05	1.154
312.26	1.173
312.47	1.188
312.68	1.169
312.89	1.151
313.10	1.154
313.31	1.128
313.52	1.133
313.73	1.135
313.94	1.137
314.15	1.119
314.36	1.100
314.57	1.095
314.78	1.080
314.99	1.074
315.21	1.065
315.42	1.070
315.63	1.081
315.84	1.059
316.05	1.048
316.26	1.053
316.47	1.070
316.68	1.066
316.89	1.046
317.10	1.064
317.31	1.067
317.52	1.067
317.73	1.051
317.94	1.051
318.15	1.091
318.36	1.091
318.57	1.076
318.78	1.064
318.99	1.098
319.20	1.096
319.41	1.065
319.62	1.068
319.83	1.078
320.04	1.072
320.25	1.059
320.46	1.029
320.67	1.029
320.88	1.025
321.09	1.015
321.30	1.000
321.51	1.014
321.72	1.013
321.93	0.999
322.14	0.994
322.35	1.018
322.56	1.018
322.77	1.007
322.98	1.019
323.19	1.026
323.40	1.032
323.61	1.012
323.82	1.006
324.03	1.010
324.24	1.009
324.45	0.996
324.66	0.979
324.87	0.974
325.08	0.973
325.29	0.956
325.50	0.949
325.71	0.953
325.92	0.961
326.13	0.948
326.34	0.948
326.55	0.955
326.76	0.953
326.97	0.944
327.18	0.941
327.39	0.964
327.60	0.964
327.80	0.965
328.01	0.964
328.22	0.963
328.43	0.968
328.64	0.957
328.85	0.959
329.06	0.962
329.27	0.960
329.48	0.956
329.69	0.938
329.90	0.947
330.11	0.940
330.32	0.934
330.53	0.926
330.74	0.927
330.95	0.926
331.16	0.914
331.37	0.923
331.58	0.923
331.79	0.921
332.00	0.915
332.21	0.910
332.42	0.913
332.63	0.904
332.83	0.903
333.04	0.905
333.25	0.916
333.46	0.914
333.67	0.900
333.88	0.903
334.09	0.913
334.30	0.910
334.51	0.902
334.72	0.898
334.93	0.901
335.14	0.900
335.35	0.892
335.56	0.888
335.77	0.895
335.98	0.895
336.18	0.889
336.39	0.881
336.60	0.884
336.81	0.882
337.02	0.881
337.23	0.884
337.44	0.886
337.65	0.888
337.86	0.879
338.07	0.875
338.28	0.879
338.49	0.877
338.70	0.870
338.91	0.876
339.11	0.881
339.32	0.878
339.53	0.869
339.74	0.866
339.95	0.861
340.16	0.861
340.37	0.854
340.58	0.852
340.79	0.854
341.00	0.854
341.21	0.845
341.41	0.846
341.62	0.847
341.83	0.849
342.04	0.844
342.25	0.855
342.46	0.857
342.67	0.856
342.88	0.850
343.09	0.849
343.30	0.855
343.50	0.859
343.71	0.850
343.92	0.848
344.13	0.851
344.34	0.851
344.55	0.835
344.76	0.836
344.97	0.840
345.18	0.838
345.38	0.836
345.59	0.830
345.80	0.829
346.01	0.827
346.22	0.823
346.43	0.817
346.64	0.824
346.85	0.823
347.06	0.816
347.26	0.815
347.47	0.819
347.68	0.814
347.89	0.812
348.10	0.806
348.31	0.811
348.52	0.811
348.73	0.809
348.93	0.806
349.14	0.808
349.35	0.808
349.56	0.802
349.77	0.798
349.98	0.804
350.19	0.801
350.39	0.799
350.60	0.795
350.81	0.810
351.02	0.808
351.23	0.804
351.44	0.805
351.65	0.807
351.86	0.805
352.06	0.804
352.27	0.803
352.48	0.804
352.69	0.802
352.90	0.797
353.11	0.784
353.31	0.791
353.52	0.787
353.73	0.781
353.94	0.782
354.15	0.787
354.36	0.787
354.57	0.779
354.77	0.781
354.98	0.781
355.19	0.781
355.40	0.780
355.61	0.785
355.82	0.789
356.02	0.789
356.23	0.782
356.44	0.784
356.65	0.786
356.86	0.787
357.07	0.781
357.27	0.785
357.48	0.786
357.69	0.782
357.90	0.767
358.11	0.764
358.32	0.767
358.52	0.769
358.73	0.760
358.94	0.763
359.15	0.767
359.36	0.768
359.56	0.764
359.77	0.761
359.98	0.767
360.19	0.768
360.40	0.765
360.61	0.766
360.81	0.764
361.02	0.765
361.23	0.758
361.44	0.756
361.65	0.756
361.85	0.756
362.06	0.753
362.27	0.755
362.48	0.755
362.69	0.757
362.89	0.751
363.10	0.753
363.31	0.758
363.52	0.761
363.73	0.756
363.93	0.755
364.14	0.756
364.35	0.758
364.56	0.748
364.77	0.750
364.97	0.752
365.18	0.752
365.39	0.747
365.60	0.745
365.81	0.745
366.01	0.745
366.22	0.744
366.43	0.743
366.64	0.744
366.84	0.749
367.05	0.746
367.26	0.746
367.47	0.748
367.68	0.748
367.88	0.745
368.09	0.742
368.30	0.744
368.51	0.743
368.71	0.742
368.92	0.747
369.13	0.745
369.34	0.744
369.55	0.743
369.75	0.743
369.96	0.749
370.17	0.749
370.38	0.747
370.58	0.746
370.79	0.751
371.00	0.749
371.21	0.741
371.41	0.746
371.62	0.750
371.83	0.746
372.04	0.745
372.24	0.739
372.45	0.740
372.66	0.739
372.87	0.737
373.07	0.734
373.28	0.735
373.49	0.739
373.70	0.731
373.90	0.730
374.11	0.738
374.32	0.737
374.53	0.736
374.73	0.736
374.94	0.738
375.15	0.739
375.36	0.736
375.56	0.745
375.77	0.744
375.98	0.744
376.19	0.741
376.39	0.734
376.60	0.738
376.81	0.738
377.02	0.736
377.22	0.735
377.43	0.735
377.64	0.735
377.84	0.726
378.05	0.730
378.26	0.736
378.47	0.735
378.67	0.732
378.88	0.730
379.09	0.731
379.30	0.732
379.50	0.730
379.71	0.732
379.92	0.734
380.12	0.734
380.33	0.727
380.54	0.723
380.75	0.730
380.95	0.731
381.16	0.730
381.37	0.729
381.57	0.730
381.78	0.730
381.99	0.730
382.20	0.729
382.40	0.732
382.61	0.732
382.82	0.729
383.02	0.722
383.23	0.725
383.44	0.725
383.64	0.724
383.85	0.727
384.06	0.729
384.27	0.727
384.47	0.726
384.68	0.726
384.89	0.732
385.09	0.732
385.30	0.733
385.51	0.731
385.71	0.734
385.92	0.735
386.13	0.734
386.33	0.736
386.54	0.737
386.75	0.735
386.95	0.732
387.16	0.727
387.37	0.730
387.58	0.729
387.78	0.727
387.99	0.725
388.20	0.726
388.40	0.723
388.61	0.719
388.82	0.722
389.02	0.724
389.23	0.724
389.44	0.723
389.64	0.724
389.85	0.735
390.06	0.735
390.26	0.736
390.47	0.736
390.68	0.738
390.88	0.736
391.09	0.732
391.30	0.731
391.50	0.731
391.71	0.731
391.92	0.728
392.12	0.721
392.33	0.721
392.53	0.721
392.74	0.721
392.95	0.721
393.15	0.723
393.36	0.725
393.57	0.724
393.77	0.727
393.98	0.729
394.19	0.728
394.39	0.727
394.60	0.729
394.81	0.731
395.01	0.729
395.22	0.728
395.43	0.729
395.63	0.733
395.84	0.735
396.04	0.732
396.25	0.734
396.46	0.736
396.66	0.734
396.87	0.732
397.08	0.729
397.28	0.731
397.49	0.733
397.69	0.730
397.90	0.725
398.11	0.726
398.31	0.726
398.52	0.723
398.73	0.723
398.93	0.722
399.14	0.721
399.34	0.721
399.55	0.722
399.76	0.722
399.96	0.722
400.17	0.721
400.37	0.719
400.58	0.725
400.79	0.728
400.99	0.726
401.20	0.731
401.41	0.734
401.61	0.734
401.82	0.740
402.02	0.740
402.23	0.741
402.44	0.741
402.64	0.741
402.85	0.735
403.05	0.734
403.26	0.733
403.47	0.727
403.67	0.727
403.88	0.728
404.08	0.721
404.29	0.720
404.50	0.719
404.70	0.719
404.91	0.720
405.11	0.717
405.32	0.717
405.52	0.717
405.73	0.716
405.94	0.715
406.14	0.717
406.35	0.719
406.55	0.718
406.76	0.716
406.97	0.717
407.17	0.719
407.38	0.720
407.58	0.718
407.79	0.722
407.99	0.724
408.20	0.725
408.41	0.722
408.61	0.720
408.82	0.721
409.02	0.721
409.23	0.719
409.43	0.717
409.64	0.718
409.84	0.717
410.05	0.714
410.26	0.712
410.46	0.711
410.67	0.710
410.87	0.712
411.08	0.714
411.28	0.715
411.49	0.716
411.69	0.715
411.90	0.716
412.11	0.717
412.31	0.718
412.52	0.717
412.72	0.718
412.93	0.719
413.13	0.718
413.34	0.715
413.54	0.717
413.75	0.719
413.95	0.719
414.16	0.716
414.37	0.719
414.57	0.719
414.78	0.721
414.98	0.720
415.19	0.721
415.39	0.718
415.60	0.720
415.80	0.719
416.01	0.717
416.21	0.718
416.42	0.717
416.62	0.712
416.83	0.713
417.03	0.711
417.24	0.711
417.44	0.709
417.65	0.709
417.86	0.709
418.06	0.707
418.27	0.705
418.47	0.706
418.68	0.708
418.88	0.709
419.09	0.707
419.29	0.708
419.50	0.708
419.70	0.708
419.91	0.707
420.11	0.705
420.32	0.707
420.52	0.707
420.73	0.706
420.93	0.706
421.14	0.708
421.34	0.707
421.55	0.704
421.75	0.704
421.96	0.704
422.16	0.704
422.37	0.703
422.57	0.700
422.78	0.702
422.98	0.698
423.19	0.696
423.39	0.695
423.60	0.697
423.80	0.698
424.01	0.697
424.21	0.699
424.42	0.700
424.62	0.700
424.83	0.699
425.03	0.699
425.23	0.701
425.44	0.701
425.64	0.701
425.85	0.700
426.05	0.701
426.26	0.702
426.46	0.698
426.67	0.698
426.87	0.703
427.08	0.703
427.28	0.701
427.49	0.702
427.69	0.703
427.90	0.701
428.10	0.698
428.31	0.699
428.51	0.700
428.71	0.700
428.92	0.701
429.12	0.698
429.33	0.698
429.53	0.702
429.74	0.706
429.94	0.706
430.15	0.706
430.35	0.706
430.56	0.703
430.76	0.702
430.96	0.703
431.17	0.699
431.37	0.697
431.58	0.695
431.78	0.691
431.99	0.684
432.19	0.686
432.40	0.688
432.60	0.688
432.80	0.691
433.01	0.690
433.21	0.690
433.42	0.692
433.62	0.692
433.83	0.692
434.03	0.695
434.23	0.697
434.44	0.696
434.64	0.694
434.85	0.698
435.05	0.699
435.26	0.699
435.46	0.697
435.66	0.697
435.87	0.697
436.07	0.696
436.28	0.693
436.48	0.689
436.69	0.689
436.89	0.689
437.09	0.683
437.30	0.682
437.50	0.682
437.71	0.693
437.91	0.692
438.11	0.693
438.32	0.698
438.52	0.698
438.73	0.697
438.93	0.695
439.13	0.695
439.34	0.698
439.54	0.696
439.75	0.696
439.95	0.686
440.15	0.690
440.36	0.689
440.56	0.686
440.77	0.687
440.97	0.687
441.17	0.686
441.38	0.687
441.58	0.684
441.79	0.684
441.99	0.683
442.19	0.681
442.40	0.679
442.60	0.678
442.81	0.676
443.01	0.676
443.21	0.676
443.42	0.676
443.62	0.675
443.82	0.674
444.03	0.676
444.23	0.675
444.44	0.676
444.64	0.675
444.84	0.677
445.05	0.676
445.25	0.674
445.45	0.675
445.66	0.677
445.86	0.675
446.06	0.677
446.27	0.675
446.47	0.678
446.68	0.676
446.88	0.675
447.08	0.674
447.29	0.675
447.49	0.675
447.69	0.675
447.90	0.673
448.10	0.677
448.30	0.674
448.51	0.676
448.71	0.673
448.91	0.675
449.12	0.674
449.32	0.676
449.52	0.675
449.73	0.679
449.93	0.678
450.14	0.679
450.34	0.678
450.54	0.680
450.75	0.677
450.95	0.677
451.15	0.676
451.36	0.679
451.56	0.676
451.76	0.674
451.97	0.670
452.17	0.671
452.37	0.669
452.58	0.666
452.78	0.665
452.98	0.668
453.19	0.667
453.39	0.667
453.59	0.666
453.79	0.666
454.00	0.667
454.20	0.667
454.40	0.667
454.61	0.669
454.81	0.669
455.01	0.668
455.22	0.669
455.42	0.670
455.62	0.668
455.83	0.668
456.03	0.671
456.23	0.672
456.44	0.673
456.64	0.672
456.84	0.671
457.04	0.672
457.25	0.671
457.45	0.667
457.65	0.667
457.86	0.668
458.06	0.667
458.26	0.663
458.47	0.662
458.67	0.663
458.87	0.663
459.07	0.662
459.28	0.663
459.48	0.665
459.68	0.666
459.89	0.665
460.09	0.663
460.29	0.664
460.49	0.664
460.70	0.663
460.90	0.663
461.10	0.663
461.31	0.663
461.51	0.660
461.71	0.662
461.91	0.663
462.12	0.663
462.32	0.662
462.52	0.663
462.72	0.666
462.93	0.666
463.13	0.666
463.33	0.667
463.53	0.668
463.74	0.668
463.94	0.664
464.14	0.664
464.35	0.665
464.55	0.666
464.75	0.664
464.95	0.662
465.16	0.663
465.36	0.662
465.56	0.661
465.76	0.660
465.97	0.660
466.17	0.661
466.37	0.659
466.57	0.660
466.78	0.660
466.98	0.660
467.18	0.658
467.38	0.657
467.59	0.659
467.79	0.660
467.99	0.659
468.19	0.660
468.39	0.663
468.60	0.663
468.80	0.661
469.00	0.662
469.20	0.663
469.41	0.663
469.61	0.662
469.81	0.662
470.01	0.662
470.22	0.662
470.42	0.660
470.62	0.658
470.82	0.660
471.02	0.659
471.23	0.658
471.43	0.657
471.63	0.660
471.83	0.659
472.04	0.657
472.24	0.656
472.44	0.661
472.64	0.661
472.84	0.659
473.05	0.659
473.25	0.661
473.45	0.661
473.65	0.659
473.85	0.660
474.06	0.661
474.26	0.661
474.46	0.663
474.66	0.659
474.86	0.660
475.07	0.660
475.27	0.658
475.47	0.656
475.67	0.657
475.87	0.659
476.08	0.655
476.28	0.656
476.48	0.657
476.68	0.655
476.88	0.654
477.09	0.655
477.29	0.656
477.49	0.656
477.69	0.655
477.89	0.655
478.09	0.654
478.30	0.657
478.50	0.654
478.70	0.653
478.90	0.654
479.10	0.657
479.31	0.657
479.51	0.656
479.71	0.656
479.91	0.657
480.11	0.656
480.31	0.656
480.52	0.655
480.72	0.655
480.92	0.654
481.12	0.652
481.32	0.649
481.52	0.647
481.72	0.648
481.93	0.651
482.13	0.651
482.33	0.651
482.53	0.649
482.73	0.650
482.93	0.651
483.14	0.650
483.34	0.650
483.54	0.651
483.74	0.650
483.94	0.649
484.14	0.645
484.34	0.645
484.55	0.646
484.75	0.645
484.95	0.643
485.15	0.643
485.35	0.643
485.55	0.642
485.75	0.640
485.96	0.641
486.16	0.642
486.36	0.641
486.56	0.640
486.76	0.640
486.96	0.640
487.16	0.639
487.36	0.638
487.57	0.637
487.77	0.638
487.97	0.638
488.17	0.636
488.37	0.635
488.57	0.636
488.77	0.636
488.97	0.635
489.18	0.634
489.38	0.637
489.58	0.638
489.78	0.637
489.98	0.636
490.18	0.636
490.38	0.637
490.58	0.636
490.78	0.636
490.98	0.637
491.19	0.638
491.39	0.638
491.59	0.636
491.79	0.639
491.99	0.639
492.19	0.639
492.39	0.642
492.59	0.642
492.79	0.645
492.99	0.645
493.20	0.645
493.40	0.645
493.60	0.646
493.80	0.645
494.00	0.643
494.20	0.643
494.40	0.643
494.60	0.640
494.80	0.644
495.00	0.643
495.20	0.641
495.40	0.640
495.61	0.642
495.81	0.642
496.01	0.645
496.21	0.646
496.41	0.646
496.61	0.646
496.81	0.645
497.01	0.640
497.21	0.640
497.41	0.640
497.61	0.640
497.81	0.638
498.01	0.638
498.21	0.635
498.41	0.633
498.61	0.634
498.82	0.635
499.02	0.637
499.22	0.638
499.42	0.637
499.62	0.638
499.82	0.639
500.02	0.640
500.22	0.639
500.42	0.641
500.62	0.641
500.82	0.642
501.02	0.639
501.22	0.639
501.42	0.639
501.62	0.641
501.82	0.641
502.02	0.641
502.22	0.641
502.42	0.643
502.62	0.640
502.82	0.640
503.02	0.641
503.22	0.641
503.42	0.639
503.63	0.639
503.83	0.637
504.03	0.636
504.23	0.634
504.43	0.635
504.63	0.635
504.83	0.635
505.03	0.634
505.23	0.636
505.43	0.637
505.63	0.637
505.83	0.637
506.03	0.638
506.23	0.640
506.43	0.641
506.63	0.640
506.83	0.639
507.03	0.641
507.23	0.642
507.43	0.639
507.63	0.640
507.83	0.640
508.03	0.640
508.23	0.640
508.43	0.638
508.63	0.640
508.83	0.640
509.03	0.640
509.23	0.639
509.43	0.640
509.63	0.640
509.83	0.639
510.03	0.641
510.23	0.643
510.43	0.644
510.63	0.644
510.83	0.645
511.03	0.646
511.23	0.644
511.43	0.643
511.63	0.645
511.83	0.647
512.03	0.647
512.22	0.644
512.42	0.643
512.62	0.643
512.82	0.643
513.02	0.642
513.22	0.642
513.42	0.643
513.62	0.646
513.82	0.645
514.02	0.645
514.22	0.646
514.42	0.646
514.62	0.646
514.82	0.647
515.02	0.649
515.22	0.652
515.42	0.651
515.62	0.654
515.82	0.652
516.02	0.653
516.22	0.653
516.42	0.654
516.62	0.656
516.82	0.657
517.01	0.655
517.21	0.655
517.41	0.658
517.61	0.658
517.81	0.655
518.01	0.654
518.21	0.654
518.41	0.654
518.61	0.652
518.81	0.652
519.01	0.652
519.21	0.653
519.41	0.651
519.61	0.646
519.81	0.649
520.00	0.649
520.20	0.650
520.40	0.652
520.60	0.653
520.80	0.652
521.00	0.652
521.20	0.653
521.40	0.657
521.60	0.657
521.80	0.657
522.00	0.657
522.20	0.659
522.39	0.658
522.59	0.655
522.79	0.657
522.99	0.659
523.19	0.658
523.39	0.656
523.59	0.654
523.79	0.658
523.99	0.660
524.19	0.659
524.38	0.658
524.58	0.659
524.78	0.660
524.98	0.658
525.18	0.660
525.38	0.661
525.58	0.661
525.78	0.659
525.98	0.658
526.18	0.657
526.37	0.657
526.57	0.658
526.77	0.658
526.97	0.659
527.17	0.659
527.37	0.655
527.57	0.658
527.77	0.659
527.96	0.659
528.16	0.658
528.36	0.659
528.56	0.661
528.76	0.658
528.96	0.658
529.16	0.659
529.36	0.661
529.55	0.661
529.75	0.658
529.95	0.658
530.15	0.659
530.35	0.662
530.55	0.659
530.75	0.660
530.94	0.661
531.14	0.661
531.34	0.660
531.54	0.659
531.74	0.662
531.94	0.665
532.13	0.664
532.33	0.666
532.53	0.664
532.73	0.664
532.93	0.662
533.13	0.664
533.33	0.663
533.52	0.664
533.72	0.667
533.92	0.666
534.12	0.663
534.32	0.664
534.52	0.662
534.71	0.664
534.91	0.666
535.11	0.668
535.31	0.666
535.51	0.668
535.71	0.669
535.90	0.667
536.10	0.668
536.30	0.669
536.50	0.670
536.70	0.670
536.89	0.668
537.09	0.667
537.29	0.668
537.49	0.668
537.69	0.666
537.89	0.667
538.08	0.666
538.28	0.665
538.48	0.665
538.68	0.667
538.88	0.669
539.07	0.669
539.27	0.668
539.47	0.667
539.67	0.668
539.87	0.669
540.06	0.667
540.26	0.667
540.46	0.669
540.66	0.666
540.86	0.664
541.05	0.664
541.25	0.665
541.45	0.665
541.65	0.664
541.84	0.666
542.04	0.666
542.24	0.667
542.44	0.666
542.64	0.667
542.83	0.670
543.03	0.671
543.23	0.669
543.43	0.670
543.62	0.670
543.82	0.670
544.02	0.669
544.22	0.669
544.42	0.672
544.61	0.672
544.81	0.669
545.01	0.668
545.21	0.670
545.40	0.669
545.60	0.668
545.80	0.671
546.00	0.672
546.19	0.671
546.39	0.670
546.59	0.668
546.79	0.669
546.98	0.670
547.18	0.670
547.38	0.671
547.58	0.673
547.77	0.674
547.97	0.669
548.17	0.672
548.37	0.671
548.56	0.671
548.76	0.670
548.96	0.672
549.16	0.674
549.35	0.673
549.55	0.671
549.75	0.671
549.95	0.674
550.14	0.675
550.34	0.673
550.54	0.679
550.73	0.683
550.93	0.683
551.13	0.681
551.33	0.680
551.52	0.681
551.72	0.681
551.92	0.679
552.12	0.681
552.31	0.681
552.51	0.681
552.71	0.676
552.90	0.676
553.10	0.677
553.30	0.677
553.50	0.676
553.69	0.677
553.89	0.677
554.09	0.677
554.28	0.674
554.48	0.674
554.68	0.677
554.87	0.677
555.07	0.674
555.27	0.675
555.47	0.676
555.66	0.676
555.86	0.675
556.06	0.677
556.25	0.678
556.45	0.685
556.65	0.684
556.84	0.686
557.04	0.689
557.24	0.691
557.43	0.690
557.63	0.693
557.83	0.695
558.02	0.697
558.22	0.701
558.42	0.701
558.61	0.694
558.81	0.695
559.01	0.692
559.21	0.691
559.40	0.692
559.60	0.693
559.80	0.689
559.99	0.690
560.19	0.692
560.39	0.686
560.58	0.684
560.78	0.684
560.97	0.687
561.17	0.685
561.37	0.683
561.56	0.685
561.76	0.685
561.96	0.685
562.15	0.682
562.35	0.684
562.55	0.684
562.74	0.684
562.94	0.684
563.14	0.682
563.33	0.682
563.53	0.682
563.73	0.680
563.92	0.681
564.12	0.683
564.31	0.686
564.51	0.684
564.71	0.686
564.90	0.689
565.10	0.690
565.30	0.693
565.49	0.694
565.69	0.696
565.89	0.697
566.08	0.695
566.28	0.697
566.47	0.698
566.67	0.697
566.87	0.694
567.06	0.696
567.26	0.702
567.46	0.698
567.65	0.697
567.85	0.698
568.04	0.701
568.24	0.700
568.44	0.698
568.63	0.696
568.83	0.698
569.02	0.697
569.22	0.692
569.42	0.688
569.61	0.690
569.81	0.689
570.00	0.687
570.20	0.688
570.40	0.689
570.59	0.688
570.79	0.686
570.98	0.684
571.18	0.685
571.38	0.685
571.57	0.682
571.77	0.680
571.96	0.683
572.16	0.681
572.35	0.675
572.55	0.676
572.75	0.674
572.94	0.674
573.14	0.673
573.33	0.673
573.53	0.674
573.73	0.673
573.92	0.671
574.12	0.669
574.31	0.672
574.51	0.673
574.70	0.670
574.90	0.672
575.09	0.674
575.29	0.674
575.49	0.672
575.68	0.673
575.88	0.674
576.07	0.675
576.27	0.673
576.46	0.671
576.66	0.670
576.86	0.670
577.05	0.667
577.25	0.665
577.44	0.666
577.64	0.666
577.83	0.664
578.03	0.666
578.22	0.665
578.42	0.665
578.61	0.663
578.81	0.664
579.00	0.665
579.20	0.664
579.40	0.664
579.59	0.662
579.79	0.662
579.98	0.662
580.18	0.661
580.37	0.661
580.57	0.664
580.76	0.668
580.96	0.667
581.15	0.668
581.35	0.669
581.54	0.669
581.74	0.669
581.93	0.670
582.13	0.671
582.32	0.668
582.52	0.666
582.71	0.665
582.91	0.661
583.10	0.660
583.30	0.658
583.49	0.658
583.69	0.662
583.88	0.663
584.08	0.662
584.27	0.664
584.47	0.668
584.66	0.669
584.86	0.668
585.05	0.670
585.25	0.673
585.44	0.673
585.64	0.671
585.83	0.667
586.03	0.667
586.22	0.666
586.42	0.662
586.61	0.663
586.81	0.665
587.00	0.664
587.20	0.662
587.39	0.662
587.59	0.664
587.78	0.665
587.98	0.666
588.17	0.667
588.37	0.669
588.56	0.670
588.76	0.667
588.95	0.667
589.15	0.671
589.34	0.673
589.54	0.673
589.73	0.674
589.92	0.677
590.12	0.677
590.31	0.675
590.51	0.680
590.70	0.683
590.90	0.684
591.09	0.682
591.29	0.680
591.48	0.680
591.68	0.681
591.87	0.679
592.06	0.679
592.26	0.681
592.45	0.681
592.65	0.675
592.84	0.674
593.04	0.677
593.23	0.679
593.43	0.676
593.62	0.675
593.81	0.675
594.01	0.675
594.20	0.672
594.40	0.671
594.59	0.673
594.79	0.673
594.98	0.672
595.17	0.671
595.37	0.671
595.56	0.673
595.76	0.673
595.95	0.675
596.14	0.678
596.34	0.679
596.53	0.678
596.73	0.680
596.92	0.681
597.12	0.684
597.31	0.684
597.50	0.683
597.70	0.684
597.89	0.684
598.09	0.680
598.28	0.681
598.47	0.683
598.67	0.681
598.86	0.677
599.06	0.679
599.25	0.679
599.44	0.678
599.64	0.676
599.83	0.673
600.03	0.676
600.22	0.676
600.41	0.676
600.61	0.674
600.80	0.676
601.00	0.677
601.19	0.672
601.38	0.670
601.58	0.672
601.77	0.673
601.96	0.676
602.16	0.676
602.35	0.684
602.55	0.682
602.74	0.683
602.93	0.686
603.13	0.691
603.32	0.693
603.51	0.694
603.71	0.698
603.90	0.700
604.09	0.700
604.29	0.698
604.48	0.692
604.68	0.693
604.87	0.692
605.06	0.688
605.26	0.684
605.45	0.685
605.64	0.684
605.84	0.679
606.03	0.678
606.22	0.676
606.42	0.675
606.61	0.672
606.80	0.672
607.00	0.673
607.19	0.673
607.38	0.672
607.58	0.673
607.77	0.675
607.96	0.675
608.16	0.673
608.35	0.678
608.54	0.680
608.74	0.683
608.93	0.688
609.12	0.691
609.32	0.693
609.51	0.696
609.70	0.696
609.90	0.698
610.09	0.702
610.28	0.708
610.48	0.702
610.67	0.704
610.86	0.705
611.06	0.699
611.25	0.697
611.44	0.698
611.64	0.697
611.83	0.700
612.02	0.697
612.21	0.695
612.41	0.693
612.60	0.693
612.79	0.689
612.99	0.689
613.18	0.691
613.37	0.689
613.57	0.687
613.76	0.689
613.95	0.685
614.14	0.685
614.34	0.682
614.53	0.683
614.72	0.685
614.92	0.685
615.11	0.683
615.30	0.679
615.49	0.680
615.69	0.682
615.88	0.678
616.07	0.679
616.26	0.681
616.46	0.682
616.65	0.679
616.84	0.677
617.04	0.679
617.23	0.682
617.42	0.684
617.61	0.687
617.81	0.689
618.00	0.691
618.19	0.691
618.38	0.695
618.58	0.698
618.77	0.699
618.96	0.700
619.15	0.702
619.35	0.703
619.54	0.703
619.73	0.700
619.92	0.701
620.12	0.704
620.31	0.704
620.50	0.699
620.69	0.699
620.89	0.702
621.08	0.703
621.27	0.703
621.46	0.702
621.66	0.705
621.85	0.705
622.04	0.703
622.23	0.703
622.43	0.703
622.62	0.702
622.81	0.702
623.00	0.701
623.19	0.704
623.39	0.703
623.58	0.701
623.77	0.699
623.96	0.701
624.16	0.701
624.35	0.697
624.54	0.700
624.73	0.703
624.92	0.701
625.12	0.697
625.31	0.698
625.50	0.700
625.69	0.700
625.88	0.697
626.08	0.696
626.27	0.697
626.46	0.698
626.65	0.695
626.84	0.695
627.04	0.700
627.23	0.700
627.42	0.696
627.61	0.699
627.80	0.702
628.00	0.702
628.19	0.702
628.38	0.705
628.57	0.707
628.76	0.706
628.96	0.703
629.15	0.704
629.34	0.707
629.53	0.708
629.72	0.703
629.91	0.703
630.11	0.707
630.30	0.707
630.49	0.710
630.68	0.710
630.87	0.713
631.06	0.715
631.26	0.711
631.45	0.712
631.64	0.720
631.83	0.722
632.02	0.720
632.21	0.719
632.41	0.725
632.60	0.720
632.79	0.719
632.98	0.719
633.17	0.720
633.36	0.722
633.55	0.719
633.75	0.715
633.94	0.717
634.13	0.717
634.32	0.715
634.51	0.709
634.70	0.711
634.89	0.712
635.09	0.709
635.28	0.709
635.47	0.710
635.66	0.712
635.85	0.708
636.04	0.709
636.23	0.713
636.43	0.715
636.62	0.713
636.81	0.712
637.00	0.712
637.19	0.715
637.38	0.712
637.57	0.712
637.76	0.713
637.95	0.714
638.15	0.711
638.34	0.707
638.53	0.710
638.72	0.712
638.91	0.710
639.10	0.708
639.29	0.708
639.48	0.709
639.67	0.709
639.87	0.707
640.06	0.712
640.25	0.711
640.44	0.713
640.63	0.713
640.82	0.714
641.01	0.714
641.20	0.715
641.39	0.717
641.58	0.718
641.78	0.717
641.97	0.714
642.16	0.729
642.35	0.730
642.54	0.729
642.73	0.725
642.92	0.724
643.11	0.726
643.30	0.726
643.49	0.720
643.68	0.722
643.87	0.724
644.06	0.724
644.25	0.704
644.45	0.706
644.64	0.705
644.83	0.705
645.02	0.702
645.21	0.702
645.40	0.703
645.59	0.704
645.78	0.700
645.97	0.702
646.16	0.702
646.35	0.702
646.54	0.701
646.73	0.703
646.92	0.704
647.11	0.704
647.30	0.700
647.49	0.702
647.68	0.700
647.88	0.698
648.07	0.691
648.26	0.694
648.45	0.695
648.64	0.692
648.83	0.688
649.02	0.691
649.21	0.700
649.40	0.699
649.59	0.695
649.78	0.697
649.97	0.710
650.16	0.710
650.35	0.705
650.54	0.707
650.73	0.716
650.92	0.713
651.11	0.707
651.30	0.705
651.49	0.708
651.68	0.709
651.87	0.706
652.06	0.696
652.25	0.700
652.44	0.703
652.63	0.703
652.82	0.704
653.01	0.705
653.20	0.703
653.39	0.692
653.58	0.689
653.77	0.689
653.96	0.684
654.15	0.676
654.34	0.674
654.53	0.668
654.72	0.662
654.91	0.652
655.10	0.647
655.29	0.645
655.48	0.643
655.67	0.638
655.86	0.636
656.05	0.634
656.24	0.634
656.43	0.629
656.62	0.628
656.81	0.627
657.00	0.623
657.19	0.620
657.38	0.619
657.57	0.617
657.76	0.618
657.95	0.616
658.14	0.619
658.33	0.620
658.51	0.624
658.70	0.624
658.89	0.626
659.08	0.636
659.27	0.645
659.46	0.647
659.65	0.654
659.84	0.657
660.03	0.660
660.22	0.662
660.41	0.666
660.60	0.664
660.79	0.666
660.98	0.672
661.17	0.670
661.36	0.669
661.55	0.670
661.74	0.669
661.92	0.672
662.11	0.674
662.30	0.673
662.49	0.667
662.68	0.667
662.87	0.670
663.06	0.664
663.25	0.665
663.44	0.666
663.63	0.667
663.82	0.667
664.01	0.662
664.20	0.660
664.38	0.661
664.57	0.662
664.76	0.662
664.95	0.662
665.14	0.666
665.33	0.661
665.52	0.668
665.71	0.671
665.90	0.669
666.09	0.671
666.28	0.669
666.46	0.667
666.65	0.667
666.84	0.665
667.03	0.659
667.22	0.657
667.41	0.660
667.60	0.650
667.79	0.644
667.98	0.646
668.16	0.646
668.35	0.646
668.54	0.642
668.73	0.644
668.92	0.645
669.11	0.644
669.30	0.639
669.49	0.636
669.67	0.637
669.86	0.640
670.05	0.637
670.24	0.635
670.43	0.633
670.62	0.632
670.81	0.627
671.00	0.628
671.18	0.627
671.37	0.627
671.56	0.625
671.75	0.624
671.94	0.620
672.13	0.619
672.32	0.615
672.50	0.614
672.69	0.614
672.88	0.615
673.07	0.611
673.26	0.612
673.45	0.613
673.63	0.613
673.82	0.609
674.01	0.611
674.20	0.610
674.39	0.610
674.58	0.609
674.76	0.609
674.95	0.607
675.14	0.608
675.33	0.603
675.52	0.602
675.71	0.602
675.89	0.601
676.08	0.598
676.27	0.598
676.46	0.599
676.65	0.599
676.84	0.598
677.02	0.600
677.21	0.601
677.40	0.601
677.59	0.599
677.78	0.600
677.96	0.603
678.15	0.601
678.34	0.599
678.53	0.599
678.72	0.599
678.90	0.596
679.09	0.592
679.28	0.588
679.47	0.588
679.66	0.588
679.84	0.584
680.03	0.582
680.22	0.581
680.41	0.582
680.60	0.578
680.78	0.578
680.97	0.580
681.16	0.580
681.35	0.579
681.53	0.578
681.72	0.579
681.91	0.580
682.10	0.579
682.29	0.582
682.47	0.580
682.66	0.578
682.85	0.577
683.04	0.575
683.22	0.575
683.41	0.576
683.60	0.574
683.79	0.575
683.97	0.574
684.16	0.573
684.35	0.569
684.54	0.571
684.72	0.573
684.91	0.573
685.10	0.572
685.29	0.573
685.47	0.570
685.66	0.569
685.85	0.566
686.04	0.565
686.22	0.567
686.41	0.569
686.60	0.566
686.79	0.569
686.97	0.569
687.16	0.571
687.35	0.568
687.54	0.572
687.72	0.576
687.91	0.576
688.10	0.579
688.29	0.579
688.47	0.577
688.66	0.577
688.85	0.573
689.03	0.570
689.22	0.575
689.41	0.575
689.60	0.571
689.78	0.568
689.97	0.568
690.16	0.565
690.34	0.561
690.53	0.562
690.72	0.561
690.91	0.559
691.09	0.558
691.28	0.552
691.47	0.550
691.65	0.549
691.84	0.547
692.03	0.546
692.21	0.544
692.40	0.544
692.59	0.541
692.77	0.540
692.96	0.542
693.15	0.542
693.34	0.540
693.52	0.540
693.71	0.541
693.90	0.541
694.08	0.542
694.27	0.542
694.46	0.552
694.64	0.553
694.83	0.552
695.02	0.551
695.20	0.551
695.39	0.550
695.58	0.551
695.76	0.551
695.95	0.550
696.14	0.549
696.32	0.547
696.51	0.537
696.70	0.537
696.88	0.538
697.07	0.537
697.26	0.538
697.44	0.539
697.63	0.538
697.81	0.537
698.00	0.537
698.19	0.535
698.37	0.535
698.56	0.534
698.75	0.534
698.93	0.534
699.12	0.533
699.31	0.533
699.49	0.532
699.68	0.533
699.87	0.535
700.05	0.535
700.24	0.535
700.42	0.537
700.61	0.537
700.80	0.535
700.98	0.536
701.17	0.538
701.36	0.536
701.54	0.536
701.73	0.537
701.91	0.535
702.10	0.534
702.29	0.532
702.47	0.531
702.66	0.532
702.84	0.533
703.03	0.531
703.22	0.531
703.40	0.531
703.59	0.532
703.77	0.531
703.96	0.531
704.15	0.532
704.33	0.532
704.52	0.532
704.70	0.531
704.89	0.531
705.08	0.530
705.26	0.526
705.45	0.527
705.63	0.526
705.82	0.523
706.00	0.522
706.19	0.521
706.38	0.521
706.56	0.520
706.75	0.518
706.93	0.516
707.12	0.517
707.30	0.518
707.49	0.516
707.68	0.514
707.86	0.514
708.05	0.514
708.23	0.511
708.42	0.512
708.60	0.514
708.79	0.513
708.98	0.512
709.16	0.511
709.35	0.512
709.53	0.516
709.72	0.516
709.90	0.517
710.09	0.519
710.27	0.520
710.46	0.523
710.64	0.522
710.83	0.525
711.02	0.527
711.20	0.526
711.39	0.525
711.57	0.522
711.76	0.522
711.94	0.520
712.13	0.522
712.31	0.522
712.50	0.517
712.68	0.515
712.87	0.515
713.05	0.515
713.24	0.516
713.42	0.515
713.61	0.516
713.79	0.517
713.98	0.517
714.16	0.518
714.35	0.518
714.54	0.519
714.72	0.518
714.91	0.516
715.09	0.523
715.28	0.525
715.46	0.525
715.65	0.523
715.83	0.522
716.02	0.525
716.20	0.521
716.39	0.521
716.57	0.522
716.76	0.524
716.94	0.525
717.12	0.517
717.31	0.518
717.49	0.521
717.68	0.523
717.86	0.523
718.05	0.524
718.23	0.526
718.42	0.528
718.60	0.529
718.79	0.536
718.97	0.539
719.16	0.539
719.34	0.537
719.53	0.536
719.71	0.536
719.90	0.537
720.08	0.535
720.27	0.534
720.45	0.535
720.63	0.534
720.82	0.528
721.00	0.531
721.19	0.534
721.37	0.534
721.56	0.535
721.74	0.537
721.93	0.545
722.11	0.550
722.30	0.550
722.48	0.554
722.66	0.555
722.85	0.555
723.03	0.555
723.22	0.554
723.40	0.556
723.59	0.555
723.77	0.560
723.95	0.554
724.14	0.556
724.32	0.558
724.51	0.557
724.69	0.559
724.88	0.559
725.06	0.557
725.24	0.558
725.43	0.561
725.61	0.563
725.80	0.557
725.98	0.556
726.16	0.552
726.35	0.557
726.53	0.556
726.72	0.556
726.90	0.565
727.09	0.566
727.27	0.571
727.45	0.568
727.64	0.577
727.82	0.585
728.01	0.588
728.19	0.586
728.37	0.591
728.56	0.594
728.74	0.601
728.92	0.591
729.11	0.593
729.29	0.592
729.48	0.594
729.66	0.586
729.84	0.584
730.03	0.587
730.21	0.589
730.40	0.581
730.58	0.582
730.76	0.582
730.95	0.583
731.13	0.583
731.31	0.594
731.50	0.602
731.68	0.604
731.86	0.602
732.05	0.615
732.23	0.617
732.42	0.620
732.60	0.624
732.78	0.628
732.97	0.644
733.15	0.651
733.33	0.641
733.52	0.649
733.70	0.659
733.88	0.668
734.07	0.656
734.25	0.681
734.43	0.691
734.62	0.696
734.80	0.691
734.98	0.681
735.17	0.687
735.35	0.693
735.53	0.682
735.72	0.685
735.90	0.703
736.08	0.720
736.27	0.699
736.45	0.705
736.63	0.711
736.82	0.724
737.00	0.726
737.18	0.735
737.37	0.762
737.55	0.783
737.73	0.779
737.92	0.783
738.10	0.778
738.28	0.796
738.46	0.784
738.65	0.796
738.83	0.813
739.01	0.865
739.20	0.855
739.38	0.838
739.56	0.827
739.75	0.828
739.93	0.798
740.11	0.824
740.29	0.823
740.48	0.831
740.66	0.812
740.84	0.806
741.03	0.768
741.21	0.781
741.39	0.767
741.57	0.780
741.76	0.799
741.94	0.805
742.12	0.774
742.31	0.782
742.49	0.796
742.67	0.821
742.85	0.838
743.04	0.844
743.22	0.845
743.40	0.895
743.58	0.881
743.77	0.893
743.95	0.919
744.13	0.966
744.31	0.948
744.50	0.946
744.68	0.941
744.86	0.917
745.04	0.929
745.23	0.992
745.41	0.970
745.59	0.975
745.77	0.943
745.96	0.935
746.14	0.938
746.32	0.932
746.50	0.922
746.69	0.906
746.87	0.910
747.05	0.895
747.23	0.831
747.42	0.818
747.60	0.838
747.78	0.845
747.96	0.875
748.14	0.837
748.33	0.864
748.51	0.860
748.69	0.856
748.87	0.876
749.06	0.873
749.24	0.871
749.42	0.863
749.60	0.850
749.78	0.859
749.97	0.813
750.15	0.808
750.33	0.804
750.51	0.827
750.69	0.832
750.88	0.841
751.06	0.851
751.24	0.872
751.42	0.863
751.60	0.855
751.79	0.917
751.97	0.956
752.15	0.959
752.33	0.936
752.51	0.993
752.69	1.004
752.88	0.979
753.06	1.024
753.24	1.003
753.42	1.028
753.60	1.174
753.78	1.047
753.97	1.069
754.15	1.077
754.33	1.103
754.51	0.996
754.69	0.978
754.87	0.998
755.06	0.938
755.24	0.942
755.42	0.951
755.60	0.862
755.78	0.871
755.96	0.822
756.15	0.823
756.33	0.824
756.51	0.841
756.69	0.834
756.87	0.803
757.05	0.820
757.23	0.805
757.42	0.777
757.60	0.774
757.78	0.765
757.96	0.762
758.14	0.749
758.32	0.735
758.50	0.744
758.69	0.743
758.87	0.736
759.05	0.734
759.23	0.740
759.41	0.740
759.59	0.733
759.77	0.752
759.95	0.773
760.13	0.815
760.32	0.814
760.50	0.811
760.68	0.828
760.86	0.833
761.04	0.814
761.22	0.817
761.40	0.860
761.58	0.862
761.76	0.840
761.95	0.826
762.13	0.786
762.31	0.787
762.49	0.759
762.67	0.776
762.85	0.785
763.03	0.780
763.21	0.766
763.39	0.747
763.57	0.749
763.75	0.744
763.94	0.732
764.12	0.732
764.30	0.754
764.48	0.760
764.66	0.727
764.84	0.725
765.02	0.761
765.20	0.767
765.38	0.750
765.56	0.755
765.74	0.788
765.92	0.789
766.10	0.794
766.28	0.789
766.46	0.809
766.65	0.810
766.83	0.802
767.01	0.784
767.19	0.790
767.37	0.791
767.55	0.781
767.73	0.764
767.91	0.764
768.09	0.757
768.27	0.745
768.45	0.737
768.63	0.742
768.81	0.740
768.99	0.715
769.17	0.735
769.35	0.746
769.53	0.745
769.71	0.729
769.89	0.736
770.07	0.741
770.25	0.726
770.43	0.707
770.61	0.725
770.79	0.728
770.97	0.738
771.15	0.714
771.33	0.717
771.51	0.716
771.69	0.725
771.87	0.733
772.05	0.737
772.24	0.740
772.42	0.751
772.60	0.732
772.78	0.789
772.96	0.811
773.14	0.806
773.32	0.788
773.49	0.794
773.67	0.793
773.85	0.776
774.03	0.765
774.21	0.797
774.39	0.803
774.57	0.825
774.75	0.763
774.93	0.760
775.11	0.778
775.29	0.782
775.47	0.785
775.65	0.794
775.83	0.809
776.01	0.828
776.19	0.789
776.37	0.791
776.55	0.791
776.73	0.785
776.91	0.781
777.09	0.764
777.27	0.761
777.45	0.750
777.63	0.728
777.81	0.724
777.99	0.713
778.17	0.711
778.35	0.692
778.53	0.678
778.71	0.683
778.89	0.672
779.07	0.664
779.24	0.670
779.42	0.672
779.60	0.688
779.78	0.686
779.96	0.687
780.14	0.695
780.32	0.711
780.50	0.700
780.68	0.699
780.86	0.692
781.04	0.707
781.22	0.712
781.40	0.721
781.58	0.710
781.75	0.704
781.93	0.691
782.11	0.690
782.29	0.679
782.47	0.676
782.65	0.665
782.83	0.689
783.01	0.681
783.19	0.675
783.37	0.665
783.55	0.669
783.72	0.683
783.90	0.693
784.08	0.686
784.26	0.696
784.44	0.715
784.62	0.719
784.80	0.693
784.98	0.700
785.16	0.706
785.33	0.716
785.51	0.707
785.69	0.694
785.87	0.693
786.05	0.702
786.23	0.700
786.41	0.696
786.59	0.701
786.77	0.700
786.94	0.690
787.12	0.694
787.30	0.695
787.48	0.691
787.66	0.682
787.84	0.681
788.02	0.673
788.19	0.672
788.37	0.661
788.55	0.662
788.73	0.660
788.91	0.653
789.09	0.637
789.27	0.627
789.44	0.637
789.62	0.643
789.80	0.652
789.98	0.675
790.16	0.663
790.34	0.658
790.51	0.647
790.69	0.665
790.87	0.670
791.05	0.667
791.23	0.662
791.41	0.663
791.58	0.668
791.76	0.650
791.94	0.624
792.12	0.631
792.30	0.634
792.48	0.634
792.65	0.629
792.83	0.634
793.01	0.641
793.19	0.639
793.37	0.624
793.54	0.621
793.72	0.631
793.90	0.628
794.08	0.621
794.26	0.623
794.43	0.630
794.61	0.614
794.79	0.606
794.97	0.605
795.15	0.609
795.32	0.615
795.50	0.606
795.68	0.600
795.86	0.603
796.04	0.603
796.21	0.597
796.39	0.596
796.57	0.608
796.75	0.614
796.92	0.616
797.10	0.619
797.28	0.618
797.46	0.621
797.64	0.624
797.81	0.631
797.99	0.634
798.17	0.637
798.35	0.632
798.52	0.636
798.70	0.632
798.88	0.642
799.06	0.644
799.23	0.646
799.41	0.653
799.59	0.647
799.77	0.637
799.94	0.643
800.12	0.651
800.30	0.667
800.48	0.664
800.65	0.665
800.83	0.653
801.01	0.644
801.19	0.645
801.36	0.641
801.54	0.643
801.72	0.650
801.90	0.640
802.07	0.635
802.25	0.622
802.43	0.607
802.60	0.603
802.78	0.610
802.96	0.616
803.14	0.610
803.31	0.608
803.49	0.608
803.67	0.604
803.84	0.608
804.02	0.601
804.20	0.603
804.38	0.608
804.55	0.609
804.73	0.597
804.91	0.596
805.08	0.609
805.26	0.606
805.44	0.669
805.61	0.673
805.79	0.670
805.97	0.671
806.15	0.664
806.32	0.661
806.50	0.667
806.68	0.669
806.85	0.662
807.03	0.651
807.21	0.667
807.38	0.602
807.56	0.592
807.74	0.602
807.91	0.608
808.09	0.610
808.27	0.628
808.44	0.651
808.62	0.658
808.80	0.659
808.97	0.656
809.15	0.648
809.33	0.665
809.50	0.672
809.68	0.660
809.86	0.669
810.03	0.699
810.21	0.679
810.39	0.663
810.56	0.667
810.74	0.686
810.91	0.752
811.09	0.745
811.27	0.764
811.44	0.771
811.62	0.772
811.80	0.757
811.97	0.728
812.15	0.727
812.33	0.722
812.50	0.710
812.68	0.699
812.85	0.644
813.03	0.646
813.21	0.619
813.38	0.612
813.56	0.613
813.74	0.622
813.91	0.630
814.09	0.655
814.26	0.647
814.44	0.651
814.62	0.645
814.79	0.649
814.97	0.651
815.14	0.653
815.32	0.657
815.50	0.672
815.67	0.675
815.85	0.667
816.02	0.657
816.20	0.664
816.38	0.677
816.55	0.680
816.73	0.681
816.90	0.690
817.08	0.719
817.26	0.726
817.43	0.709
817.61	0.732
817.78	0.747
817.96	0.730
818.13	0.720
818.31	0.718
818.49	0.731
818.66	0.722
818.84	0.709
819.01	0.688
819.19	0.692
819.36	0.694
819.54	0.668
819.71	0.708
819.89	0.719
820.07	0.730
820.24	0.726
820.42	0.727
820.59	0.744
820.77	0.767
820.94	0.761
821.12	0.776
821.29	0.787
821.47	0.785
821.64	0.727
821.82	0.738
822.00	0.739
822.17	0.739
822.35	0.735
822.52	0.736
822.70	0.722
822.87	0.731
823.05	0.713
823.22	0.724
823.40	0.747
823.57	0.772
823.75	0.755
823.92	0.775
824.10	0.792
824.27	0.825
824.45	0.819
824.62	0.876
824.80	0.890
824.97	0.901
825.15	0.892
825.32	0.906
825.50	0.897
825.67	0.909
825.85	0.887
826.02	0.896
826.20	0.911
826.37	1.019
826.55	0.954
826.72	1.102
826.90	1.155
827.07	1.205
827.25	1.162
827.42	1.297
827.60	1.408
827.77	1.540
827.95	1.529
828.12	1.606
828.30	1.340
828.47	1.442
828.65	1.157
828.82	1.203
829.00	1.230
829.17	1.290
829.34	1.296
829.52	1.307
829.69	-0.000
829.87	-0.000
830.04	-0.000
830.22	-0.000
830.39	-0.000
830.57	-0.000
830.74	-0.000
830.92	-0.000
831.09	-0.000
831.26	-0.000
831.44	-0.000
831.61	-0.000
831.79	-0.000
831.96	-0.000
832.14	-0.000
832.31	-0.000
832.49	-0.000
832.66	-0.000
832.83	-0.000
833.01	-0.000
833.18	-0.000
833.36	-0.000
833.53	-0.000
833.70	-0.000
833.88	-0.000
834.05	-0.000
834.23	-0.000
834.40	-0.000
834.58	-0.000
834.75	-0.000
834.92	-0.000
835.10	-0.000
835.27	-0.000
835.45	-0.000
835.62	-0.000
835.79	-0.000
835.97	-0.000
836.14	-0.000
836.32	-0.000
836.49	-0.000
836.66	-0.000
836.84	-0.000
837.01	-0.000
837.18	-0.000
837.36	-0.000
837.53	-0.000
837.71	-0.000
837.88	-0.000
838.05	-0.000
838.23	-0.000
838.40	-0.000
838.58	-0.000
838.75	-0.000
838.92	-0.000
839.10	-0.000
839.27	-0.000
839.44	-0.000
839.62	-0.000
839.79	-0.000
839.96	-0.000
840.14	-0.000
840.31	-0.000
840.48	-0.000
840.66	-0.000
840.83	-0.000
841.01	-0.000
841.18	-0.000
841.35	-0.000
841.53	-0.000
841.70	-0.000
841.87	-0.000
842.05	-0.000
842.22	-0.000
842.39	-0.000
842.57	-0.000
842.74	-0.000
842.91	-0.000
843.09	-0.000
843.26	-0.000
843.43	-0.000
843.60	-0.000
843.78	-0.000
843.95	-0.000
844.12	-0.000
844.30	-0.000
844.47	-0.000
844.64	-0.000
844.82	-0.000
844.99	-0.000
845.16	-0.000
845.34	-0.000
845.51	-0.000
845.68	-0.000
845.85	-0.000
846.03	-0.000
846.20	-0.000
846.37	-0.000
846.55	-0.000
846.72	-0.000
846.89	-0.000
847.06	-0.000
847.24	-0.000
847.41	-0.000
847.58	-0.000
847.76	-0.000
847.93	-0.000
848.10	-0.000
848.27	-0.000
848.45	-0.000
848.62	-0.000
848.79	-0.000
848.97	-0.000
849.14	-0.000
849.31	-0.000
849.48	-0.000
849.66	-0.000
849.83	-0.000
850.00	-0.000
850.17	-0.000
850.35	-0.000
850.52	-0.000
850.69	-0.000
850.86	-0.000
851.04	-0.000
851.21	-0.000
851.38	-0.000
851.55	-0.000
851.72	-0.000
851.90	-0.000
852.07	-0.000
852.24	-0.000
852.41	-0.000
852.59	-0.000
852.76	-0.000
852.93	-0.000
853.10	-0.000
853.28	-0.000
853.45	-0.000
853.62	-0.000
853.79	-0.000
853.96	-0.000
854.14	-0.000
854.31	-0.000
854.48	-0.000
854.65	-0.000
854.82	-0.000
855.00	-0.000
855.17	-0.000
855.34	-0.000
855.51	-0.000
855.68	-0.000
855.86	-0.000
856.03	-0.000
856.20	-0.000
856.37	-0.000
856.54	-0.000
856.72	-0.000
856.89	-0.000
857.06	-0.000
857.23	-0.000
857.40	-0.000
857.57	-0.000
857.75	-0.000
857.92	-0.000
858.09	-0.000
858.26	-0.000
858.43	-0.000
858.60	-0.000
858.78	-0.000
858.95	-0.000
859.12	-0.000
859.29	-0.000
859.46	-0.000
859.63	-0.000
859.81	-0.000
859.98	-0.000
860.15	-0.000
860.32	-0.000
860.49	-0.000
860.66	-0.000
860.83	-0.000
861.01	-0.000
861.18	-0.000
861.35	-0.000
861.52	-0.000
861.69	-0.000
861.86	-0.000
862.03	-0.000
862.21	-0.000
862.38	-0.000
862.55	-0.000
862.72	-0.000
862.89	-0.000
863.06	-0.000
863.23	-0.000
863.40	-0.000
863.58	-0.000
863.75	-0.000
863.92	-0.000
864.09	-0.000
864.26	-0.000
864.43	-0.000
864.60	-0.000
864.77	-0.000
864.94	-0.000
865.11	-0.000
865.29	-0.000
865.46	-0.000
865.63	-0.000
865.80	-0.000
865.97	-0.000
866.14	-0.000
866.31	-0.000
866.48	-0.000
866.65	-0.000
866.82	-0.000
866.99	-0.000
867.16	-0.000
867.34	-0.000
867.51	-0.000
867.68	-0.000
867.85	-0.000
868.02	-0.000
868.19	-0.000
868.36	-0.000
868.53	-0.000
868.70	-0.000
868.87	-0.000
869.04	-0.000
869.21	-0.000
869.38	-0.000
869.55	-0.000
869.72	-0.000
869.89	-0.000
870.06	-0.000
870.24	-0.000
870.41	-0.000
870.58	-0.000
870.75	-0.000
870.92	-0.000
871.09	-0.000
871.26	-0.000
871.43	-0.000
871.60	-0.000
871.77	-0.000
871.94	-0.000
872.11	-0.000
872.28	-0.000
872.45	-0.000
872.62	-0.000
872.79	-0.000
872.96	-0.000
873.13	-0.000
873.30	-0.000
873.47	-0.000
873.64	-0.000
873.81	-0.000
873.98	-0.000
874.15	-0.000
874.32	-0.000
874.49	-0.000
874.66	-0.000
874.83	-0.000
875.00	-0.000
875.17	-0.000
875.34	-0.000
875.51	-0.000
875.68	-0.000
875.85	-0.000
876.02	-0.000
876.19	-0.000
876.36	-0.000
876.53	-0.000
876.70	-0.000
876.87	-0.000
877.04	-0.000
877.21	-0.000
877.38	-0.000
877.55	-0.000
877.72	-0.000
877.89	-0.000
878.06	-0.000
878.23	-0.000
878.39	-0.000
878.56	-0.000
878.73	-0.000
878.90	-0.000
879.07	-0.000
879.24	-0.000
879.41	-0.000
879.58	-0.000
879.75	-0.000
879.92	-0.000
880.09	-0.000
880.26	-0.000
880.43	-0.000
880.60	-0.000
880.77	-0.000
880.94	-0.000
881.11	-0.000
881.27	-0.000
881.44	-0.000
881.61	-0.000
881.78	-0.000
881.95	-0.000
882.12	-0.000
882.29	-0.000
882.46	-0.000
882.63	-0.000
882.80	-0.000
882.97	-0.000
883.14	-0.000
883.30	-0.000
883.47	-0.000
883.64	-0.000
883.81	-0.000
883.98	-0.000
884.15	-0.000
884.32	-0.000
884.49	-0.000
884.66	-0.000
884.82	-0.000
884.99	-0.000
885.16	-0.000
885.33	-0.000
885.50	-0.000
885.67	-0.000
885.84	-0.000
886.01	-0.000
886.17	-0.000
886.34	-0.000
886.51	-0.000
886.68	-0.000
886.85	-0.000
887.02	-0.000
887.19	-0.000
887.36	-0.000
887.52	-0.000
887.69	-0.000
887.86	-0.000
888.03	-0.000
888.20	-0.000
888.37	-0.000
888.54	-0.000
888.70	-0.000
888.87	-0.000
889.04	-0.000
889.21	-0.000
889.38	-0.000
889.55	-0.000
889.71	-0.000
889.88	-0.000
890.05	-0.000
890.22	-0.000
890.39	-0.000
>>>>>End Processed Spectral Data<<<<<
