SpectraSuite Data File
++++++++++++++++++++++++++++++++++++
Date: Fri Jun 19 13:23:02 CEST 2015
User: introlabs
Dark Spectrum Present: Yes
Reference Spectrum Present: Yes
Number of Sampled Component Spectra: 1
Spectrometers: USB4H08886
Integration Time (usec): 745692 (USB4H08886)
Spectra Averaged: 5 (USB4H08886)
Boxcar Smoothing: 5 (USB4H08886)
Correct for Electrical Dark: Yes (USB4H08886)
Strobe/Lamp Enabled: No (USB4H08886)
Correct for Detector Non-linearity: Yes (USB4H08886)
Correct for Stray Light: Yes (USB4H08886)
Number of Pixels in Processed Spectrum: 3648
>>>>>Begin Processed Spectral Data<<<<<
178.14	-0.000
178.36	-0.000
178.57	-0.000
178.79	-0.000
179.01	-0.000
179.22	-0.000
179.44	-0.000
179.65	-0.000
179.87	-0.000
180.08	-0.000
180.30	-0.000
180.52	-0.000
180.73	-0.000
180.95	-0.000
181.16	-0.000
181.38	-0.000
181.59	-0.000
181.81	-0.000
182.03	-0.000
182.24	-0.000
182.46	-0.000
182.67	-0.000
182.89	-0.000
183.10	-0.000
183.32	-0.000
183.54	-0.000
183.75	-0.000
183.97	-0.000
184.18	-0.000
184.40	-0.000
184.61	-0.000
184.83	-0.000
185.04	-0.000
185.26	-0.000
185.48	-0.000
185.69	-0.000
185.91	-0.000
186.12	-0.000
186.34	-0.000
186.55	-0.000
186.77	-0.000
186.98	-0.000
187.20	-0.000
187.42	-0.000
187.63	-0.000
187.85	-0.000
188.06	-0.000
188.28	-0.000
188.49	-0.000
188.71	-0.000
188.92	-0.000
189.14	-0.000
189.36	-0.000
189.57	-0.000
189.79	-0.000
190.00	-0.000
190.22	-0.000
190.43	-0.000
190.65	-0.000
190.86	-0.000
191.08	-0.000
191.29	-0.000
191.51	-0.000
191.72	-0.000
191.94	-0.000
192.16	-0.000
192.37	-0.000
192.59	-0.000
192.80	-0.000
193.02	-0.000
193.23	-0.000
193.45	-0.000
193.66	-0.000
193.88	-0.000
194.09	-0.000
194.31	-0.000
194.52	-0.000
194.74	-0.000
194.95	-0.000
195.17	-0.000
195.38	-0.000
195.60	-0.000
195.81	-0.000
196.03	-0.000
196.25	-0.000
196.46	-0.000
196.68	-0.000
196.89	-0.000
197.11	-0.000
197.32	-0.000
197.54	-0.000
197.75	-0.000
197.97	-0.000
198.18	-0.000
198.40	-0.000
198.61	-0.000
198.83	-0.000
199.04	-0.000
199.26	-0.000
199.47	-0.000
199.69	-0.000
199.90	-0.000
200.12	-0.000
200.33	-0.000
200.55	-0.000
200.76	-0.000
200.98	-0.000
201.19	-0.000
201.41	-0.000
201.62	-0.000
201.84	-0.000
202.05	-0.000
202.27	-0.000
202.48	-0.000
202.70	-0.000
202.91	-0.000
203.13	-0.000
203.34	-0.000
203.56	-0.000
203.77	-0.000
203.99	-0.000
204.20	-0.000
204.42	-0.000
204.63	-0.000
204.85	-0.000
205.06	-0.000
205.28	-0.000
205.49	-0.000
205.71	-0.000
205.92	-0.000
206.14	-0.000
206.35	-0.000
206.56	-0.000
206.78	-0.000
206.99	-0.000
207.21	-0.000
207.42	-0.000
207.64	-0.000
207.85	-0.000
208.07	-0.000
208.28	-0.000
208.50	-0.000
208.71	-0.000
208.93	-0.000
209.14	-0.000
209.36	-0.000
209.57	-0.000
209.79	-0.000
210.00	-0.000
210.22	-0.000
210.43	-0.000
210.64	-0.000
210.86	-0.000
211.07	-0.000
211.29	-0.000
211.50	-0.000
211.72	-0.000
211.93	-0.000
212.15	-0.000
212.36	-0.000
212.58	-0.000
212.79	-0.000
213.01	-0.000
213.22	-0.000
213.43	-0.000
213.65	-0.000
213.86	-0.000
214.08	-0.000
214.29	-0.000
214.51	-0.000
214.72	-0.000
214.94	-0.000
215.15	-0.000
215.36	-0.000
215.58	-0.000
215.79	-0.000
216.01	-0.000
216.22	-0.000
216.44	-0.000
216.65	-0.000
216.87	-0.000
217.08	-0.000
217.29	-0.000
217.51	-0.000
217.72	-0.000
217.94	-0.000
218.15	-0.000
218.37	-0.000
218.58	-0.000
218.80	-0.000
219.01	-0.000
219.22	-0.000
219.44	-0.000
219.65	-0.000
219.87	-0.000
220.08	-0.000
220.30	-0.000
220.51	-0.000
220.72	-0.000
220.94	-0.000
221.15	-0.000
221.37	-0.000
221.58	-0.000
221.79	-0.000
222.01	-0.000
222.22	-0.000
222.44	-0.000
222.65	-0.000
222.87	-0.000
223.08	-0.000
223.29	-0.000
223.51	-0.000
223.72	-0.000
223.94	-0.000
224.15	-0.000
224.36	-0.000
224.58	-0.000
224.79	-0.000
225.01	-0.000
225.22	-0.000
225.44	-0.000
225.65	-0.000
225.86	-0.000
226.08	-0.000
226.29	-0.000
226.51	-0.000
226.72	-0.000
226.93	-0.000
227.15	-0.000
227.36	-0.000
227.58	-0.000
227.79	-0.000
228.00	-0.000
228.22	-0.000
228.43	-0.000
228.65	-0.000
228.86	-0.000
229.07	-0.000
229.29	-0.000
229.50	-0.000
229.72	-0.000
229.93	-0.000
230.14	-0.000
230.36	-0.000
230.57	-0.000
230.78	-0.000
231.00	-0.000
231.21	-0.000
231.43	-0.000
231.64	-0.000
231.85	-0.000
232.07	-0.000
232.28	-0.000
232.50	-0.000
232.71	-0.000
232.92	-0.000
233.14	-0.000
233.35	-0.000
233.56	-0.000
233.78	-0.000
233.99	-0.000
234.21	-0.000
234.42	-0.000
234.63	-0.000
234.85	-0.000
235.06	-0.000
235.27	-0.000
235.49	-0.000
235.70	-0.000
235.91	-0.000
236.13	-0.000
236.34	-0.000
236.56	-0.000
236.77	-0.000
236.98	-0.000
237.20	-0.000
237.41	-0.000
237.62	-0.000
237.84	-0.000
238.05	-0.000
238.26	-0.000
238.48	-0.000
238.69	-0.000
238.91	-0.000
239.12	-0.000
239.33	-0.000
239.55	-0.000
239.76	-0.000
239.97	-0.000
240.19	-0.000
240.40	-0.000
240.61	-0.000
240.83	-0.000
241.04	-0.000
241.25	-0.000
241.47	-0.000
241.68	-0.000
241.89	-0.000
242.11	-0.000
242.32	-0.000
242.53	-0.000
242.75	-0.000
242.96	-0.000
243.17	-0.000
243.39	-0.000
243.60	-0.000
243.81	-0.000
244.03	-0.000
244.24	-0.000
244.45	-0.000
244.67	-0.000
244.88	-0.000
245.09	-0.000
245.31	-0.000
245.52	-0.000
245.73	-0.000
245.95	-0.000
246.16	-0.000
246.37	-0.000
246.59	-0.000
246.80	-0.000
247.01	-0.000
247.23	-0.000
247.44	-0.000
247.65	-0.000
247.87	-0.000
248.08	-0.000
248.29	-0.000
248.51	-0.000
248.72	-0.000
248.93	-0.000
249.15	-0.000
249.36	-0.000
249.57	-0.000
249.78	-0.000
250.00	-0.000
250.21	-0.000
250.42	-0.000
250.64	-0.000
250.85	-0.000
251.06	-0.000
251.28	-0.000
251.49	-0.000
251.70	-0.000
251.92	-0.000
252.13	-0.000
252.34	-0.000
252.55	-0.000
252.77	-0.000
252.98	-0.000
253.19	-0.000
253.41	-0.000
253.62	-0.000
253.83	-0.000
254.05	-0.000
254.26	-0.000
254.47	-0.000
254.68	-0.000
254.90	-0.000
255.11	-0.000
255.32	-0.000
255.54	-0.000
255.75	-0.000
255.96	-0.000
256.17	-0.000
256.39	-0.000
256.60	-0.000
256.81	-0.000
257.03	-0.000
257.24	-0.000
257.45	-0.000
257.66	-0.000
257.88	-0.000
258.09	-0.000
258.30	-0.000
258.51	-0.000
258.73	-0.000
258.94	-0.000
259.15	-0.000
259.37	-0.000
259.58	-0.000
259.79	-0.000
260.00	-0.000
260.22	-0.000
260.43	-0.000
260.64	-0.000
260.85	-0.000
261.07	-0.000
261.28	-0.000
261.49	-0.000
261.71	-0.000
261.92	-0.000
262.13	-0.000
262.34	-0.000
262.56	-0.000
262.77	-0.000
262.98	-0.000
263.19	-0.000
263.41	-0.000
263.62	-0.000
263.83	-0.000
264.04	-0.000
264.26	-0.000
264.47	-0.000
264.68	-0.000
264.89	-0.000
265.11	-0.000
265.32	-0.000
265.53	-0.000
265.74	-0.000
265.96	-0.000
266.17	-0.000
266.38	-0.000
266.59	-0.000
266.81	-0.000
267.02	-0.000
267.23	-0.000
267.44	-0.000
267.65	-0.000
267.87	-0.000
268.08	-0.000
268.29	-0.000
268.50	-0.000
268.72	-0.000
268.93	-0.000
269.14	-0.000
269.35	-0.000
269.57	-0.000
269.78	-0.000
269.99	-0.000
270.20	-0.000
270.41	-0.000
270.63	-0.000
270.84	-0.000
271.05	-0.000
271.26	-0.000
271.48	-0.000
271.69	-0.000
271.90	-0.000
272.11	-0.000
272.32	-0.000
272.54	-0.000
272.75	-0.000
272.96	-0.000
273.17	-0.000
273.39	-0.000
273.60	-0.000
273.81	-0.000
274.02	-0.000
274.23	-0.000
274.45	-0.000
274.66	-0.000
274.87	-0.000
275.08	-0.000
275.29	-0.000
275.51	-0.000
275.72	-0.000
275.93	-0.000
276.14	-0.000
276.35	-0.000
276.57	-0.000
276.78	-0.000
276.99	-0.000
277.20	-0.000
277.41	-0.000
277.63	-0.000
277.84	-0.000
278.05	-0.000
278.26	-0.000
278.47	-0.000
278.69	-0.000
278.90	-0.000
279.11	-0.000
279.32	-0.000
279.53	-0.000
279.74	-0.000
279.96	-0.000
280.17	-0.000
280.38	-0.000
280.59	-0.000
280.80	-0.000
281.02	-0.000
281.23	-0.000
281.44	-0.000
281.65	-0.000
281.86	-0.000
282.07	-0.000
282.29	-0.000
282.50	-0.000
282.71	-0.000
282.92	-0.000
283.13	-0.000
283.35	-0.000
283.56	-0.000
283.77	-0.000
283.98	-0.000
284.19	-0.000
284.40	-0.000
284.62	-0.000
284.83	-0.000
285.04	-0.000
285.25	-0.000
285.46	-0.000
285.67	-0.000
285.88	-0.000
286.10	-0.000
286.31	-0.000
286.52	-0.000
286.73	-0.000
286.94	-0.000
287.15	-0.000
287.37	-0.000
287.58	-0.000
287.79	-0.000
288.00	-0.000
288.21	-0.000
288.42	-0.000
288.63	-0.000
288.85	-0.000
289.06	-0.000
289.27	-0.000
289.48	-0.000
289.69	-0.000
289.90	-0.000
290.11	-0.000
290.33	-0.000
290.54	-0.000
290.75	-0.000
290.96	-0.000
291.17	-0.000
291.38	-0.000
291.59	-0.000
291.81	-0.000
292.02	-0.000
292.23	-0.000
292.44	-0.000
292.65	-0.000
292.86	-0.000
293.07	-0.000
293.28	-0.000
293.50	-0.000
293.71	-0.000
293.92	-0.000
294.13	-0.000
294.34	-0.000
294.55	-0.000
294.76	-0.000
294.97	-0.000
295.19	-0.000
295.40	-0.000
295.61	-0.000
295.82	-0.000
296.03	-0.000
296.24	-0.000
296.45	-0.000
296.66	-0.000
296.87	-0.000
297.09	-0.000
297.30	-0.000
297.51	2.608
297.72	2.341
297.93	3.426
298.14	2.650
298.35	2.356
298.56	2.228
298.77	-0.000
298.99	3.024
299.20	2.569
299.41	2.341
299.62	2.191
299.83	2.143
300.04	1.943
300.25	1.941
300.46	2.062
300.67	1.969
300.88	1.842
301.10	1.833
301.31	1.992
301.52	1.865
301.73	1.756
301.94	1.753
302.15	1.776
302.36	1.708
302.57	1.600
302.78	1.612
302.99	1.689
303.20	1.714
303.41	1.567
303.63	1.533
303.84	1.546
304.05	1.539
304.26	1.456
304.47	1.470
304.68	1.473
304.89	1.452
305.10	1.394
305.31	1.373
305.52	1.430
305.73	1.422
305.94	1.371
306.15	1.362
306.37	1.388
306.58	1.396
306.79	1.350
307.00	1.375
307.21	1.429
307.42	1.419
307.63	1.370
307.84	1.331
308.05	1.376
308.26	1.373
308.47	1.337
308.68	1.333
308.89	1.334
309.10	1.328
309.31	1.282
309.52	1.272
309.73	1.292
309.95	1.284
310.16	1.246
310.37	1.235
310.58	1.261
310.79	1.259
311.00	1.253
311.21	1.256
311.42	1.258
311.63	1.250
311.84	1.225
312.05	1.218
312.26	1.247
312.47	1.259
312.68	1.231
312.89	1.209
313.10	1.219
313.31	1.191
313.52	1.192
313.73	1.195
313.94	1.199
314.15	1.180
314.36	1.155
314.57	1.147
314.78	1.134
314.99	1.125
315.21	1.111
315.42	1.113
315.63	1.128
315.84	1.101
316.05	1.083
316.26	1.090
316.47	1.110
316.68	1.106
316.89	1.084
317.10	1.108
317.31	1.115
317.52	1.117
317.73	1.094
317.94	1.092
318.15	1.138
318.36	1.140
318.57	1.120
318.78	1.105
318.99	1.146
319.20	1.142
319.41	1.103
319.62	1.104
319.83	1.119
320.04	1.113
320.25	1.097
320.46	1.062
320.67	1.068
320.88	1.062
321.09	1.047
321.30	1.030
321.51	1.046
321.72	1.044
321.93	1.026
322.14	1.017
322.35	1.046
322.56	1.048
322.77	1.033
322.98	1.043
323.19	1.055
323.40	1.060
323.61	1.036
323.82	1.030
324.03	1.037
324.24	1.035
324.45	1.022
324.66	1.002
324.87	0.999
325.08	0.999
325.29	0.978
325.50	0.970
325.71	0.976
325.92	0.985
326.13	0.971
326.34	0.971
326.55	0.980
326.76	0.977
326.97	0.965
327.18	0.959
327.39	0.985
327.60	0.985
327.80	0.984
328.01	0.982
328.22	0.982
328.43	0.985
328.64	0.973
328.85	0.977
329.06	0.980
329.27	0.979
329.48	0.973
329.69	0.954
329.90	0.965
330.11	0.958
330.32	0.949
330.53	0.942
330.74	0.942
330.95	0.940
331.16	0.923
331.37	0.931
331.58	0.931
331.79	0.930
332.00	0.921
332.21	0.914
332.42	0.918
332.63	0.908
332.83	0.904
333.04	0.907
333.25	0.920
333.46	0.919
333.67	0.904
333.88	0.907
334.09	0.919
334.30	0.915
334.51	0.905
334.72	0.902
334.93	0.905
335.14	0.904
335.35	0.895
335.56	0.891
335.77	0.899
335.98	0.898
336.18	0.890
336.39	0.882
336.60	0.887
336.81	0.885
337.02	0.883
337.23	0.889
337.44	0.891
337.65	0.892
337.86	0.881
338.07	0.876
338.28	0.881
338.49	0.879
338.70	0.872
338.91	0.878
339.11	0.886
339.32	0.883
339.53	0.870
339.74	0.867
339.95	0.865
340.16	0.863
340.37	0.854
340.58	0.853
340.79	0.858
341.00	0.857
341.21	0.846
341.41	0.847
341.62	0.849
341.83	0.851
342.04	0.847
342.25	0.858
342.46	0.864
342.67	0.862
342.88	0.854
343.09	0.853
343.30	0.861
343.50	0.863
343.71	0.853
343.92	0.850
344.13	0.855
344.34	0.853
344.55	0.837
344.76	0.836
344.97	0.840
345.18	0.837
345.38	0.835
345.59	0.828
345.80	0.829
346.01	0.827
346.22	0.822
346.43	0.816
346.64	0.825
346.85	0.824
347.06	0.817
347.26	0.819
347.47	0.824
347.68	0.819
347.89	0.816
348.10	0.810
348.31	0.818
348.52	0.816
348.73	0.813
348.93	0.810
349.14	0.813
349.35	0.811
349.56	0.804
349.77	0.799
349.98	0.805
350.19	0.802
350.39	0.797
350.60	0.793
350.81	0.811
351.02	0.809
351.23	0.804
351.44	0.806
351.65	0.810
351.86	0.808
352.06	0.806
352.27	0.806
352.48	0.806
352.69	0.806
352.90	0.800
353.11	0.786
353.31	0.793
353.52	0.790
353.73	0.781
353.94	0.781
354.15	0.789
354.36	0.788
354.57	0.779
354.77	0.782
354.98	0.783
355.19	0.783
355.40	0.781
355.61	0.787
355.82	0.791
356.02	0.791
356.23	0.784
356.44	0.786
356.65	0.791
356.86	0.791
357.07	0.785
357.27	0.788
357.48	0.791
357.69	0.787
357.90	0.771
358.11	0.768
358.32	0.772
358.52	0.775
358.73	0.765
358.94	0.767
359.15	0.773
359.36	0.773
359.56	0.767
359.77	0.764
359.98	0.771
360.19	0.770
360.40	0.767
360.61	0.766
360.81	0.766
361.02	0.766
361.23	0.757
361.44	0.755
361.65	0.756
361.85	0.756
362.06	0.754
362.27	0.755
362.48	0.756
362.69	0.757
362.89	0.751
363.10	0.753
363.31	0.758
363.52	0.761
363.73	0.755
363.93	0.756
364.14	0.758
364.35	0.760
364.56	0.749
364.77	0.751
364.97	0.754
365.18	0.754
365.39	0.748
365.60	0.745
365.81	0.746
366.01	0.746
366.22	0.743
366.43	0.742
366.64	0.744
366.84	0.751
367.05	0.747
367.26	0.746
367.47	0.749
367.68	0.749
367.88	0.746
368.09	0.744
368.30	0.747
368.51	0.747
368.71	0.746
368.92	0.750
369.13	0.748
369.34	0.747
369.55	0.746
369.75	0.746
369.96	0.753
370.17	0.752
370.38	0.748
370.58	0.747
370.79	0.752
371.00	0.750
371.21	0.741
371.41	0.747
371.62	0.751
371.83	0.747
372.04	0.745
372.24	0.738
372.45	0.739
372.66	0.739
372.87	0.736
373.07	0.733
373.28	0.734
373.49	0.737
373.70	0.727
373.90	0.727
374.11	0.737
374.32	0.736
374.53	0.734
374.73	0.736
374.94	0.738
375.15	0.738
375.36	0.735
375.56	0.745
375.77	0.745
375.98	0.745
376.19	0.742
376.39	0.735
376.60	0.739
376.81	0.739
377.02	0.736
377.22	0.734
377.43	0.735
377.64	0.734
377.84	0.724
378.05	0.729
378.26	0.735
378.47	0.734
378.67	0.730
378.88	0.727
379.09	0.728
379.30	0.728
379.50	0.725
379.71	0.728
379.92	0.731
380.12	0.731
380.33	0.721
380.54	0.718
380.75	0.725
380.95	0.725
381.16	0.722
381.37	0.722
381.57	0.725
381.78	0.725
381.99	0.724
382.20	0.724
382.40	0.728
382.61	0.729
382.82	0.725
383.02	0.719
383.23	0.722
383.44	0.722
383.64	0.720
383.85	0.722
384.06	0.726
384.27	0.723
384.47	0.720
384.68	0.720
384.89	0.726
385.09	0.725
385.30	0.724
385.51	0.723
385.71	0.727
385.92	0.727
386.13	0.725
386.33	0.727
386.54	0.728
386.75	0.728
386.95	0.724
387.16	0.719
387.37	0.721
387.58	0.722
387.78	0.720
387.99	0.717
388.20	0.720
388.40	0.717
388.61	0.713
388.82	0.717
389.02	0.719
389.23	0.718
389.44	0.717
389.64	0.717
389.85	0.728
390.06	0.727
390.26	0.727
390.47	0.726
390.68	0.728
390.88	0.725
391.09	0.720
391.30	0.719
391.50	0.719
391.71	0.718
391.92	0.715
392.12	0.707
392.33	0.708
392.53	0.707
392.74	0.707
392.95	0.707
393.15	0.710
393.36	0.711
393.57	0.709
393.77	0.713
393.98	0.716
394.19	0.716
394.39	0.715
394.60	0.716
394.81	0.718
395.01	0.716
395.22	0.714
395.43	0.714
395.63	0.719
395.84	0.720
396.04	0.715
396.25	0.717
396.46	0.719
396.66	0.717
396.87	0.714
397.08	0.710
397.28	0.713
397.49	0.715
397.69	0.711
397.90	0.705
398.11	0.707
398.31	0.707
398.52	0.703
398.73	0.704
398.93	0.703
399.14	0.702
399.34	0.701
399.55	0.702
399.76	0.702
399.96	0.703
400.17	0.701
400.37	0.699
400.58	0.707
400.79	0.709
400.99	0.706
401.20	0.712
401.41	0.714
401.61	0.714
401.82	0.718
402.02	0.717
402.23	0.719
402.44	0.719
402.64	0.719
402.85	0.713
403.05	0.712
403.26	0.710
403.47	0.704
403.67	0.703
403.88	0.705
404.08	0.699
404.29	0.697
404.50	0.696
404.70	0.696
404.91	0.695
405.11	0.692
405.32	0.692
405.52	0.692
405.73	0.692
405.94	0.690
406.14	0.692
406.35	0.695
406.55	0.695
406.76	0.693
406.97	0.694
407.17	0.696
407.38	0.696
407.58	0.694
407.79	0.698
407.99	0.700
408.20	0.701
408.41	0.697
408.61	0.695
408.82	0.696
409.02	0.696
409.23	0.693
409.43	0.692
409.64	0.694
409.84	0.693
410.05	0.689
410.26	0.687
410.46	0.687
410.67	0.686
410.87	0.687
411.08	0.689
411.28	0.690
411.49	0.692
411.69	0.690
411.90	0.691
412.11	0.693
412.31	0.694
412.52	0.692
412.72	0.693
412.93	0.694
413.13	0.693
413.34	0.689
413.54	0.690
413.75	0.692
413.95	0.691
414.16	0.688
414.37	0.691
414.57	0.692
414.78	0.694
414.98	0.693
415.19	0.694
415.39	0.692
415.60	0.694
415.80	0.693
416.01	0.692
416.21	0.694
416.42	0.693
416.62	0.688
416.83	0.687
417.03	0.687
417.24	0.686
417.44	0.683
417.65	0.682
417.86	0.682
418.06	0.681
418.27	0.678
418.47	0.680
418.68	0.681
418.88	0.682
419.09	0.680
419.29	0.681
419.50	0.681
419.70	0.681
419.91	0.680
420.11	0.678
420.32	0.680
420.52	0.680
420.73	0.679
420.93	0.680
421.14	0.682
421.34	0.681
421.55	0.677
421.75	0.677
421.96	0.679
422.16	0.679
422.37	0.678
422.57	0.675
422.78	0.677
422.98	0.674
423.19	0.672
423.39	0.670
423.60	0.674
423.80	0.675
424.01	0.674
424.21	0.676
424.42	0.677
424.62	0.677
424.83	0.677
425.03	0.677
425.23	0.679
425.44	0.679
425.64	0.680
425.85	0.679
426.05	0.680
426.26	0.681
426.46	0.677
426.67	0.676
426.87	0.681
427.08	0.681
427.28	0.680
427.49	0.681
427.69	0.682
427.90	0.680
428.10	0.677
428.31	0.676
428.51	0.678
428.71	0.677
428.92	0.678
429.12	0.676
429.33	0.676
429.53	0.680
429.74	0.684
429.94	0.685
430.15	0.684
430.35	0.684
430.56	0.682
430.76	0.681
430.96	0.682
431.17	0.680
431.37	0.677
431.58	0.675
431.78	0.672
431.99	0.665
432.19	0.666
432.40	0.668
432.60	0.669
432.80	0.672
433.01	0.670
433.21	0.669
433.42	0.671
433.62	0.672
433.83	0.671
434.03	0.674
434.23	0.677
434.44	0.676
434.64	0.673
434.85	0.678
435.05	0.680
435.26	0.680
435.46	0.679
435.66	0.678
435.87	0.678
436.07	0.678
436.28	0.674
436.48	0.671
436.69	0.671
436.89	0.671
437.09	0.665
437.30	0.663
437.50	0.664
437.71	0.676
437.91	0.675
438.11	0.676
438.32	0.681
438.52	0.681
438.73	0.680
438.93	0.679
439.13	0.678
439.34	0.682
439.54	0.679
439.75	0.680
439.95	0.670
440.15	0.674
440.36	0.673
440.56	0.670
440.77	0.672
440.97	0.672
441.17	0.671
441.38	0.672
441.58	0.669
441.79	0.669
441.99	0.667
442.19	0.666
442.40	0.664
442.60	0.664
442.81	0.661
443.01	0.662
443.21	0.662
443.42	0.662
443.62	0.660
443.82	0.660
444.03	0.662
444.23	0.662
444.44	0.662
444.64	0.661
444.84	0.663
445.05	0.663
445.25	0.660
445.45	0.661
445.66	0.663
445.86	0.662
446.06	0.663
446.27	0.662
446.47	0.665
446.68	0.663
446.88	0.662
447.08	0.661
447.29	0.664
447.49	0.664
447.69	0.663
447.90	0.662
448.10	0.666
448.30	0.663
448.51	0.665
448.71	0.663
448.91	0.665
449.12	0.664
449.32	0.665
449.52	0.663
449.73	0.667
449.93	0.666
450.14	0.667
450.34	0.666
450.54	0.669
450.75	0.666
450.95	0.665
451.15	0.665
451.36	0.669
451.56	0.665
451.76	0.664
451.97	0.662
452.17	0.663
452.37	0.661
452.58	0.658
452.78	0.658
452.98	0.660
453.19	0.659
453.39	0.660
453.59	0.658
453.79	0.660
454.00	0.660
454.20	0.658
454.40	0.658
454.61	0.661
454.81	0.661
455.01	0.660
455.22	0.661
455.42	0.663
455.62	0.661
455.83	0.660
456.03	0.664
456.23	0.665
456.44	0.666
456.64	0.664
456.84	0.664
457.04	0.665
457.25	0.665
457.45	0.661
457.65	0.660
457.86	0.660
458.06	0.659
458.26	0.654
458.47	0.653
458.67	0.655
458.87	0.656
459.07	0.653
459.28	0.655
459.48	0.658
459.68	0.658
459.89	0.657
460.09	0.656
460.29	0.657
460.49	0.658
460.70	0.657
460.90	0.657
461.10	0.658
461.31	0.658
461.51	0.654
461.71	0.656
461.91	0.658
462.12	0.658
462.32	0.657
462.52	0.658
462.72	0.661
462.93	0.662
463.13	0.660
463.33	0.661
463.53	0.662
463.74	0.661
463.94	0.657
464.14	0.657
464.35	0.658
464.55	0.658
464.75	0.656
464.95	0.653
465.16	0.655
465.36	0.654
465.56	0.653
465.76	0.653
465.97	0.653
466.17	0.654
466.37	0.652
466.57	0.653
466.78	0.654
466.98	0.655
467.18	0.652
467.38	0.651
467.59	0.653
467.79	0.655
467.99	0.654
468.19	0.656
468.39	0.659
468.60	0.659
468.80	0.657
469.00	0.659
469.20	0.660
469.41	0.661
469.61	0.660
469.81	0.661
470.01	0.660
470.22	0.660
470.42	0.658
470.62	0.655
470.82	0.657
471.02	0.656
471.23	0.654
471.43	0.654
471.63	0.657
471.83	0.656
472.04	0.654
472.24	0.653
472.44	0.658
472.64	0.658
472.84	0.656
473.05	0.655
473.25	0.658
473.45	0.657
473.65	0.655
473.85	0.656
474.06	0.658
474.26	0.657
474.46	0.658
474.66	0.655
474.86	0.656
475.07	0.656
475.27	0.654
475.47	0.652
475.67	0.652
475.87	0.654
476.08	0.650
476.28	0.652
476.48	0.653
476.68	0.651
476.88	0.649
477.09	0.650
477.29	0.651
477.49	0.651
477.69	0.651
477.89	0.652
478.09	0.651
478.30	0.653
478.50	0.650
478.70	0.650
478.90	0.651
479.10	0.654
479.31	0.654
479.51	0.653
479.71	0.654
479.91	0.654
480.11	0.653
480.31	0.653
480.52	0.652
480.72	0.651
480.92	0.650
481.12	0.649
481.32	0.647
481.52	0.645
481.72	0.644
481.93	0.648
482.13	0.648
482.33	0.648
482.53	0.645
482.73	0.646
482.93	0.648
483.14	0.647
483.34	0.646
483.54	0.647
483.74	0.646
483.94	0.645
484.14	0.641
484.34	0.641
484.55	0.642
484.75	0.642
484.95	0.639
485.15	0.639
485.35	0.639
485.55	0.639
485.75	0.637
485.96	0.637
486.16	0.639
486.36	0.639
486.56	0.637
486.76	0.637
486.96	0.637
487.16	0.637
487.36	0.635
487.57	0.635
487.77	0.636
487.97	0.637
488.17	0.635
488.37	0.634
488.57	0.635
488.77	0.635
488.97	0.633
489.18	0.633
489.38	0.636
489.58	0.636
489.78	0.636
489.98	0.635
490.18	0.635
490.38	0.636
490.58	0.635
490.78	0.636
490.98	0.638
491.19	0.638
491.39	0.637
491.59	0.635
491.79	0.638
491.99	0.639
492.19	0.638
492.39	0.641
492.59	0.641
492.79	0.643
492.99	0.643
493.20	0.643
493.40	0.643
493.60	0.644
493.80	0.643
494.00	0.641
494.20	0.641
494.40	0.641
494.60	0.639
494.80	0.643
495.00	0.642
495.20	0.641
495.40	0.640
495.61	0.642
495.81	0.642
496.01	0.645
496.21	0.646
496.41	0.645
496.61	0.646
496.81	0.645
497.01	0.640
497.21	0.639
497.41	0.640
497.61	0.639
497.81	0.637
498.01	0.637
498.21	0.635
498.41	0.633
498.61	0.633
498.82	0.634
499.02	0.636
499.22	0.637
499.42	0.636
499.62	0.637
499.82	0.638
500.02	0.640
500.22	0.638
500.42	0.640
500.62	0.641
500.82	0.641
501.02	0.639
501.22	0.639
501.42	0.639
501.62	0.641
501.82	0.641
502.02	0.641
502.22	0.640
502.42	0.642
502.62	0.639
502.82	0.638
503.02	0.639
503.22	0.639
503.42	0.637
503.63	0.637
503.83	0.634
504.03	0.634
504.23	0.632
504.43	0.633
504.63	0.635
504.83	0.635
505.03	0.633
505.23	0.635
505.43	0.637
505.63	0.638
505.83	0.638
506.03	0.639
506.23	0.641
506.43	0.641
506.63	0.640
506.83	0.638
507.03	0.640
507.23	0.641
507.43	0.638
507.63	0.638
507.83	0.638
508.03	0.638
508.23	0.638
508.43	0.637
508.63	0.639
508.83	0.640
509.03	0.641
509.23	0.640
509.43	0.641
509.63	0.642
509.83	0.640
510.03	0.642
510.23	0.644
510.43	0.645
510.63	0.645
510.83	0.644
511.03	0.646
511.23	0.644
511.43	0.643
511.63	0.644
511.83	0.648
512.03	0.648
512.22	0.645
512.42	0.644
512.62	0.645
512.82	0.645
513.02	0.644
513.22	0.643
513.42	0.645
513.62	0.648
513.82	0.646
514.02	0.645
514.22	0.646
514.42	0.647
514.62	0.646
514.82	0.646
515.02	0.650
515.22	0.653
515.42	0.652
515.62	0.654
515.82	0.653
516.02	0.654
516.22	0.654
516.42	0.655
516.62	0.657
516.82	0.658
517.01	0.657
517.21	0.656
517.41	0.659
517.61	0.660
517.81	0.656
518.01	0.655
518.21	0.656
518.41	0.654
518.61	0.653
518.81	0.654
519.01	0.655
519.21	0.655
519.41	0.653
519.61	0.648
519.81	0.650
520.00	0.651
520.20	0.652
520.40	0.655
520.60	0.656
520.80	0.655
521.00	0.655
521.20	0.655
521.40	0.661
521.60	0.662
521.80	0.661
522.00	0.660
522.20	0.663
522.39	0.662
522.59	0.658
522.79	0.660
522.99	0.662
523.19	0.661
523.39	0.658
523.59	0.656
523.79	0.659
523.99	0.661
524.19	0.660
524.38	0.658
524.58	0.660
524.78	0.660
524.98	0.659
525.18	0.661
525.38	0.662
525.58	0.663
525.78	0.660
525.98	0.658
526.18	0.659
526.37	0.658
526.57	0.660
526.77	0.660
526.97	0.661
527.17	0.661
527.37	0.656
527.57	0.659
527.77	0.661
527.96	0.661
528.16	0.660
528.36	0.660
528.56	0.663
528.76	0.661
528.96	0.660
529.16	0.661
529.36	0.664
529.55	0.664
529.75	0.661
529.95	0.661
530.15	0.662
530.35	0.665
530.55	0.662
530.75	0.662
530.94	0.664
531.14	0.664
531.34	0.662
531.54	0.660
531.74	0.663
531.94	0.667
532.13	0.665
532.33	0.666
532.53	0.666
532.73	0.665
532.93	0.663
533.13	0.665
533.33	0.665
533.52	0.666
533.72	0.669
533.92	0.667
534.12	0.665
534.32	0.665
534.52	0.664
534.71	0.665
534.91	0.668
535.11	0.670
535.31	0.667
535.51	0.670
535.71	0.671
535.90	0.668
536.10	0.670
536.30	0.671
536.50	0.672
536.70	0.672
536.89	0.669
537.09	0.669
537.29	0.671
537.49	0.672
537.69	0.669
537.89	0.670
538.08	0.669
538.28	0.667
538.48	0.668
538.68	0.669
538.88	0.671
539.07	0.671
539.27	0.669
539.47	0.669
539.67	0.669
539.87	0.671
540.06	0.668
540.26	0.670
540.46	0.672
540.66	0.669
540.86	0.667
541.05	0.667
541.25	0.668
541.45	0.668
541.65	0.666
541.84	0.668
542.04	0.669
542.24	0.669
542.44	0.668
542.64	0.669
542.83	0.672
543.03	0.673
543.23	0.670
543.43	0.671
543.62	0.673
543.82	0.673
544.02	0.671
544.22	0.672
544.42	0.676
544.61	0.676
544.81	0.673
545.01	0.671
545.21	0.673
545.40	0.674
545.60	0.672
545.80	0.675
546.00	0.676
546.19	0.675
546.39	0.673
546.59	0.671
546.79	0.672
546.98	0.672
547.18	0.672
547.38	0.673
547.58	0.676
547.77	0.677
547.97	0.672
548.17	0.674
548.37	0.675
548.56	0.675
548.76	0.674
548.96	0.676
549.16	0.678
549.35	0.677
549.55	0.675
549.75	0.676
549.95	0.679
550.14	0.679
550.34	0.677
550.54	0.683
550.73	0.686
550.93	0.687
551.13	0.684
551.33	0.682
551.52	0.684
551.72	0.684
551.92	0.681
552.12	0.681
552.31	0.682
552.51	0.682
552.71	0.677
552.90	0.678
553.10	0.679
553.30	0.679
553.50	0.678
553.69	0.680
553.89	0.681
554.09	0.681
554.28	0.678
554.48	0.680
554.68	0.682
554.87	0.682
555.07	0.678
555.27	0.679
555.47	0.681
555.66	0.681
555.86	0.679
556.06	0.681
556.25	0.683
556.45	0.691
556.65	0.688
556.84	0.692
557.04	0.695
557.24	0.697
557.43	0.697
557.63	0.700
557.83	0.702
558.02	0.702
558.22	0.706
558.42	0.707
558.61	0.700
558.81	0.700
559.01	0.695
559.21	0.695
559.40	0.696
559.60	0.696
559.80	0.692
559.99	0.694
560.19	0.696
560.39	0.689
560.58	0.686
560.78	0.687
560.97	0.691
561.17	0.690
561.37	0.687
561.56	0.688
561.76	0.689
561.96	0.689
562.15	0.686
562.35	0.688
562.55	0.689
562.74	0.689
562.94	0.688
563.14	0.686
563.33	0.687
563.53	0.687
563.73	0.684
563.92	0.686
564.12	0.688
564.31	0.691
564.51	0.689
564.71	0.690
564.90	0.694
565.10	0.694
565.30	0.697
565.49	0.698
565.69	0.700
565.89	0.701
566.08	0.698
566.28	0.699
566.47	0.701
566.67	0.700
566.87	0.696
567.06	0.698
567.26	0.705
567.46	0.700
567.65	0.698
567.85	0.700
568.04	0.702
568.24	0.701
568.44	0.697
568.63	0.696
568.83	0.697
569.02	0.696
569.22	0.691
569.42	0.686
569.61	0.689
569.81	0.688
570.00	0.686
570.20	0.687
570.40	0.689
570.59	0.689
570.79	0.687
570.98	0.685
571.18	0.686
571.38	0.686
571.57	0.683
571.77	0.681
571.96	0.685
572.16	0.682
572.35	0.676
572.55	0.677
572.75	0.675
572.94	0.675
573.14	0.674
573.33	0.674
573.53	0.675
573.73	0.674
573.92	0.672
574.12	0.670
574.31	0.673
574.51	0.674
574.70	0.671
574.90	0.673
575.09	0.675
575.29	0.676
575.49	0.673
575.68	0.673
575.88	0.675
576.07	0.677
576.27	0.675
576.46	0.674
576.66	0.673
576.86	0.672
577.05	0.669
577.25	0.667
577.44	0.669
577.64	0.669
577.83	0.667
578.03	0.668
578.22	0.667
578.42	0.666
578.61	0.664
578.81	0.665
579.00	0.665
579.20	0.665
579.40	0.664
579.59	0.662
579.79	0.663
579.98	0.662
580.18	0.662
580.37	0.662
580.57	0.665
580.76	0.670
580.96	0.668
581.15	0.669
581.35	0.670
581.54	0.670
581.74	0.669
581.93	0.671
582.13	0.672
582.32	0.669
582.52	0.667
582.71	0.667
582.91	0.663
583.10	0.663
583.30	0.661
583.49	0.660
583.69	0.665
583.88	0.665
584.08	0.665
584.27	0.667
584.47	0.670
584.66	0.671
584.86	0.670
585.05	0.672
585.25	0.674
585.44	0.674
585.64	0.673
585.83	0.670
586.03	0.671
586.22	0.669
586.42	0.666
586.61	0.668
586.81	0.670
587.00	0.669
587.20	0.667
587.39	0.667
587.59	0.669
587.78	0.671
587.98	0.670
588.17	0.671
588.37	0.674
588.56	0.676
588.76	0.671
588.95	0.671
589.15	0.676
589.34	0.678
589.54	0.676
589.73	0.677
589.92	0.681
590.12	0.681
590.31	0.678
590.51	0.683
590.70	0.685
590.90	0.685
591.09	0.683
591.29	0.681
591.48	0.681
591.68	0.682
591.87	0.680
592.06	0.679
592.26	0.682
592.45	0.682
592.65	0.675
592.84	0.675
593.04	0.678
593.23	0.681
593.43	0.678
593.62	0.678
593.81	0.679
594.01	0.678
594.20	0.676
594.40	0.675
594.59	0.677
594.79	0.678
594.98	0.676
595.17	0.675
595.37	0.676
595.56	0.678
595.76	0.677
595.95	0.678
596.14	0.681
596.34	0.682
596.53	0.681
596.73	0.682
596.92	0.684
597.12	0.686
597.31	0.686
597.50	0.685
597.70	0.688
597.89	0.687
598.09	0.683
598.28	0.685
598.47	0.687
598.67	0.685
598.86	0.681
599.06	0.683
599.25	0.684
599.44	0.682
599.64	0.679
599.83	0.676
600.03	0.679
600.22	0.680
600.41	0.680
600.61	0.677
600.80	0.680
601.00	0.681
601.19	0.677
601.38	0.675
601.58	0.678
601.77	0.679
601.96	0.680
602.16	0.681
602.35	0.690
602.55	0.688
602.74	0.688
602.93	0.690
603.13	0.695
603.32	0.696
603.51	0.696
603.71	0.699
603.90	0.701
604.09	0.702
604.29	0.699
604.48	0.693
604.68	0.695
604.87	0.693
605.06	0.689
605.26	0.686
605.45	0.688
605.64	0.687
605.84	0.681
606.03	0.680
606.22	0.680
606.42	0.679
606.61	0.675
606.80	0.676
607.00	0.678
607.19	0.678
607.38	0.676
607.58	0.677
607.77	0.681
607.96	0.681
608.16	0.679
608.35	0.684
608.54	0.687
608.74	0.691
608.93	0.695
609.12	0.699
609.32	0.702
609.51	0.706
609.70	0.705
609.90	0.706
610.09	0.711
610.28	0.716
610.48	0.709
610.67	0.710
610.86	0.711
611.06	0.705
611.25	0.702
611.44	0.703
611.64	0.702
611.83	0.705
612.02	0.701
612.21	0.699
612.41	0.699
612.60	0.697
612.79	0.693
612.99	0.693
613.18	0.696
613.37	0.694
613.57	0.691
613.76	0.692
613.95	0.690
614.14	0.690
614.34	0.688
614.53	0.688
614.72	0.693
614.92	0.693
615.11	0.690
615.30	0.687
615.49	0.688
615.69	0.691
615.88	0.687
616.07	0.688
616.26	0.691
616.46	0.691
616.65	0.688
616.84	0.686
617.04	0.688
617.23	0.692
617.42	0.694
617.61	0.698
617.81	0.699
618.00	0.701
618.19	0.699
618.38	0.703
618.58	0.707
618.77	0.708
618.96	0.707
619.15	0.709
619.35	0.710
619.54	0.711
619.73	0.705
619.92	0.707
620.12	0.712
620.31	0.712
620.50	0.706
620.69	0.707
620.89	0.710
621.08	0.709
621.27	0.709
621.46	0.707
621.66	0.711
621.85	0.711
622.04	0.707
622.23	0.707
622.43	0.708
622.62	0.708
622.81	0.707
623.00	0.706
623.19	0.710
623.39	0.709
623.58	0.706
623.77	0.705
623.96	0.708
624.16	0.708
624.35	0.703
624.54	0.707
624.73	0.711
624.92	0.708
625.12	0.705
625.31	0.706
625.50	0.710
625.69	0.711
625.88	0.707
626.08	0.707
626.27	0.709
626.46	0.709
626.65	0.705
626.84	0.706
627.04	0.711
627.23	0.711
627.42	0.707
627.61	0.708
627.80	0.712
628.00	0.712
628.19	0.709
628.38	0.713
628.57	0.716
628.76	0.716
628.96	0.712
629.15	0.713
629.34	0.716
629.53	0.715
629.72	0.709
629.91	0.710
630.11	0.714
630.30	0.715
630.49	0.717
630.68	0.718
630.87	0.722
631.06	0.724
631.26	0.718
631.45	0.721
631.64	0.729
631.83	0.733
632.02	0.730
632.21	0.729
632.41	0.738
632.60	0.732
632.79	0.730
632.98	0.730
633.17	0.731
633.36	0.733
633.55	0.729
633.75	0.725
633.94	0.727
634.13	0.728
634.32	0.724
634.51	0.718
634.70	0.721
634.89	0.720
635.09	0.716
635.28	0.717
635.47	0.719
635.66	0.722
635.85	0.718
636.04	0.718
636.23	0.723
636.43	0.725
636.62	0.723
636.81	0.722
637.00	0.726
637.19	0.729
637.38	0.725
637.57	0.724
637.76	0.727
637.95	0.727
638.15	0.723
638.34	0.720
638.53	0.724
638.72	0.726
638.91	0.722
639.10	0.720
639.29	0.721
639.48	0.721
639.67	0.721
639.87	0.720
640.06	0.726
640.25	0.726
640.44	0.725
640.63	0.726
640.82	0.729
641.01	0.729
641.20	0.728
641.39	0.730
641.58	0.732
641.78	0.731
641.97	0.726
642.16	0.740
642.35	0.742
642.54	0.741
642.73	0.735
642.92	0.734
643.11	0.738
643.30	0.738
643.49	0.733
643.68	0.736
643.87	0.738
644.06	0.738
644.25	0.717
644.45	0.720
644.64	0.721
644.83	0.722
645.02	0.718
645.21	0.718
645.40	0.719
645.59	0.719
645.78	0.713
645.97	0.715
646.16	0.716
646.35	0.716
646.54	0.713
646.73	0.715
646.92	0.716
647.11	0.715
647.30	0.710
647.49	0.712
647.68	0.713
647.88	0.712
648.07	0.704
648.26	0.706
648.45	0.708
648.64	0.704
648.83	0.700
649.02	0.703
649.21	0.714
649.40	0.713
649.59	0.708
649.78	0.708
649.97	0.723
650.16	0.722
650.35	0.716
650.54	0.720
650.73	0.729
650.92	0.726
651.11	0.720
651.30	0.717
651.49	0.723
651.68	0.723
651.87	0.719
652.06	0.708
652.25	0.712
652.44	0.715
652.63	0.711
652.82	0.709
653.01	0.708
653.20	0.706
653.39	0.693
653.58	0.690
653.77	0.689
653.96	0.685
654.15	0.677
654.34	0.675
654.53	0.671
654.72	0.665
654.91	0.656
655.10	0.652
655.29	0.650
655.48	0.649
655.67	0.643
655.86	0.641
656.05	0.639
656.24	0.639
656.43	0.633
656.62	0.632
656.81	0.633
657.00	0.631
657.19	0.629
657.38	0.629
657.57	0.629
657.76	0.632
657.95	0.629
658.14	0.633
658.33	0.636
658.51	0.641
658.70	0.642
658.89	0.644
659.08	0.653
659.27	0.660
659.46	0.660
659.65	0.666
659.84	0.670
660.03	0.674
660.22	0.674
660.41	0.679
660.60	0.679
660.79	0.679
660.98	0.685
661.17	0.685
661.36	0.685
661.55	0.685
661.74	0.682
661.92	0.685
662.11	0.687
662.30	0.685
662.49	0.678
662.68	0.676
662.87	0.680
663.06	0.674
663.25	0.674
663.44	0.675
663.63	0.675
663.82	0.674
664.01	0.669
664.20	0.667
664.38	0.669
664.57	0.670
664.76	0.670
664.95	0.671
665.14	0.676
665.33	0.670
665.52	0.676
665.71	0.681
665.90	0.681
666.09	0.682
666.28	0.680
666.46	0.680
666.65	0.682
666.84	0.679
667.03	0.673
667.22	0.671
667.41	0.676
667.60	0.666
667.79	0.658
667.98	0.660
668.16	0.662
668.35	0.660
668.54	0.655
668.73	0.656
668.92	0.657
669.11	0.655
669.30	0.649
669.49	0.645
669.67	0.646
669.86	0.649
670.05	0.646
670.24	0.644
670.43	0.643
670.62	0.642
670.81	0.637
671.00	0.638
671.18	0.639
671.37	0.638
671.56	0.636
671.75	0.635
671.94	0.632
672.13	0.629
672.32	0.624
672.50	0.623
672.69	0.624
672.88	0.625
673.07	0.619
673.26	0.621
673.45	0.623
673.63	0.623
673.82	0.619
674.01	0.620
674.20	0.620
674.39	0.620
674.58	0.619
674.76	0.619
674.95	0.617
675.14	0.618
675.33	0.613
675.52	0.612
675.71	0.612
675.89	0.611
676.08	0.607
676.27	0.606
676.46	0.607
676.65	0.606
676.84	0.605
677.02	0.607
677.21	0.610
677.40	0.609
677.59	0.606
677.78	0.608
677.96	0.611
678.15	0.611
678.34	0.608
678.53	0.609
678.72	0.609
678.90	0.606
679.09	0.601
679.28	0.598
679.47	0.598
679.66	0.597
679.84	0.593
680.03	0.590
680.22	0.589
680.41	0.590
680.60	0.586
680.78	0.586
680.97	0.589
681.16	0.589
681.35	0.587
681.53	0.587
681.72	0.588
681.91	0.590
682.10	0.588
682.29	0.591
682.47	0.589
682.66	0.589
682.85	0.586
683.04	0.584
683.22	0.584
683.41	0.587
683.60	0.585
683.79	0.585
683.97	0.585
684.16	0.585
684.35	0.581
684.54	0.583
684.72	0.583
684.91	0.585
685.10	0.583
685.29	0.583
685.47	0.580
685.66	0.580
685.85	0.576
686.04	0.575
686.22	0.577
686.41	0.580
686.60	0.576
686.79	0.579
686.97	0.579
687.16	0.581
687.35	0.578
687.54	0.582
687.72	0.586
687.91	0.586
688.10	0.588
688.29	0.587
688.47	0.585
688.66	0.585
688.85	0.580
689.03	0.577
689.22	0.582
689.41	0.583
689.60	0.578
689.78	0.575
689.97	0.576
690.16	0.573
690.34	0.569
690.53	0.569
690.72	0.570
690.91	0.568
691.09	0.566
691.28	0.561
691.47	0.559
691.65	0.558
691.84	0.554
692.03	0.553
692.21	0.552
692.40	0.552
692.59	0.549
692.77	0.548
692.96	0.550
693.15	0.550
693.34	0.548
693.52	0.548
693.71	0.548
693.90	0.550
694.08	0.550
694.27	0.551
694.46	0.561
694.64	0.562
694.83	0.561
695.02	0.560
695.20	0.560
695.39	0.560
695.58	0.559
695.76	0.560
695.95	0.560
696.14	0.559
696.32	0.557
696.51	0.547
696.70	0.547
696.88	0.548
697.07	0.547
697.26	0.548
697.44	0.550
697.63	0.548
697.81	0.546
698.00	0.545
698.19	0.545
698.37	0.545
698.56	0.544
698.75	0.545
698.93	0.544
699.12	0.544
699.31	0.543
699.49	0.543
699.68	0.544
699.87	0.546
700.05	0.546
700.24	0.545
700.42	0.546
700.61	0.545
700.80	0.543
700.98	0.543
701.17	0.544
701.36	0.543
701.54	0.542
701.73	0.544
701.91	0.541
702.10	0.541
702.29	0.539
702.47	0.538
702.66	0.540
702.84	0.541
703.03	0.539
703.22	0.540
703.40	0.540
703.59	0.542
703.77	0.541
703.96	0.541
704.15	0.542
704.33	0.542
704.52	0.541
704.70	0.541
704.89	0.541
705.08	0.540
705.26	0.535
705.45	0.536
705.63	0.536
705.82	0.532
706.00	0.531
706.19	0.530
706.38	0.530
706.56	0.529
706.75	0.527
706.93	0.525
707.12	0.527
707.30	0.528
707.49	0.525
707.68	0.523
707.86	0.522
708.05	0.522
708.23	0.519
708.42	0.520
708.60	0.523
708.79	0.523
708.98	0.522
709.16	0.521
709.35	0.523
709.53	0.527
709.72	0.526
709.90	0.528
710.09	0.530
710.27	0.532
710.46	0.536
710.64	0.535
710.83	0.537
711.02	0.538
711.20	0.537
711.39	0.535
711.57	0.532
711.76	0.533
711.94	0.530
712.13	0.532
712.31	0.531
712.50	0.526
712.68	0.523
712.87	0.525
713.05	0.525
713.24	0.525
713.42	0.525
713.61	0.526
713.79	0.527
713.98	0.527
714.16	0.528
714.35	0.527
714.54	0.528
714.72	0.528
714.91	0.525
715.09	0.531
715.28	0.534
715.46	0.534
715.65	0.531
715.83	0.531
716.02	0.534
716.20	0.530
716.39	0.530
716.57	0.532
716.76	0.534
716.94	0.535
717.12	0.527
717.31	0.529
717.49	0.532
717.68	0.535
717.86	0.533
718.05	0.535
718.23	0.537
718.42	0.540
718.60	0.540
718.79	0.549
718.97	0.552
719.16	0.551
719.34	0.548
719.53	0.548
719.71	0.548
719.90	0.551
720.08	0.548
720.27	0.549
720.45	0.549
720.63	0.547
720.82	0.539
721.00	0.542
721.19	0.547
721.37	0.547
721.56	0.547
721.74	0.549
721.93	0.558
722.11	0.564
722.30	0.563
722.48	0.567
722.66	0.568
722.85	0.569
723.03	0.568
723.22	0.565
723.40	0.569
723.59	0.568
723.77	0.572
723.95	0.565
724.14	0.566
724.32	0.568
724.51	0.567
724.69	0.570
724.88	0.571
725.06	0.570
725.24	0.571
725.43	0.572
725.61	0.576
725.80	0.570
725.98	0.568
726.16	0.566
726.35	0.572
726.53	0.571
726.72	0.570
726.90	0.581
727.09	0.581
727.27	0.587
727.45	0.584
727.64	0.593
727.82	0.601
728.01	0.606
728.19	0.603
728.37	0.607
728.56	0.611
728.74	0.616
728.92	0.603
729.11	0.606
729.29	0.605
729.48	0.608
729.66	0.596
729.84	0.597
730.03	0.600
730.21	0.603
730.40	0.594
730.58	0.596
730.76	0.598
730.95	0.601
731.13	0.600
731.31	0.614
731.50	0.624
731.68	0.627
731.86	0.623
732.05	0.639
732.23	0.641
732.42	0.644
732.60	0.645
732.78	0.650
732.97	0.669
733.15	0.675
733.33	0.664
733.52	0.671
733.70	0.685
733.88	0.694
734.07	0.680
734.25	0.709
734.43	0.719
734.62	0.722
734.80	0.715
734.98	0.705
735.17	0.716
735.35	0.724
735.53	0.711
735.72	0.713
735.90	0.736
736.08	0.757
736.27	0.731
736.45	0.739
736.63	0.755
736.82	0.765
737.00	0.765
737.18	0.775
737.37	0.810
737.55	0.836
737.73	0.830
737.92	0.829
738.10	0.826
738.28	0.846
738.46	0.837
738.65	0.850
738.83	0.876
739.01	0.934
739.20	0.925
739.38	0.906
739.56	0.900
739.75	0.905
739.93	0.870
740.11	0.899
740.29	0.904
740.48	0.912
740.66	0.887
740.84	0.883
741.03	0.847
741.21	0.858
741.39	0.835
741.57	0.849
741.76	0.869
741.94	0.877
742.12	0.836
742.31	0.842
742.49	0.864
742.67	0.891
742.85	0.899
743.04	0.901
743.22	0.913
743.40	0.971
743.58	0.942
743.77	0.965
743.95	1.011
744.13	1.071
744.31	1.047
744.50	1.041
744.68	1.050
744.86	1.025
745.04	1.035
745.23	1.113
745.41	1.101
745.59	1.112
745.77	1.061
745.96	1.037
746.14	1.052
746.32	1.045
746.50	1.035
746.69	1.008
746.87	1.021
747.05	1.009
747.23	0.924
747.42	0.902
747.60	0.938
747.78	0.943
747.96	0.979
748.14	0.927
748.33	0.966
748.51	0.958
748.69	0.951
748.87	0.989
749.06	0.987
749.24	0.985
749.42	0.968
749.60	0.946
749.78	0.963
749.97	0.910
750.15	0.901
750.33	0.901
750.51	0.934
750.69	0.937
750.88	0.939
751.06	0.954
751.24	0.990
751.42	0.982
751.60	0.969
751.79	1.052
751.97	1.113
752.15	1.104
752.33	1.058
752.51	1.131
752.69	1.157
752.88	1.109
753.06	1.163
753.24	1.117
753.42	1.161
753.60	1.369
753.78	1.178
753.97	1.201
754.15	1.243
754.33	1.283
754.51	1.116
754.69	1.104
754.87	1.141
755.06	1.051
755.24	1.053
755.42	1.065
755.60	0.952
755.78	0.962
755.96	0.899
756.15	0.898
756.33	0.907
756.51	0.929
756.69	0.913
756.87	0.874
757.05	0.894
757.23	0.876
757.42	0.838
757.60	0.838
757.78	0.829
757.96	0.826
758.14	0.804
758.32	0.791
758.50	0.808
758.69	0.803
758.87	0.796
759.05	0.803
759.23	0.817
759.41	0.816
759.59	0.806
759.77	0.827
759.95	0.858
760.13	0.913
760.32	0.907
760.50	0.899
760.68	0.931
760.86	0.932
761.04	0.899
761.22	0.901
761.40	0.959
761.58	0.964
761.76	0.930
761.95	0.908
762.13	0.861
762.31	0.858
762.49	0.823
762.67	0.840
762.85	0.853
763.03	0.848
763.21	0.825
763.39	0.806
763.57	0.808
763.75	0.804
763.94	0.789
764.12	0.789
764.30	0.818
764.48	0.822
764.66	0.782
764.84	0.782
765.02	0.823
765.20	0.834
765.38	0.809
765.56	0.815
765.74	0.860
765.92	0.862
766.10	0.871
766.28	0.861
766.46	0.892
766.65	0.892
766.83	0.875
767.01	0.859
767.19	0.867
767.37	0.868
767.55	0.852
767.73	0.831
767.91	0.833
768.09	0.819
768.27	0.808
768.45	0.797
768.63	0.804
768.81	0.807
768.99	0.777
769.17	0.805
769.35	0.821
769.53	0.817
769.71	0.794
769.89	0.808
770.07	0.816
770.25	0.794
770.43	0.772
770.61	0.800
770.79	0.808
770.97	0.819
771.15	0.781
771.33	0.788
771.51	0.796
771.69	0.807
771.87	0.814
772.05	0.820
772.24	0.836
772.42	0.844
772.60	0.816
772.78	0.881
772.96	0.915
773.14	0.907
773.32	0.879
773.49	0.884
773.67	0.882
773.85	0.858
774.03	0.844
774.21	0.878
774.39	0.893
774.57	0.917
774.75	0.835
774.93	0.831
775.11	0.861
775.29	0.865
775.47	0.864
775.65	0.876
775.83	0.895
776.01	0.919
776.19	0.864
776.37	0.869
776.55	0.870
776.73	0.868
776.91	0.856
777.09	0.836
777.27	0.837
777.45	0.825
777.63	0.799
777.81	0.796
777.99	0.783
778.17	0.783
778.35	0.757
778.53	0.745
778.71	0.751
778.89	0.738
779.07	0.726
779.24	0.734
779.42	0.738
779.60	0.758
779.78	0.754
779.96	0.759
780.14	0.767
780.32	0.789
780.50	0.770
780.68	0.772
780.86	0.767
781.04	0.787
781.22	0.789
781.40	0.801
781.58	0.792
781.75	0.782
781.93	0.765
782.11	0.766
782.29	0.751
782.47	0.751
782.65	0.736
782.83	0.765
783.01	0.755
783.19	0.746
783.37	0.729
783.55	0.735
783.72	0.756
783.90	0.767
784.08	0.756
784.26	0.772
784.44	0.791
784.62	0.794
784.80	0.757
784.98	0.765
785.16	0.775
785.33	0.789
785.51	0.771
785.69	0.756
785.87	0.755
786.05	0.766
786.23	0.759
786.41	0.756
786.59	0.765
786.77	0.766
786.94	0.750
787.12	0.750
787.30	0.751
787.48	0.748
787.66	0.735
787.84	0.734
788.02	0.725
788.19	0.724
788.37	0.708
788.55	0.709
788.73	0.709
788.91	0.703
789.09	0.687
789.27	0.676
789.44	0.690
789.62	0.696
789.80	0.705
789.98	0.731
790.16	0.715
790.34	0.714
790.51	0.701
790.69	0.721
790.87	0.730
791.05	0.729
791.23	0.722
791.41	0.721
791.58	0.729
791.76	0.706
791.94	0.673
792.12	0.684
792.30	0.685
792.48	0.681
792.65	0.672
792.83	0.680
793.01	0.687
793.19	0.686
793.37	0.669
793.54	0.665
793.72	0.678
793.90	0.675
794.08	0.663
794.26	0.666
794.43	0.678
794.61	0.664
794.79	0.651
794.97	0.651
795.15	0.657
795.32	0.661
795.50	0.652
795.68	0.646
795.86	0.654
796.04	0.655
796.21	0.647
796.39	0.645
796.57	0.659
796.75	0.667
796.92	0.667
797.10	0.672
797.28	0.676
797.46	0.679
797.64	0.680
797.81	0.688
797.99	0.692
798.17	0.696
798.35	0.690
798.52	0.696
798.70	0.690
798.88	0.702
799.06	0.700
799.23	0.702
799.41	0.711
799.59	0.703
799.77	0.690
799.94	0.700
800.12	0.710
800.30	0.729
800.48	0.724
800.65	0.727
800.83	0.715
801.01	0.707
801.19	0.704
801.36	0.700
801.54	0.707
801.72	0.719
801.90	0.704
802.07	0.701
802.25	0.685
802.43	0.666
802.60	0.659
802.78	0.666
802.96	0.673
803.14	0.666
803.31	0.664
803.49	0.662
803.67	0.657
803.84	0.661
804.02	0.652
804.20	0.657
804.38	0.668
804.55	0.665
804.73	0.648
804.91	0.648
805.08	0.662
805.26	0.657
805.44	0.726
805.61	0.728
805.79	0.729
805.97	0.726
806.15	0.717
806.32	0.710
806.50	0.717
806.68	0.719
806.85	0.706
807.03	0.698
807.21	0.718
807.38	0.646
807.56	0.636
807.74	0.647
807.91	0.655
808.09	0.656
808.27	0.674
808.44	0.703
808.62	0.714
808.80	0.718
808.97	0.709
809.15	0.701
809.33	0.722
809.50	0.728
809.68	0.713
809.86	0.721
810.03	0.757
810.21	0.736
810.39	0.716
810.56	0.723
810.74	0.750
810.91	0.832
811.09	0.819
811.27	0.843
811.44	0.851
811.62	0.853
811.80	0.830
811.97	0.798
812.15	0.800
812.33	0.795
812.50	0.776
812.68	0.763
812.85	0.704
813.03	0.707
813.21	0.670
813.38	0.663
813.56	0.668
813.74	0.682
813.91	0.686
814.09	0.717
814.26	0.710
814.44	0.716
814.62	0.704
814.79	0.705
814.97	0.713
815.14	0.719
815.32	0.722
815.50	0.739
815.67	0.743
815.85	0.737
816.02	0.724
816.20	0.733
816.38	0.749
816.55	0.754
816.73	0.755
816.90	0.766
817.08	0.801
817.26	0.809
817.43	0.787
817.61	0.812
817.78	0.835
817.96	0.810
818.13	0.798
818.31	0.802
818.49	0.817
818.66	0.803
818.84	0.787
819.01	0.765
819.19	0.772
819.36	0.772
819.54	0.741
819.71	0.786
819.89	0.803
820.07	0.817
820.24	0.807
820.42	0.808
820.59	0.835
820.77	0.860
820.94	0.848
821.12	0.870
821.29	0.891
821.47	0.890
821.64	0.818
821.82	0.835
822.00	0.832
822.17	0.827
822.35	0.819
822.52	0.822
822.70	0.809
822.87	0.820
823.05	0.797
823.22	0.810
823.40	0.844
823.57	0.867
823.75	0.842
823.92	0.874
824.10	0.903
824.27	0.950
824.45	0.934
824.62	1.018
824.80	1.038
824.97	1.056
825.15	1.046
825.32	1.067
825.50	1.081
825.67	1.101
825.85	1.065
826.02	1.085
826.20	1.128
826.37	1.335
826.55	1.198
826.72	1.570
826.90	1.818
827.07	2.043
827.25	1.786
827.42	-0.000
827.60	-0.000
827.77	-0.000
827.95	-0.000
828.12	-0.000
828.30	-0.000
828.47	-0.000
828.65	1.859
828.82	2.236
829.00	-0.000
829.17	-0.000
829.34	-0.000
829.52	-0.000
829.69	-0.000
829.87	-0.000
830.04	-0.000
830.22	-0.000
830.39	-0.000
830.57	-0.000
830.74	-0.000
830.92	-0.000
831.09	-0.000
831.26	-0.000
831.44	-0.000
831.61	-0.000
831.79	-0.000
831.96	-0.000
832.14	-0.000
832.31	-0.000
832.49	-0.000
832.66	-0.000
832.83	-0.000
833.01	-0.000
833.18	-0.000
833.36	-0.000
833.53	-0.000
833.70	-0.000
833.88	-0.000
834.05	-0.000
834.23	-0.000
834.40	-0.000
834.58	-0.000
834.75	-0.000
834.92	-0.000
835.10	-0.000
835.27	-0.000
835.45	-0.000
835.62	-0.000
835.79	-0.000
835.97	-0.000
836.14	-0.000
836.32	-0.000
836.49	-0.000
836.66	-0.000
836.84	-0.000
837.01	-0.000
837.18	-0.000
837.36	-0.000
837.53	-0.000
837.71	-0.000
837.88	-0.000
838.05	-0.000
838.23	-0.000
838.40	-0.000
838.58	-0.000
838.75	-0.000
838.92	-0.000
839.10	-0.000
839.27	-0.000
839.44	-0.000
839.62	-0.000
839.79	-0.000
839.96	-0.000
840.14	-0.000
840.31	-0.000
840.48	-0.000
840.66	-0.000
840.83	-0.000
841.01	-0.000
841.18	-0.000
841.35	-0.000
841.53	-0.000
841.70	-0.000
841.87	-0.000
842.05	-0.000
842.22	-0.000
842.39	-0.000
842.57	-0.000
842.74	-0.000
842.91	-0.000
843.09	-0.000
843.26	-0.000
843.43	-0.000
843.60	-0.000
843.78	-0.000
843.95	-0.000
844.12	-0.000
844.30	-0.000
844.47	-0.000
844.64	-0.000
844.82	-0.000
844.99	-0.000
845.16	-0.000
845.34	-0.000
845.51	-0.000
845.68	-0.000
845.85	-0.000
846.03	-0.000
846.20	-0.000
846.37	-0.000
846.55	-0.000
846.72	-0.000
846.89	-0.000
847.06	-0.000
847.24	-0.000
847.41	-0.000
847.58	-0.000
847.76	-0.000
847.93	-0.000
848.10	-0.000
848.27	-0.000
848.45	-0.000
848.62	-0.000
848.79	-0.000
848.97	-0.000
849.14	-0.000
849.31	-0.000
849.48	-0.000
849.66	-0.000
849.83	-0.000
850.00	-0.000
850.17	-0.000
850.35	-0.000
850.52	-0.000
850.69	-0.000
850.86	-0.000
851.04	-0.000
851.21	-0.000
851.38	-0.000
851.55	-0.000
851.72	-0.000
851.90	-0.000
852.07	-0.000
852.24	-0.000
852.41	-0.000
852.59	-0.000
852.76	-0.000
852.93	-0.000
853.10	-0.000
853.28	-0.000
853.45	-0.000
853.62	-0.000
853.79	-0.000
853.96	-0.000
854.14	-0.000
854.31	-0.000
854.48	-0.000
854.65	-0.000
854.82	-0.000
855.00	-0.000
855.17	-0.000
855.34	-0.000
855.51	-0.000
855.68	-0.000
855.86	-0.000
856.03	-0.000
856.20	-0.000
856.37	-0.000
856.54	-0.000
856.72	-0.000
856.89	-0.000
857.06	-0.000
857.23	-0.000
857.40	-0.000
857.57	-0.000
857.75	-0.000
857.92	-0.000
858.09	-0.000
858.26	-0.000
858.43	-0.000
858.60	-0.000
858.78	-0.000
858.95	-0.000
859.12	-0.000
859.29	-0.000
859.46	-0.000
859.63	-0.000
859.81	-0.000
859.98	-0.000
860.15	-0.000
860.32	-0.000
860.49	-0.000
860.66	-0.000
860.83	-0.000
861.01	-0.000
861.18	-0.000
861.35	-0.000
861.52	-0.000
861.69	-0.000
861.86	-0.000
862.03	-0.000
862.21	-0.000
862.38	-0.000
862.55	-0.000
862.72	-0.000
862.89	-0.000
863.06	-0.000
863.23	-0.000
863.40	-0.000
863.58	-0.000
863.75	-0.000
863.92	-0.000
864.09	-0.000
864.26	-0.000
864.43	-0.000
864.60	-0.000
864.77	-0.000
864.94	-0.000
865.11	-0.000
865.29	-0.000
865.46	-0.000
865.63	-0.000
865.80	-0.000
865.97	-0.000
866.14	-0.000
866.31	-0.000
866.48	-0.000
866.65	-0.000
866.82	-0.000
866.99	-0.000
867.16	-0.000
867.34	-0.000
867.51	-0.000
867.68	-0.000
867.85	-0.000
868.02	-0.000
868.19	-0.000
868.36	-0.000
868.53	-0.000
868.70	-0.000
868.87	-0.000
869.04	-0.000
869.21	-0.000
869.38	-0.000
869.55	-0.000
869.72	-0.000
869.89	-0.000
870.06	-0.000
870.24	-0.000
870.41	-0.000
870.58	-0.000
870.75	-0.000
870.92	-0.000
871.09	-0.000
871.26	-0.000
871.43	-0.000
871.60	-0.000
871.77	-0.000
871.94	-0.000
872.11	-0.000
872.28	-0.000
872.45	-0.000
872.62	-0.000
872.79	-0.000
872.96	-0.000
873.13	-0.000
873.30	-0.000
873.47	-0.000
873.64	-0.000
873.81	-0.000
873.98	-0.000
874.15	-0.000
874.32	-0.000
874.49	-0.000
874.66	-0.000
874.83	-0.000
875.00	-0.000
875.17	-0.000
875.34	-0.000
875.51	-0.000
875.68	-0.000
875.85	-0.000
876.02	-0.000
876.19	-0.000
876.36	-0.000
876.53	-0.000
876.70	-0.000
876.87	-0.000
877.04	-0.000
877.21	-0.000
877.38	-0.000
877.55	-0.000
877.72	-0.000
877.89	-0.000
878.06	-0.000
878.23	-0.000
878.39	-0.000
878.56	-0.000
878.73	-0.000
878.90	-0.000
879.07	-0.000
879.24	-0.000
879.41	-0.000
879.58	-0.000
879.75	-0.000
879.92	-0.000
880.09	-0.000
880.26	-0.000
880.43	-0.000
880.60	-0.000
880.77	-0.000
880.94	-0.000
881.11	-0.000
881.27	-0.000
881.44	-0.000
881.61	-0.000
881.78	-0.000
881.95	-0.000
882.12	-0.000
882.29	-0.000
882.46	-0.000
882.63	-0.000
882.80	-0.000
882.97	-0.000
883.14	-0.000
883.30	-0.000
883.47	-0.000
883.64	-0.000
883.81	-0.000
883.98	-0.000
884.15	-0.000
884.32	-0.000
884.49	-0.000
884.66	-0.000
884.82	-0.000
884.99	-0.000
885.16	-0.000
885.33	-0.000
885.50	-0.000
885.67	-0.000
885.84	-0.000
886.01	-0.000
886.17	-0.000
886.34	-0.000
886.51	-0.000
886.68	-0.000
886.85	-0.000
887.02	-0.000
887.19	-0.000
887.36	-0.000
887.52	-0.000
887.69	-0.000
887.86	-0.000
888.03	-0.000
888.20	-0.000
888.37	-0.000
888.54	-0.000
888.70	-0.000
888.87	-0.000
889.04	-0.000
889.21	-0.000
889.38	-0.000
889.55	-0.000
889.71	-0.000
889.88	-0.000
890.05	-0.000
890.22	-0.000
890.39	-0.000
>>>>>End Processed Spectral Data<<<<<
