SpectraSuite Data File
++++++++++++++++++++++++++++++++++++
Date: Fri Jun 19 15:50:40 CEST 2015
User: introlabs
Dark Spectrum Present: Yes
Reference Spectrum Present: Yes
Number of Sampled Component Spectra: 1
Spectrometers: USB4H08886
Integration Time (usec): 745692 (USB4H08886)
Spectra Averaged: 5 (USB4H08886)
Boxcar Smoothing: 5 (USB4H08886)
Correct for Electrical Dark: Yes (USB4H08886)
Strobe/Lamp Enabled: No (USB4H08886)
Correct for Detector Non-linearity: Yes (USB4H08886)
Correct for Stray Light: Yes (USB4H08886)
Number of Pixels in Processed Spectrum: 3648
>>>>>Begin Processed Spectral Data<<<<<
178.14	-0.000
178.36	-0.000
178.57	-0.000
178.79	-0.000
179.01	-0.000
179.22	-0.000
179.44	-0.000
179.65	-0.000
179.87	-0.000
180.08	-0.000
180.30	-0.000
180.52	-0.000
180.73	-0.000
180.95	-0.000
181.16	-0.000
181.38	-0.000
181.59	-0.000
181.81	-0.000
182.03	-0.000
182.24	-0.000
182.46	-0.000
182.67	-0.000
182.89	-0.000
183.10	-0.000
183.32	-0.000
183.54	-0.000
183.75	-0.000
183.97	-0.000
184.18	-0.000
184.40	-0.000
184.61	-0.000
184.83	-0.000
185.04	-0.000
185.26	-0.000
185.48	-0.000
185.69	-0.000
185.91	-0.000
186.12	-0.000
186.34	-0.000
186.55	-0.000
186.77	-0.000
186.98	-0.000
187.20	-0.000
187.42	-0.000
187.63	-0.000
187.85	-0.000
188.06	-0.000
188.28	-0.000
188.49	-0.000
188.71	-0.000
188.92	-0.000
189.14	-0.000
189.36	-0.000
189.57	-0.000
189.79	-0.000
190.00	-0.000
190.22	-0.000
190.43	-0.000
190.65	-0.000
190.86	-0.000
191.08	-0.000
191.29	-0.000
191.51	-0.000
191.72	-0.000
191.94	-0.000
192.16	-0.000
192.37	-0.000
192.59	-0.000
192.80	-0.000
193.02	-0.000
193.23	-0.000
193.45	-0.000
193.66	-0.000
193.88	-0.000
194.09	-0.000
194.31	-0.000
194.52	-0.000
194.74	-0.000
194.95	-0.000
195.17	-0.000
195.38	-0.000
195.60	-0.000
195.81	-0.000
196.03	-0.000
196.25	-0.000
196.46	-0.000
196.68	-0.000
196.89	-0.000
197.11	-0.000
197.32	-0.000
197.54	-0.000
197.75	-0.000
197.97	-0.000
198.18	-0.000
198.40	-0.000
198.61	-0.000
198.83	-0.000
199.04	-0.000
199.26	-0.000
199.47	-0.000
199.69	-0.000
199.90	-0.000
200.12	-0.000
200.33	-0.000
200.55	-0.000
200.76	-0.000
200.98	-0.000
201.19	-0.000
201.41	-0.000
201.62	-0.000
201.84	-0.000
202.05	-0.000
202.27	-0.000
202.48	-0.000
202.70	-0.000
202.91	-0.000
203.13	-0.000
203.34	-0.000
203.56	-0.000
203.77	-0.000
203.99	-0.000
204.20	-0.000
204.42	-0.000
204.63	-0.000
204.85	-0.000
205.06	-0.000
205.28	-0.000
205.49	-0.000
205.71	-0.000
205.92	-0.000
206.14	-0.000
206.35	-0.000
206.56	-0.000
206.78	-0.000
206.99	-0.000
207.21	-0.000
207.42	-0.000
207.64	-0.000
207.85	-0.000
208.07	-0.000
208.28	-0.000
208.50	-0.000
208.71	-0.000
208.93	-0.000
209.14	-0.000
209.36	-0.000
209.57	-0.000
209.79	-0.000
210.00	-0.000
210.22	-0.000
210.43	-0.000
210.64	-0.000
210.86	-0.000
211.07	-0.000
211.29	-0.000
211.50	-0.000
211.72	-0.000
211.93	-0.000
212.15	-0.000
212.36	-0.000
212.58	-0.000
212.79	-0.000
213.01	-0.000
213.22	-0.000
213.43	-0.000
213.65	-0.000
213.86	-0.000
214.08	-0.000
214.29	-0.000
214.51	-0.000
214.72	-0.000
214.94	-0.000
215.15	-0.000
215.36	-0.000
215.58	-0.000
215.79	-0.000
216.01	-0.000
216.22	-0.000
216.44	-0.000
216.65	-0.000
216.87	-0.000
217.08	-0.000
217.29	-0.000
217.51	-0.000
217.72	-0.000
217.94	-0.000
218.15	-0.000
218.37	-0.000
218.58	-0.000
218.80	-0.000
219.01	-0.000
219.22	-0.000
219.44	-0.000
219.65	-0.000
219.87	-0.000
220.08	-0.000
220.30	-0.000
220.51	-0.000
220.72	-0.000
220.94	-0.000
221.15	-0.000
221.37	-0.000
221.58	-0.000
221.79	-0.000
222.01	-0.000
222.22	-0.000
222.44	-0.000
222.65	-0.000
222.87	-0.000
223.08	-0.000
223.29	-0.000
223.51	-0.000
223.72	-0.000
223.94	-0.000
224.15	-0.000
224.36	-0.000
224.58	-0.000
224.79	-0.000
225.01	-0.000
225.22	-0.000
225.44	-0.000
225.65	-0.000
225.86	-0.000
226.08	-0.000
226.29	-0.000
226.51	-0.000
226.72	-0.000
226.93	-0.000
227.15	-0.000
227.36	-0.000
227.58	-0.000
227.79	-0.000
228.00	-0.000
228.22	-0.000
228.43	-0.000
228.65	-0.000
228.86	-0.000
229.07	-0.000
229.29	-0.000
229.50	-0.000
229.72	-0.000
229.93	-0.000
230.14	-0.000
230.36	-0.000
230.57	-0.000
230.78	-0.000
231.00	-0.000
231.21	-0.000
231.43	-0.000
231.64	-0.000
231.85	-0.000
232.07	-0.000
232.28	-0.000
232.50	-0.000
232.71	-0.000
232.92	-0.000
233.14	-0.000
233.35	-0.000
233.56	-0.000
233.78	-0.000
233.99	-0.000
234.21	-0.000
234.42	-0.000
234.63	-0.000
234.85	-0.000
235.06	-0.000
235.27	-0.000
235.49	-0.000
235.70	-0.000
235.91	-0.000
236.13	-0.000
236.34	-0.000
236.56	-0.000
236.77	-0.000
236.98	-0.000
237.20	-0.000
237.41	-0.000
237.62	-0.000
237.84	-0.000
238.05	-0.000
238.26	-0.000
238.48	-0.000
238.69	-0.000
238.91	-0.000
239.12	-0.000
239.33	-0.000
239.55	-0.000
239.76	-0.000
239.97	-0.000
240.19	-0.000
240.40	-0.000
240.61	-0.000
240.83	-0.000
241.04	-0.000
241.25	-0.000
241.47	-0.000
241.68	-0.000
241.89	-0.000
242.11	-0.000
242.32	-0.000
242.53	-0.000
242.75	-0.000
242.96	-0.000
243.17	-0.000
243.39	-0.000
243.60	-0.000
243.81	-0.000
244.03	-0.000
244.24	-0.000
244.45	-0.000
244.67	-0.000
244.88	-0.000
245.09	-0.000
245.31	-0.000
245.52	-0.000
245.73	-0.000
245.95	-0.000
246.16	-0.000
246.37	-0.000
246.59	-0.000
246.80	-0.000
247.01	-0.000
247.23	-0.000
247.44	-0.000
247.65	-0.000
247.87	-0.000
248.08	-0.000
248.29	-0.000
248.51	-0.000
248.72	-0.000
248.93	-0.000
249.15	-0.000
249.36	-0.000
249.57	-0.000
249.78	-0.000
250.00	-0.000
250.21	-0.000
250.42	-0.000
250.64	-0.000
250.85	-0.000
251.06	-0.000
251.28	-0.000
251.49	-0.000
251.70	-0.000
251.92	-0.000
252.13	-0.000
252.34	-0.000
252.55	-0.000
252.77	-0.000
252.98	-0.000
253.19	-0.000
253.41	-0.000
253.62	-0.000
253.83	-0.000
254.05	-0.000
254.26	-0.000
254.47	-0.000
254.68	-0.000
254.90	-0.000
255.11	-0.000
255.32	-0.000
255.54	-0.000
255.75	-0.000
255.96	-0.000
256.17	-0.000
256.39	-0.000
256.60	-0.000
256.81	-0.000
257.03	-0.000
257.24	-0.000
257.45	-0.000
257.66	-0.000
257.88	-0.000
258.09	-0.000
258.30	-0.000
258.51	-0.000
258.73	-0.000
258.94	-0.000
259.15	-0.000
259.37	-0.000
259.58	-0.000
259.79	-0.000
260.00	-0.000
260.22	-0.000
260.43	-0.000
260.64	-0.000
260.85	-0.000
261.07	-0.000
261.28	-0.000
261.49	-0.000
261.71	-0.000
261.92	-0.000
262.13	-0.000
262.34	-0.000
262.56	-0.000
262.77	-0.000
262.98	-0.000
263.19	-0.000
263.41	-0.000
263.62	-0.000
263.83	-0.000
264.04	-0.000
264.26	-0.000
264.47	-0.000
264.68	-0.000
264.89	-0.000
265.11	-0.000
265.32	-0.000
265.53	-0.000
265.74	-0.000
265.96	-0.000
266.17	-0.000
266.38	-0.000
266.59	-0.000
266.81	-0.000
267.02	-0.000
267.23	-0.000
267.44	-0.000
267.65	-0.000
267.87	-0.000
268.08	-0.000
268.29	-0.000
268.50	-0.000
268.72	-0.000
268.93	-0.000
269.14	-0.000
269.35	-0.000
269.57	-0.000
269.78	-0.000
269.99	-0.000
270.20	-0.000
270.41	-0.000
270.63	-0.000
270.84	-0.000
271.05	-0.000
271.26	-0.000
271.48	-0.000
271.69	-0.000
271.90	-0.000
272.11	-0.000
272.32	-0.000
272.54	-0.000
272.75	-0.000
272.96	-0.000
273.17	-0.000
273.39	-0.000
273.60	-0.000
273.81	-0.000
274.02	-0.000
274.23	-0.000
274.45	-0.000
274.66	-0.000
274.87	-0.000
275.08	-0.000
275.29	-0.000
275.51	-0.000
275.72	-0.000
275.93	-0.000
276.14	-0.000
276.35	-0.000
276.57	-0.000
276.78	-0.000
276.99	-0.000
277.20	-0.000
277.41	-0.000
277.63	-0.000
277.84	-0.000
278.05	-0.000
278.26	-0.000
278.47	-0.000
278.69	-0.000
278.90	-0.000
279.11	-0.000
279.32	-0.000
279.53	-0.000
279.74	-0.000
279.96	-0.000
280.17	-0.000
280.38	-0.000
280.59	-0.000
280.80	-0.000
281.02	-0.000
281.23	-0.000
281.44	-0.000
281.65	-0.000
281.86	-0.000
282.07	-0.000
282.29	-0.000
282.50	-0.000
282.71	-0.000
282.92	-0.000
283.13	-0.000
283.35	-0.000
283.56	-0.000
283.77	-0.000
283.98	-0.000
284.19	-0.000
284.40	-0.000
284.62	-0.000
284.83	-0.000
285.04	-0.000
285.25	-0.000
285.46	-0.000
285.67	-0.000
285.88	-0.000
286.10	-0.000
286.31	-0.000
286.52	-0.000
286.73	-0.000
286.94	-0.000
287.15	-0.000
287.37	-0.000
287.58	-0.000
287.79	-0.000
288.00	-0.000
288.21	-0.000
288.42	-0.000
288.63	-0.000
288.85	-0.000
289.06	-0.000
289.27	-0.000
289.48	-0.000
289.69	-0.000
289.90	-0.000
290.11	-0.000
290.33	-0.000
290.54	-0.000
290.75	-0.000
290.96	-0.000
291.17	-0.000
291.38	-0.000
291.59	-0.000
291.81	-0.000
292.02	-0.000
292.23	-0.000
292.44	-0.000
292.65	-0.000
292.86	-0.000
293.07	-0.000
293.28	2.393
293.50	2.956
293.71	-0.000
293.92	3.408
294.13	-0.000
294.34	-0.000
294.55	-0.000
294.76	-0.000
294.97	3.195
295.19	-0.000
295.40	-0.000
295.61	-0.000
295.82	2.808
296.03	2.280
296.24	2.343
296.45	1.823
296.66	1.633
296.87	1.653
297.09	1.695
297.30	1.821
297.51	1.597
297.72	1.578
297.93	1.622
298.14	1.601
298.35	1.575
298.56	1.552
298.77	1.642
298.99	1.628
299.20	1.615
299.41	1.594
299.62	1.548
299.83	1.544
300.04	1.504
300.25	1.504
300.46	1.527
300.67	1.506
300.88	1.483
301.10	1.483
301.31	1.534
301.52	1.489
301.73	1.450
301.94	1.453
302.15	1.459
302.36	1.418
302.57	1.371
302.78	1.376
302.99	1.411
303.20	1.426
303.41	1.355
303.63	1.339
303.84	1.338
304.05	1.336
304.26	1.289
304.47	1.294
304.68	1.290
304.89	1.282
305.10	1.252
305.31	1.238
305.52	1.273
305.73	1.268
305.94	1.237
306.15	1.230
306.37	1.245
306.58	1.251
306.79	1.229
307.00	1.250
307.21	1.282
307.42	1.276
307.63	1.246
307.84	1.214
308.05	1.242
308.26	1.244
308.47	1.229
308.68	1.228
308.89	1.226
309.10	1.225
309.31	1.192
309.52	1.184
309.73	1.193
309.95	1.190
310.16	1.169
310.37	1.159
310.58	1.173
310.79	1.169
311.00	1.168
311.21	1.169
311.42	1.168
311.63	1.163
311.84	1.149
312.05	1.148
312.26	1.168
312.47	1.177
312.68	1.160
312.89	1.143
313.10	1.146
313.31	1.120
313.52	1.123
313.73	1.122
313.94	1.124
314.15	1.108
314.36	1.090
314.57	1.086
314.78	1.074
314.99	1.068
315.21	1.059
315.42	1.064
315.63	1.074
315.84	1.055
316.05	1.044
316.26	1.051
316.47	1.064
316.68	1.062
316.89	1.042
317.10	1.061
317.31	1.064
317.52	1.064
317.73	1.047
317.94	1.045
318.15	1.082
318.36	1.084
318.57	1.069
318.78	1.058
318.99	1.088
319.20	1.086
319.41	1.055
319.62	1.058
319.83	1.071
320.04	1.066
320.25	1.057
320.46	1.027
320.67	1.027
320.88	1.025
321.09	1.014
321.30	1.000
321.51	1.013
321.72	1.012
321.93	0.998
322.14	0.991
322.35	1.014
322.56	1.016
322.77	1.008
322.98	1.019
323.19	1.025
323.40	1.031
323.61	1.014
323.82	1.009
324.03	1.012
324.24	1.010
324.45	1.000
324.66	0.982
324.87	0.977
325.08	0.975
325.29	0.959
325.50	0.950
325.71	0.953
325.92	0.960
326.13	0.948
326.34	0.949
326.55	0.956
326.76	0.954
326.97	0.946
327.18	0.939
327.39	0.962
327.60	0.963
327.80	0.965
328.01	0.965
328.22	0.964
328.43	0.969
328.64	0.959
328.85	0.962
329.06	0.964
329.27	0.962
329.48	0.959
329.69	0.941
329.90	0.949
330.11	0.943
330.32	0.937
330.53	0.930
330.74	0.927
330.95	0.924
331.16	0.912
331.37	0.918
331.58	0.918
331.79	0.918
332.00	0.911
332.21	0.904
332.42	0.906
332.63	0.898
332.83	0.895
333.04	0.897
333.25	0.909
333.46	0.909
333.67	0.898
333.88	0.900
334.09	0.909
334.30	0.907
334.51	0.900
334.72	0.896
334.93	0.898
335.14	0.898
335.35	0.892
335.56	0.888
335.77	0.894
335.98	0.892
336.18	0.887
336.39	0.880
336.60	0.882
336.81	0.880
337.02	0.881
337.23	0.884
337.44	0.887
337.65	0.888
337.86	0.878
338.07	0.873
338.28	0.877
338.49	0.875
338.70	0.868
338.91	0.874
339.11	0.880
339.32	0.876
339.53	0.867
339.74	0.864
339.95	0.860
340.16	0.860
340.37	0.854
340.58	0.850
340.79	0.854
341.00	0.855
341.21	0.846
341.41	0.846
341.62	0.847
341.83	0.847
342.04	0.842
342.25	0.852
342.46	0.854
342.67	0.853
342.88	0.849
343.09	0.847
343.30	0.852
343.50	0.855
343.71	0.846
343.92	0.844
344.13	0.849
344.34	0.848
344.55	0.833
344.76	0.833
344.97	0.837
345.18	0.836
345.38	0.834
345.59	0.830
345.80	0.828
346.01	0.826
346.22	0.823
346.43	0.817
346.64	0.825
346.85	0.825
347.06	0.819
347.26	0.819
347.47	0.821
347.68	0.817
347.89	0.814
348.10	0.809
348.31	0.815
348.52	0.814
348.73	0.812
348.93	0.809
349.14	0.811
349.35	0.810
349.56	0.804
349.77	0.800
349.98	0.803
350.19	0.801
350.39	0.796
350.60	0.792
350.81	0.806
351.02	0.805
351.23	0.800
351.44	0.803
351.65	0.804
351.86	0.803
352.06	0.802
352.27	0.802
352.48	0.803
352.69	0.802
352.90	0.798
353.11	0.785
353.31	0.791
353.52	0.788
353.73	0.781
353.94	0.783
354.15	0.788
354.36	0.788
354.57	0.782
354.77	0.784
354.98	0.784
355.19	0.784
355.40	0.784
355.61	0.789
355.82	0.792
356.02	0.791
356.23	0.784
356.44	0.785
356.65	0.787
356.86	0.787
357.07	0.782
357.27	0.784
357.48	0.785
357.69	0.781
357.90	0.767
358.11	0.764
358.32	0.767
358.52	0.770
358.73	0.762
358.94	0.764
359.15	0.768
359.36	0.769
359.56	0.766
359.77	0.764
359.98	0.770
360.19	0.770
360.40	0.768
360.61	0.769
360.81	0.767
361.02	0.767
361.23	0.760
361.44	0.758
361.65	0.757
361.85	0.757
362.06	0.756
362.27	0.757
362.48	0.757
362.69	0.759
362.89	0.753
363.10	0.755
363.31	0.760
363.52	0.763
363.73	0.759
363.93	0.758
364.14	0.759
364.35	0.761
364.56	0.751
364.77	0.753
364.97	0.756
365.18	0.756
365.39	0.750
365.60	0.747
365.81	0.747
366.01	0.746
366.22	0.744
366.43	0.743
366.64	0.744
366.84	0.750
367.05	0.746
367.26	0.745
367.47	0.746
367.68	0.746
367.88	0.744
368.09	0.742
368.30	0.744
368.51	0.745
368.71	0.745
368.92	0.749
369.13	0.746
369.34	0.746
369.55	0.746
369.75	0.746
369.96	0.753
370.17	0.753
370.38	0.751
370.58	0.750
370.79	0.754
371.00	0.754
371.21	0.746
371.41	0.751
371.62	0.754
371.83	0.750
372.04	0.748
372.24	0.741
372.45	0.742
372.66	0.742
372.87	0.740
373.07	0.737
373.28	0.736
373.49	0.740
373.70	0.732
373.90	0.732
374.11	0.739
374.32	0.739
374.53	0.739
374.73	0.739
374.94	0.741
375.15	0.741
375.36	0.739
375.56	0.746
375.77	0.745
375.98	0.745
376.19	0.742
376.39	0.737
376.60	0.740
376.81	0.740
377.02	0.738
377.22	0.738
377.43	0.738
377.64	0.737
377.84	0.731
378.05	0.735
378.26	0.741
378.47	0.741
378.67	0.739
378.88	0.736
379.09	0.736
379.30	0.736
379.50	0.734
379.71	0.736
379.92	0.739
380.12	0.738
380.33	0.730
380.54	0.726
380.75	0.732
380.95	0.732
381.16	0.731
381.37	0.731
381.57	0.733
381.78	0.734
381.99	0.734
382.20	0.733
382.40	0.735
382.61	0.736
382.82	0.733
383.02	0.727
383.23	0.729
383.44	0.730
383.64	0.728
383.85	0.729
384.06	0.732
384.27	0.730
384.47	0.729
384.68	0.730
384.89	0.735
385.09	0.735
385.30	0.735
385.51	0.735
385.71	0.737
385.92	0.738
386.13	0.738
386.33	0.739
386.54	0.739
386.75	0.738
386.95	0.735
387.16	0.731
387.37	0.733
387.58	0.732
387.78	0.731
387.99	0.729
388.20	0.731
388.40	0.728
388.61	0.724
388.82	0.728
389.02	0.730
389.23	0.730
389.44	0.729
389.64	0.729
389.85	0.741
390.06	0.740
390.26	0.741
390.47	0.740
390.68	0.743
390.88	0.741
391.09	0.737
391.30	0.737
391.50	0.736
391.71	0.736
391.92	0.734
392.12	0.726
392.33	0.726
392.53	0.725
392.74	0.726
392.95	0.725
393.15	0.728
393.36	0.729
393.57	0.728
393.77	0.731
393.98	0.732
394.19	0.731
394.39	0.731
394.60	0.733
394.81	0.735
395.01	0.733
395.22	0.732
395.43	0.733
395.63	0.737
395.84	0.739
396.04	0.735
396.25	0.737
396.46	0.740
396.66	0.738
396.87	0.736
397.08	0.733
397.28	0.735
397.49	0.737
397.69	0.734
397.90	0.729
398.11	0.730
398.31	0.731
398.52	0.728
398.73	0.729
398.93	0.729
399.14	0.728
399.34	0.728
399.55	0.729
399.76	0.728
399.96	0.729
400.17	0.728
400.37	0.727
400.58	0.733
400.79	0.735
400.99	0.732
401.20	0.738
401.41	0.740
401.61	0.740
401.82	0.746
402.02	0.746
402.23	0.747
402.44	0.747
402.64	0.747
402.85	0.741
403.05	0.740
403.26	0.739
403.47	0.734
403.67	0.733
403.88	0.734
404.08	0.728
404.29	0.726
404.50	0.726
404.70	0.726
404.91	0.725
405.11	0.723
405.32	0.723
405.52	0.723
405.73	0.723
405.94	0.721
406.14	0.723
406.35	0.725
406.55	0.725
406.76	0.723
406.97	0.725
407.17	0.728
407.38	0.727
407.58	0.726
407.79	0.729
407.99	0.732
408.20	0.733
408.41	0.729
408.61	0.727
408.82	0.727
409.02	0.727
409.23	0.725
409.43	0.724
409.64	0.725
409.84	0.724
410.05	0.721
410.26	0.719
410.46	0.718
410.67	0.718
410.87	0.720
411.08	0.722
411.28	0.723
411.49	0.725
411.69	0.723
411.90	0.724
412.11	0.726
412.31	0.727
412.52	0.725
412.72	0.726
412.93	0.726
413.13	0.725
413.34	0.721
413.54	0.723
413.75	0.725
413.95	0.724
414.16	0.721
414.37	0.723
414.57	0.723
414.78	0.726
414.98	0.725
415.19	0.726
415.39	0.722
415.60	0.725
415.80	0.723
416.01	0.721
416.21	0.723
416.42	0.723
416.62	0.719
416.83	0.719
417.03	0.718
417.24	0.718
417.44	0.716
417.65	0.716
417.86	0.716
418.06	0.714
418.27	0.713
418.47	0.715
418.68	0.715
418.88	0.715
419.09	0.714
419.29	0.715
419.50	0.715
419.70	0.715
419.91	0.714
420.11	0.712
420.32	0.714
420.52	0.714
420.73	0.713
420.93	0.714
421.14	0.716
421.34	0.714
421.55	0.711
421.75	0.711
421.96	0.711
422.16	0.711
422.37	0.710
422.57	0.707
422.78	0.708
422.98	0.705
423.19	0.703
423.39	0.700
423.60	0.704
423.80	0.705
424.01	0.703
424.21	0.706
424.42	0.706
424.62	0.706
424.83	0.706
425.03	0.706
425.23	0.707
425.44	0.707
425.64	0.708
425.85	0.707
426.05	0.707
426.26	0.709
426.46	0.705
426.67	0.705
426.87	0.710
427.08	0.711
427.28	0.709
427.49	0.710
427.69	0.711
427.90	0.709
428.10	0.707
428.31	0.707
428.51	0.708
428.71	0.708
428.92	0.709
429.12	0.705
429.33	0.705
429.53	0.709
429.74	0.713
429.94	0.713
430.15	0.712
430.35	0.711
430.56	0.708
430.76	0.706
430.96	0.706
431.17	0.703
431.37	0.701
431.58	0.700
431.78	0.696
431.99	0.689
432.19	0.691
432.40	0.692
432.60	0.693
432.80	0.695
433.01	0.694
433.21	0.694
433.42	0.696
433.62	0.696
433.83	0.696
434.03	0.699
434.23	0.702
434.44	0.701
434.64	0.699
434.85	0.704
435.05	0.705
435.26	0.705
435.46	0.704
435.66	0.703
435.87	0.703
436.07	0.702
436.28	0.698
436.48	0.696
436.69	0.695
436.89	0.695
437.09	0.689
437.30	0.688
437.50	0.688
437.71	0.700
437.91	0.698
438.11	0.699
438.32	0.703
438.52	0.704
438.73	0.703
438.93	0.701
439.13	0.700
439.34	0.704
439.54	0.702
439.75	0.702
439.95	0.691
440.15	0.696
440.36	0.695
440.56	0.692
440.77	0.692
440.97	0.692
441.17	0.691
441.38	0.692
441.58	0.689
441.79	0.688
441.99	0.687
442.19	0.686
442.40	0.683
442.60	0.683
442.81	0.681
443.01	0.682
443.21	0.682
443.42	0.682
443.62	0.680
443.82	0.680
444.03	0.682
444.23	0.681
444.44	0.682
444.64	0.681
444.84	0.682
445.05	0.682
445.25	0.680
445.45	0.680
445.66	0.682
445.86	0.682
446.06	0.683
446.27	0.682
446.47	0.685
446.68	0.683
446.88	0.682
447.08	0.681
447.29	0.683
447.49	0.683
447.69	0.682
447.90	0.680
448.10	0.683
448.30	0.681
448.51	0.682
448.71	0.679
448.91	0.681
449.12	0.680
449.32	0.682
449.52	0.681
449.73	0.685
449.93	0.684
450.14	0.684
450.34	0.683
450.54	0.686
450.75	0.683
450.95	0.683
451.15	0.682
451.36	0.685
451.56	0.681
451.76	0.681
451.97	0.678
452.17	0.678
452.37	0.676
452.58	0.673
452.78	0.672
452.98	0.674
453.19	0.674
453.39	0.675
453.59	0.673
453.79	0.673
454.00	0.673
454.20	0.672
454.40	0.672
454.61	0.674
454.81	0.674
455.01	0.673
455.22	0.674
455.42	0.675
455.62	0.673
455.83	0.673
456.03	0.676
456.23	0.676
456.44	0.678
456.64	0.677
456.84	0.676
457.04	0.677
457.25	0.676
457.45	0.673
457.65	0.672
457.86	0.673
458.06	0.672
458.26	0.668
458.47	0.667
458.67	0.668
458.87	0.668
459.07	0.666
459.28	0.668
459.48	0.669
459.68	0.668
459.89	0.668
460.09	0.666
460.29	0.667
460.49	0.668
460.70	0.667
460.90	0.667
461.10	0.667
461.31	0.667
461.51	0.665
461.71	0.668
461.91	0.669
462.12	0.668
462.32	0.668
462.52	0.669
462.72	0.671
462.93	0.671
463.13	0.670
463.33	0.671
463.53	0.672
463.74	0.671
463.94	0.667
464.14	0.668
464.35	0.669
464.55	0.669
464.75	0.668
464.95	0.665
465.16	0.667
465.36	0.665
465.56	0.664
465.76	0.664
465.97	0.664
466.17	0.664
466.37	0.663
466.57	0.663
466.78	0.664
466.98	0.663
467.18	0.662
467.38	0.661
467.59	0.661
467.79	0.663
467.99	0.662
468.19	0.664
468.39	0.666
468.60	0.665
468.80	0.664
469.00	0.666
469.20	0.667
469.41	0.667
469.61	0.667
469.81	0.668
470.01	0.667
470.22	0.668
470.42	0.666
470.62	0.664
470.82	0.665
471.02	0.664
471.23	0.663
471.43	0.663
471.63	0.666
471.83	0.665
472.04	0.664
472.24	0.663
472.44	0.668
472.64	0.668
472.84	0.666
473.05	0.666
473.25	0.668
473.45	0.668
473.65	0.666
473.85	0.667
474.06	0.668
474.26	0.667
474.46	0.669
474.66	0.665
474.86	0.665
475.07	0.666
475.27	0.664
475.47	0.662
475.67	0.662
475.87	0.663
476.08	0.660
476.28	0.661
476.48	0.662
476.68	0.660
476.88	0.658
477.09	0.659
477.29	0.661
477.49	0.661
477.69	0.660
477.89	0.660
478.09	0.659
478.30	0.662
478.50	0.659
478.70	0.659
478.90	0.659
479.10	0.662
479.31	0.662
479.51	0.661
479.71	0.661
479.91	0.661
480.11	0.660
480.31	0.660
480.52	0.658
480.72	0.658
480.92	0.657
481.12	0.657
481.32	0.654
481.52	0.652
481.72	0.652
481.93	0.655
482.13	0.657
482.33	0.656
482.53	0.655
482.73	0.656
482.93	0.657
483.14	0.656
483.34	0.656
483.54	0.657
483.74	0.656
483.94	0.655
484.14	0.651
484.34	0.651
484.55	0.651
484.75	0.651
484.95	0.649
485.15	0.647
485.35	0.648
485.55	0.647
485.75	0.645
485.96	0.645
486.16	0.646
486.36	0.646
486.56	0.644
486.76	0.644
486.96	0.645
487.16	0.644
487.36	0.643
487.57	0.642
487.77	0.643
487.97	0.643
488.17	0.641
488.37	0.640
488.57	0.640
488.77	0.640
488.97	0.638
489.18	0.638
489.38	0.640
489.58	0.641
489.78	0.641
489.98	0.641
490.18	0.641
490.38	0.642
490.58	0.641
490.78	0.642
490.98	0.643
491.19	0.644
491.39	0.644
491.59	0.643
491.79	0.645
491.99	0.645
492.19	0.645
492.39	0.648
492.59	0.648
492.79	0.650
492.99	0.650
493.20	0.651
493.40	0.651
493.60	0.652
493.80	0.650
494.00	0.648
494.20	0.648
494.40	0.648
494.60	0.646
494.80	0.649
495.00	0.648
495.20	0.646
495.40	0.645
495.61	0.647
495.81	0.647
496.01	0.650
496.21	0.651
496.41	0.650
496.61	0.651
496.81	0.649
497.01	0.645
497.21	0.645
497.41	0.645
497.61	0.644
497.81	0.642
498.01	0.642
498.21	0.639
498.41	0.637
498.61	0.637
498.82	0.639
499.02	0.641
499.22	0.642
499.42	0.642
499.62	0.643
499.82	0.644
500.02	0.646
500.22	0.645
500.42	0.647
500.62	0.647
500.82	0.647
501.02	0.645
501.22	0.645
501.42	0.644
501.62	0.646
501.82	0.645
502.02	0.645
502.22	0.644
502.42	0.646
502.62	0.644
502.82	0.644
503.02	0.644
503.22	0.644
503.42	0.642
503.63	0.642
503.83	0.641
504.03	0.639
504.23	0.638
504.43	0.638
504.63	0.639
504.83	0.638
505.03	0.638
505.23	0.640
505.43	0.641
505.63	0.642
505.83	0.642
506.03	0.643
506.23	0.645
506.43	0.645
506.63	0.645
506.83	0.643
507.03	0.645
507.23	0.645
507.43	0.642
507.63	0.643
507.83	0.643
508.03	0.643
508.23	0.643
508.43	0.642
508.63	0.644
508.83	0.644
509.03	0.645
509.23	0.644
509.43	0.645
509.63	0.645
509.83	0.644
510.03	0.646
510.23	0.648
510.43	0.648
510.63	0.649
510.83	0.648
511.03	0.650
511.23	0.648
511.43	0.648
511.63	0.650
511.83	0.651
512.03	0.651
512.22	0.648
512.42	0.648
512.62	0.648
512.82	0.647
513.02	0.647
513.22	0.646
513.42	0.647
513.62	0.650
513.82	0.648
514.02	0.648
514.22	0.649
514.42	0.650
514.62	0.650
514.82	0.650
515.02	0.652
515.22	0.655
515.42	0.654
515.62	0.657
515.82	0.656
516.02	0.657
516.22	0.657
516.42	0.658
516.62	0.659
516.82	0.660
517.01	0.659
517.21	0.659
517.41	0.662
517.61	0.662
517.81	0.659
518.01	0.658
518.21	0.657
518.41	0.656
518.61	0.655
518.81	0.656
519.01	0.656
519.21	0.656
519.41	0.655
519.61	0.649
519.81	0.651
520.00	0.651
520.20	0.652
520.40	0.655
520.60	0.656
520.80	0.655
521.00	0.656
521.20	0.657
521.40	0.661
521.60	0.662
521.80	0.662
522.00	0.662
522.20	0.664
522.39	0.664
522.59	0.661
522.79	0.663
522.99	0.664
523.19	0.662
523.39	0.661
523.59	0.659
523.79	0.661
523.99	0.663
524.19	0.663
524.38	0.661
524.58	0.663
524.78	0.662
524.98	0.661
525.18	0.663
525.38	0.663
525.58	0.663
525.78	0.661
525.98	0.660
526.18	0.660
526.37	0.659
526.57	0.661
526.77	0.662
526.97	0.663
527.17	0.663
527.37	0.660
527.57	0.662
527.77	0.664
527.96	0.664
528.16	0.662
528.36	0.663
528.56	0.665
528.76	0.662
528.96	0.661
529.16	0.662
529.36	0.665
529.55	0.665
529.75	0.662
529.95	0.662
530.15	0.663
530.35	0.666
530.55	0.663
530.75	0.664
530.94	0.666
531.14	0.666
531.34	0.665
531.54	0.662
531.74	0.665
531.94	0.668
532.13	0.667
532.33	0.669
532.53	0.667
532.73	0.667
532.93	0.665
533.13	0.667
533.33	0.667
533.52	0.667
533.72	0.671
533.92	0.669
534.12	0.667
534.32	0.667
534.52	0.666
534.71	0.667
534.91	0.670
535.11	0.672
535.31	0.669
535.51	0.671
535.71	0.672
535.90	0.669
536.10	0.671
536.30	0.672
536.50	0.672
536.70	0.671
536.89	0.670
537.09	0.669
537.29	0.670
537.49	0.672
537.69	0.670
537.89	0.671
538.08	0.671
538.28	0.669
538.48	0.670
538.68	0.672
538.88	0.674
539.07	0.674
539.27	0.672
539.47	0.671
539.67	0.670
539.87	0.671
540.06	0.669
540.26	0.669
540.46	0.672
540.66	0.669
540.86	0.667
541.05	0.666
541.25	0.668
541.45	0.668
541.65	0.667
541.84	0.669
542.04	0.670
542.24	0.670
542.44	0.670
542.64	0.670
542.83	0.673
543.03	0.673
543.23	0.671
543.43	0.672
543.62	0.673
543.82	0.674
544.02	0.673
544.22	0.672
544.42	0.676
544.61	0.676
544.81	0.674
545.01	0.673
545.21	0.675
545.40	0.676
545.60	0.675
545.80	0.677
546.00	0.677
546.19	0.676
546.39	0.675
546.59	0.673
546.79	0.674
546.98	0.673
547.18	0.673
547.38	0.673
547.58	0.676
547.77	0.676
547.97	0.673
548.17	0.675
548.37	0.675
548.56	0.675
548.76	0.675
548.96	0.677
549.16	0.679
549.35	0.678
549.55	0.677
549.75	0.677
549.95	0.680
550.14	0.681
550.34	0.679
550.54	0.684
550.73	0.687
550.93	0.688
551.13	0.684
551.33	0.684
551.52	0.684
551.72	0.685
551.92	0.684
552.12	0.684
552.31	0.684
552.51	0.684
552.71	0.680
552.90	0.680
553.10	0.680
553.30	0.681
553.50	0.680
553.69	0.681
553.89	0.681
554.09	0.681
554.28	0.677
554.48	0.678
554.68	0.680
554.87	0.680
555.07	0.677
555.27	0.676
555.47	0.677
555.66	0.678
555.86	0.676
556.06	0.678
556.25	0.679
556.45	0.687
556.65	0.686
556.84	0.688
557.04	0.692
557.24	0.693
557.43	0.693
557.63	0.696
557.83	0.698
558.02	0.699
558.22	0.703
558.42	0.704
558.61	0.697
558.81	0.698
559.01	0.695
559.21	0.694
559.40	0.695
559.60	0.696
559.80	0.693
559.99	0.694
560.19	0.696
560.39	0.690
560.58	0.687
560.78	0.688
560.97	0.691
561.17	0.690
561.37	0.688
561.56	0.688
561.76	0.689
561.96	0.688
562.15	0.685
562.35	0.687
562.55	0.688
562.74	0.688
562.94	0.686
563.14	0.684
563.33	0.685
563.53	0.684
563.73	0.683
563.92	0.684
564.12	0.686
564.31	0.689
564.51	0.687
564.71	0.690
564.90	0.692
565.10	0.693
565.30	0.697
565.49	0.697
565.69	0.700
565.89	0.700
566.08	0.698
566.28	0.699
566.47	0.701
566.67	0.699
566.87	0.696
567.06	0.698
567.26	0.704
567.46	0.700
567.65	0.699
567.85	0.701
568.04	0.704
568.24	0.703
568.44	0.701
568.63	0.699
568.83	0.701
569.02	0.700
569.22	0.696
569.42	0.692
569.61	0.694
569.81	0.692
570.00	0.690
570.20	0.691
570.40	0.692
570.59	0.692
570.79	0.690
570.98	0.688
571.18	0.689
571.38	0.689
571.57	0.686
571.77	0.684
571.96	0.688
572.16	0.685
572.35	0.680
572.55	0.681
572.75	0.679
572.94	0.679
573.14	0.677
573.33	0.678
573.53	0.678
573.73	0.677
573.92	0.675
574.12	0.673
574.31	0.675
574.51	0.677
574.70	0.674
574.90	0.676
575.09	0.677
575.29	0.677
575.49	0.675
575.68	0.675
575.88	0.677
576.07	0.678
576.27	0.676
576.46	0.675
576.66	0.673
576.86	0.672
577.05	0.670
577.25	0.668
577.44	0.670
577.64	0.670
577.83	0.668
578.03	0.669
578.22	0.669
578.42	0.668
578.61	0.667
578.81	0.668
579.00	0.668
579.20	0.668
579.40	0.667
579.59	0.666
579.79	0.665
579.98	0.665
580.18	0.664
580.37	0.664
580.57	0.666
580.76	0.670
580.96	0.668
581.15	0.669
581.35	0.671
581.54	0.671
581.74	0.671
581.93	0.672
582.13	0.672
582.32	0.669
582.52	0.668
582.71	0.667
582.91	0.663
583.10	0.663
583.30	0.661
583.49	0.660
583.69	0.663
583.88	0.664
584.08	0.664
584.27	0.667
584.47	0.670
584.66	0.671
584.86	0.671
585.05	0.673
585.25	0.675
585.44	0.676
585.64	0.675
585.83	0.671
586.03	0.672
586.22	0.670
586.42	0.665
586.61	0.667
586.81	0.668
587.00	0.668
587.20	0.666
587.39	0.666
587.59	0.667
587.78	0.668
587.98	0.669
588.17	0.669
588.37	0.671
588.56	0.673
588.76	0.669
588.95	0.669
589.15	0.673
589.34	0.676
589.54	0.675
589.73	0.676
589.92	0.680
590.12	0.680
590.31	0.679
590.51	0.684
590.70	0.686
590.90	0.687
591.09	0.685
591.29	0.683
591.48	0.683
591.68	0.684
591.87	0.683
592.06	0.682
592.26	0.684
592.45	0.683
592.65	0.677
592.84	0.676
593.04	0.678
593.23	0.680
593.43	0.678
593.62	0.677
593.81	0.677
594.01	0.676
594.20	0.673
594.40	0.672
594.59	0.673
594.79	0.674
594.98	0.672
595.17	0.672
595.37	0.673
595.56	0.675
595.76	0.676
595.95	0.677
596.14	0.681
596.34	0.683
596.53	0.682
596.73	0.684
596.92	0.685
597.12	0.688
597.31	0.689
597.50	0.688
597.70	0.690
597.89	0.689
598.09	0.686
598.28	0.686
598.47	0.688
598.67	0.686
598.86	0.683
599.06	0.684
599.25	0.684
599.44	0.682
599.64	0.679
599.83	0.676
600.03	0.678
600.22	0.678
600.41	0.678
600.61	0.676
600.80	0.678
601.00	0.678
601.19	0.675
601.38	0.673
601.58	0.675
601.77	0.676
601.96	0.679
602.16	0.679
602.35	0.687
602.55	0.685
602.74	0.687
602.93	0.689
603.13	0.693
603.32	0.696
603.51	0.696
603.71	0.699
603.90	0.701
604.09	0.701
604.29	0.700
604.48	0.694
604.68	0.695
604.87	0.694
605.06	0.691
605.26	0.688
605.45	0.687
605.64	0.686
605.84	0.682
606.03	0.681
606.22	0.679
606.42	0.678
606.61	0.675
606.80	0.674
607.00	0.675
607.19	0.675
607.38	0.674
607.58	0.675
607.77	0.677
607.96	0.676
608.16	0.674
608.35	0.679
608.54	0.682
608.74	0.685
608.93	0.690
609.12	0.693
609.32	0.695
609.51	0.698
609.70	0.698
609.90	0.700
610.09	0.704
610.28	0.710
610.48	0.704
610.67	0.706
610.86	0.706
611.06	0.702
611.25	0.700
611.44	0.701
611.64	0.701
611.83	0.704
612.02	0.700
612.21	0.699
612.41	0.698
612.60	0.697
612.79	0.692
612.99	0.692
613.18	0.694
613.37	0.691
613.57	0.688
613.76	0.689
613.95	0.686
614.14	0.685
614.34	0.682
614.53	0.683
614.72	0.686
614.92	0.686
615.11	0.684
615.30	0.680
615.49	0.681
615.69	0.684
615.88	0.681
616.07	0.681
616.26	0.683
616.46	0.684
616.65	0.681
616.84	0.680
617.04	0.681
617.23	0.685
617.42	0.685
617.61	0.689
617.81	0.690
618.00	0.692
618.19	0.692
618.38	0.696
618.58	0.700
618.77	0.701
618.96	0.700
619.15	0.702
619.35	0.703
619.54	0.704
619.73	0.700
619.92	0.702
620.12	0.706
620.31	0.707
620.50	0.702
620.69	0.702
620.89	0.704
621.08	0.705
621.27	0.706
621.46	0.705
621.66	0.708
621.85	0.708
622.04	0.705
622.23	0.706
622.43	0.707
622.62	0.706
622.81	0.706
623.00	0.705
623.19	0.707
623.39	0.705
623.58	0.702
623.77	0.701
623.96	0.704
624.16	0.703
624.35	0.698
624.54	0.700
624.73	0.702
624.92	0.700
625.12	0.699
625.31	0.699
625.50	0.701
625.69	0.703
625.88	0.699
626.08	0.700
626.27	0.700
626.46	0.700
626.65	0.698
626.84	0.699
627.04	0.704
627.23	0.703
627.42	0.700
627.61	0.701
627.80	0.703
628.00	0.703
628.19	0.702
628.38	0.704
628.57	0.706
628.76	0.706
628.96	0.703
629.15	0.703
629.34	0.706
629.53	0.707
629.72	0.703
629.91	0.703
630.11	0.707
630.30	0.707
630.49	0.711
630.68	0.711
630.87	0.713
631.06	0.715
631.26	0.712
631.45	0.713
631.64	0.719
631.83	0.721
632.02	0.719
632.21	0.719
632.41	0.726
632.60	0.720
632.79	0.720
632.98	0.722
633.17	0.723
633.36	0.724
633.55	0.721
633.75	0.718
633.94	0.718
634.13	0.718
634.32	0.716
634.51	0.710
634.70	0.710
634.89	0.710
635.09	0.706
635.28	0.706
635.47	0.706
635.66	0.708
635.85	0.705
636.04	0.707
636.23	0.710
636.43	0.712
636.62	0.711
636.81	0.710
637.00	0.711
637.19	0.714
637.38	0.711
637.57	0.711
637.76	0.712
637.95	0.713
638.15	0.710
638.34	0.707
638.53	0.709
638.72	0.711
638.91	0.710
639.10	0.708
639.29	0.709
639.48	0.710
639.67	0.710
639.87	0.709
640.06	0.714
640.25	0.714
640.44	0.715
640.63	0.716
640.82	0.717
641.01	0.716
641.20	0.716
641.39	0.717
641.58	0.718
641.78	0.717
641.97	0.713
642.16	0.726
642.35	0.727
642.54	0.726
642.73	0.723
642.92	0.723
643.11	0.727
643.30	0.727
643.49	0.723
643.68	0.726
643.87	0.727
644.06	0.727
644.25	0.707
644.45	0.710
644.64	0.711
644.83	0.711
645.02	0.708
645.21	0.706
645.40	0.706
645.59	0.706
645.78	0.700
645.97	0.703
646.16	0.704
646.35	0.703
646.54	0.702
646.73	0.703
646.92	0.704
647.11	0.703
647.30	0.700
647.49	0.703
647.68	0.702
647.88	0.701
648.07	0.695
648.26	0.698
648.45	0.698
648.64	0.694
648.83	0.693
649.02	0.695
649.21	0.703
649.40	0.702
649.59	0.697
649.78	0.697
649.97	0.711
650.16	0.709
650.35	0.704
650.54	0.707
650.73	0.714
650.92	0.711
651.11	0.705
651.30	0.704
651.49	0.707
651.68	0.708
651.87	0.706
652.06	0.696
652.25	0.699
652.44	0.703
652.63	0.704
652.82	0.707
653.01	0.708
653.20	0.707
653.39	0.697
653.58	0.695
653.77	0.695
653.96	0.690
654.15	0.683
654.34	0.681
654.53	0.675
654.72	0.667
654.91	0.657
655.10	0.652
655.29	0.650
655.48	0.647
655.67	0.642
655.86	0.638
656.05	0.637
656.24	0.636
656.43	0.630
656.62	0.630
656.81	0.629
657.00	0.625
657.19	0.620
657.38	0.619
657.57	0.617
657.76	0.618
657.95	0.615
658.14	0.617
658.33	0.619
658.51	0.623
658.70	0.622
658.89	0.624
659.08	0.634
659.27	0.643
659.46	0.645
659.65	0.652
659.84	0.656
660.03	0.660
660.22	0.661
660.41	0.665
660.60	0.665
660.79	0.667
660.98	0.673
661.17	0.672
661.36	0.672
661.55	0.672
661.74	0.672
661.92	0.675
662.11	0.677
662.30	0.676
662.49	0.671
662.68	0.670
662.87	0.673
663.06	0.667
663.25	0.668
663.44	0.668
663.63	0.669
663.82	0.667
664.01	0.662
664.20	0.661
664.38	0.662
664.57	0.662
664.76	0.661
664.95	0.662
665.14	0.665
665.33	0.660
665.52	0.668
665.71	0.672
665.90	0.672
666.09	0.673
666.28	0.671
666.46	0.670
666.65	0.671
666.84	0.668
667.03	0.663
667.22	0.662
667.41	0.664
667.60	0.654
667.79	0.648
667.98	0.649
668.16	0.649
668.35	0.649
668.54	0.645
668.73	0.645
668.92	0.646
669.11	0.646
669.30	0.641
669.49	0.636
669.67	0.638
669.86	0.640
670.05	0.638
670.24	0.635
670.43	0.634
670.62	0.633
670.81	0.629
671.00	0.629
671.18	0.628
671.37	0.628
671.56	0.627
671.75	0.625
671.94	0.622
672.13	0.621
672.32	0.617
672.50	0.616
672.69	0.615
672.88	0.615
673.07	0.611
673.26	0.613
673.45	0.613
673.63	0.613
673.82	0.610
674.01	0.611
674.20	0.610
674.39	0.610
674.58	0.610
674.76	0.610
674.95	0.609
675.14	0.610
675.33	0.607
675.52	0.605
675.71	0.606
675.89	0.606
676.08	0.603
676.27	0.603
676.46	0.603
676.65	0.602
676.84	0.603
677.02	0.604
677.21	0.605
677.40	0.603
677.59	0.601
677.78	0.601
677.96	0.603
678.15	0.603
678.34	0.601
678.53	0.601
678.72	0.601
678.90	0.598
679.09	0.594
679.28	0.591
679.47	0.591
679.66	0.591
679.84	0.588
680.03	0.585
680.22	0.584
680.41	0.584
680.60	0.581
680.78	0.580
680.97	0.582
681.16	0.582
681.35	0.581
681.53	0.581
681.72	0.582
681.91	0.584
682.10	0.583
682.29	0.585
682.47	0.583
682.66	0.581
682.85	0.580
683.04	0.578
683.22	0.578
683.41	0.579
683.60	0.578
683.79	0.578
683.97	0.577
684.16	0.575
684.35	0.572
684.54	0.573
684.72	0.574
684.91	0.574
685.10	0.572
685.29	0.573
685.47	0.570
685.66	0.570
685.85	0.567
686.04	0.565
686.22	0.567
686.41	0.570
686.60	0.567
686.79	0.570
686.97	0.571
687.16	0.573
687.35	0.571
687.54	0.574
687.72	0.577
687.91	0.577
688.10	0.580
688.29	0.580
688.47	0.578
688.66	0.578
688.85	0.574
689.03	0.572
689.22	0.576
689.41	0.577
689.60	0.573
689.78	0.570
689.97	0.570
690.16	0.568
690.34	0.564
690.53	0.564
690.72	0.564
690.91	0.562
691.09	0.560
691.28	0.554
691.47	0.552
691.65	0.551
691.84	0.548
692.03	0.546
692.21	0.544
692.40	0.544
692.59	0.542
692.77	0.540
692.96	0.541
693.15	0.541
693.34	0.539
693.52	0.539
693.71	0.538
693.90	0.540
694.08	0.541
694.27	0.542
694.46	0.550
694.64	0.551
694.83	0.551
695.02	0.551
695.20	0.551
695.39	0.550
695.58	0.550
695.76	0.551
695.95	0.550
696.14	0.549
696.32	0.547
696.51	0.538
696.70	0.538
696.88	0.539
697.07	0.538
697.26	0.539
697.44	0.540
697.63	0.539
697.81	0.537
698.00	0.536
698.19	0.535
698.37	0.535
698.56	0.534
698.75	0.534
698.93	0.534
699.12	0.533
699.31	0.533
699.49	0.532
699.68	0.533
699.87	0.535
700.05	0.535
700.24	0.535
700.42	0.537
700.61	0.536
700.80	0.535
700.98	0.535
701.17	0.536
701.36	0.535
701.54	0.535
701.73	0.536
701.91	0.535
702.10	0.534
702.29	0.532
702.47	0.530
702.66	0.532
702.84	0.533
703.03	0.532
703.22	0.533
703.40	0.531
703.59	0.532
703.77	0.532
703.96	0.532
704.15	0.533
704.33	0.533
704.52	0.533
704.70	0.532
704.89	0.532
705.08	0.531
705.26	0.527
705.45	0.528
705.63	0.527
705.82	0.524
706.00	0.523
706.19	0.522
706.38	0.521
706.56	0.521
706.75	0.519
706.93	0.517
707.12	0.518
707.30	0.519
707.49	0.517
707.68	0.514
707.86	0.514
708.05	0.514
708.23	0.511
708.42	0.512
708.60	0.513
708.79	0.513
708.98	0.512
709.16	0.511
709.35	0.513
709.53	0.516
709.72	0.516
709.90	0.518
710.09	0.520
710.27	0.522
710.46	0.526
710.64	0.525
710.83	0.527
711.02	0.528
711.20	0.528
711.39	0.526
711.57	0.524
711.76	0.525
711.94	0.523
712.13	0.524
712.31	0.524
712.50	0.520
712.68	0.517
712.87	0.518
713.05	0.518
713.24	0.518
713.42	0.517
713.61	0.518
713.79	0.518
713.98	0.519
714.16	0.520
714.35	0.520
714.54	0.520
714.72	0.521
714.91	0.519
715.09	0.525
715.28	0.528
715.46	0.528
715.65	0.526
715.83	0.525
716.02	0.527
716.20	0.524
716.39	0.524
716.57	0.525
716.76	0.526
716.94	0.527
717.12	0.520
717.31	0.521
717.49	0.524
717.68	0.526
717.86	0.526
718.05	0.528
718.23	0.529
718.42	0.531
718.60	0.532
718.79	0.540
718.97	0.542
719.16	0.541
719.34	0.538
719.53	0.538
719.71	0.537
719.90	0.538
720.08	0.536
720.27	0.536
720.45	0.536
720.63	0.534
720.82	0.528
721.00	0.530
721.19	0.533
721.37	0.533
721.56	0.533
721.74	0.536
721.93	0.543
722.11	0.548
722.30	0.548
722.48	0.552
722.66	0.553
722.85	0.553
723.03	0.553
723.22	0.552
723.40	0.555
723.59	0.556
723.77	0.561
723.95	0.555
724.14	0.557
724.32	0.558
724.51	0.558
724.69	0.560
724.88	0.560
725.06	0.558
725.24	0.559
725.43	0.561
725.61	0.562
725.80	0.556
725.98	0.555
726.16	0.552
726.35	0.557
726.53	0.556
726.72	0.557
726.90	0.566
727.09	0.567
727.27	0.573
727.45	0.570
727.64	0.579
727.82	0.586
728.01	0.590
728.19	0.587
728.37	0.592
728.56	0.595
728.74	0.601
728.92	0.590
729.11	0.591
729.29	0.590
729.48	0.592
729.66	0.584
729.84	0.583
730.03	0.586
730.21	0.589
730.40	0.581
730.58	0.582
730.76	0.582
730.95	0.585
731.13	0.586
731.31	0.599
731.50	0.607
731.68	0.610
731.86	0.607
732.05	0.619
732.23	0.621
732.42	0.624
732.60	0.628
732.78	0.632
732.97	0.649
733.15	0.656
733.33	0.646
733.52	0.651
733.70	0.660
733.88	0.668
734.07	0.658
734.25	0.681
734.43	0.688
734.62	0.688
734.80	0.685
734.98	0.677
735.17	0.683
735.35	0.689
735.53	0.680
735.72	0.683
735.90	0.701
736.08	0.719
736.27	0.699
736.45	0.708
736.63	0.718
736.82	0.727
737.00	0.728
737.18	0.734
737.37	0.762
737.55	0.782
737.73	0.778
737.92	0.780
738.10	0.778
738.28	0.796
738.46	0.788
738.65	0.803
738.83	0.820
739.01	0.869
739.20	0.866
739.38	0.848
739.56	0.836
739.75	0.840
739.93	0.814
740.11	0.830
740.29	0.828
740.48	0.831
740.66	0.809
740.84	0.805
741.03	0.767
741.21	0.776
741.39	0.765
741.57	0.778
741.76	0.790
741.94	0.797
742.12	0.770
742.31	0.777
742.49	0.792
742.67	0.817
742.85	0.832
743.04	0.839
743.22	0.844
743.40	0.890
743.58	0.879
743.77	0.893
743.95	0.919
744.13	0.965
744.31	0.952
744.50	0.948
744.68	0.940
744.86	0.920
745.04	0.928
745.23	0.991
745.41	0.966
745.59	0.966
745.77	0.936
745.96	0.921
746.14	0.924
746.32	0.920
746.50	0.913
746.69	0.900
746.87	0.901
747.05	0.890
747.23	0.825
747.42	0.815
747.60	0.834
747.78	0.840
747.96	0.874
748.14	0.840
748.33	0.861
748.51	0.855
748.69	0.848
748.87	0.871
749.06	0.865
749.24	0.865
749.42	0.853
749.60	0.840
749.78	0.845
749.97	0.804
750.15	0.798
750.33	0.802
750.51	0.821
750.69	0.825
750.88	0.834
751.06	0.843
751.24	0.861
751.42	0.855
751.60	0.851
751.79	0.910
751.97	0.943
752.15	0.946
752.33	0.918
752.51	0.978
752.69	0.987
752.88	0.958
753.06	1.002
753.24	0.986
753.42	1.009
753.60	1.147
753.78	1.038
753.97	1.058
754.15	1.059
754.33	1.085
754.51	0.985
754.69	0.975
754.87	0.990
755.06	0.935
755.24	0.942
755.42	0.950
755.60	0.860
755.78	0.870
755.96	0.822
756.15	0.823
756.33	0.823
756.51	0.840
756.69	0.828
756.87	0.800
757.05	0.809
757.23	0.794
757.42	0.770
757.60	0.766
757.78	0.755
757.96	0.755
758.14	0.743
758.32	0.731
758.50	0.739
758.69	0.737
758.87	0.733
759.05	0.737
759.23	0.741
759.41	0.740
759.59	0.738
759.77	0.753
759.95	0.775
760.13	0.821
760.32	0.819
760.50	0.815
760.68	0.838
760.86	0.842
761.04	0.822
761.22	0.826
761.40	0.865
761.58	0.865
761.76	0.845
761.95	0.824
762.13	0.781
762.31	0.782
762.49	0.756
762.67	0.770
762.85	0.776
763.03	0.772
763.21	0.761
763.39	0.741
763.57	0.741
763.75	0.736
763.94	0.724
764.12	0.726
764.30	0.744
764.48	0.748
764.66	0.718
764.84	0.715
765.02	0.745
765.20	0.749
765.38	0.737
765.56	0.741
765.74	0.775
765.92	0.777
766.10	0.782
766.28	0.776
766.46	0.799
766.65	0.802
766.83	0.796
767.01	0.782
767.19	0.786
767.37	0.788
767.55	0.779
767.73	0.757
767.91	0.759
768.09	0.747
768.27	0.740
768.45	0.731
768.63	0.736
768.81	0.740
768.99	0.718
769.17	0.738
769.35	0.748
769.53	0.746
769.71	0.733
769.89	0.741
770.07	0.747
770.25	0.729
770.43	0.710
770.61	0.728
770.79	0.728
770.97	0.736
771.15	0.712
771.33	0.714
771.51	0.716
771.69	0.728
771.87	0.734
772.05	0.739
772.24	0.745
772.42	0.754
772.60	0.735
772.78	0.786
772.96	0.807
773.14	0.804
773.32	0.786
773.49	0.793
773.67	0.790
773.85	0.773
774.03	0.765
774.21	0.794
774.39	0.801
774.57	0.824
774.75	0.766
774.93	0.764
775.11	0.779
775.29	0.785
775.47	0.787
775.65	0.793
775.83	0.808
776.01	0.828
776.19	0.786
776.37	0.787
776.55	0.783
776.73	0.778
776.91	0.775
777.09	0.759
777.27	0.757
777.45	0.745
777.63	0.727
777.81	0.722
777.99	0.709
778.17	0.710
778.35	0.694
778.53	0.683
778.71	0.686
778.89	0.673
779.07	0.666
779.24	0.670
779.42	0.671
779.60	0.687
779.78	0.685
779.96	0.689
780.14	0.693
780.32	0.708
780.50	0.695
780.68	0.694
780.86	0.687
781.04	0.704
781.22	0.708
781.40	0.716
781.58	0.705
781.75	0.698
781.93	0.684
782.11	0.684
782.29	0.672
782.47	0.669
782.65	0.661
782.83	0.686
783.01	0.677
783.19	0.672
783.37	0.661
783.55	0.663
783.72	0.678
783.90	0.688
784.08	0.682
784.26	0.691
784.44	0.712
784.62	0.714
784.80	0.686
784.98	0.694
785.16	0.698
785.33	0.711
785.51	0.701
785.69	0.690
785.87	0.689
786.05	0.700
786.23	0.700
786.41	0.693
786.59	0.697
786.77	0.697
786.94	0.686
787.12	0.688
787.30	0.688
787.48	0.688
787.66	0.679
787.84	0.679
788.02	0.668
788.19	0.667
788.37	0.659
788.55	0.661
788.73	0.660
788.91	0.656
789.09	0.644
789.27	0.633
789.44	0.642
789.62	0.647
789.80	0.656
789.98	0.677
790.16	0.662
790.34	0.658
790.51	0.647
790.69	0.663
790.87	0.666
791.05	0.663
791.23	0.661
791.41	0.660
791.58	0.664
791.76	0.646
791.94	0.622
792.12	0.630
792.30	0.632
792.48	0.630
792.65	0.626
792.83	0.632
793.01	0.636
793.19	0.633
793.37	0.620
793.54	0.618
793.72	0.626
793.90	0.624
794.08	0.614
794.26	0.613
794.43	0.620
794.61	0.605
794.79	0.596
794.97	0.595
795.15	0.598
795.32	0.601
795.50	0.593
795.68	0.586
795.86	0.588
796.04	0.590
796.21	0.586
796.39	0.583
796.57	0.595
796.75	0.602
796.92	0.605
797.10	0.610
797.28	0.611
797.46	0.613
797.64	0.618
797.81	0.627
797.99	0.631
798.17	0.636
798.35	0.632
798.52	0.636
798.70	0.630
798.88	0.638
799.06	0.640
799.23	0.642
799.41	0.647
799.59	0.640
799.77	0.632
799.94	0.636
800.12	0.642
800.30	0.659
800.48	0.657
800.65	0.657
800.83	0.644
801.01	0.635
801.19	0.638
801.36	0.634
801.54	0.636
801.72	0.644
801.90	0.634
802.07	0.631
802.25	0.615
802.43	0.601
802.60	0.600
802.78	0.607
802.96	0.611
803.14	0.604
803.31	0.605
803.49	0.605
803.67	0.601
803.84	0.605
804.02	0.597
804.20	0.601
804.38	0.606
804.55	0.605
804.73	0.594
804.91	0.594
805.08	0.605
805.26	0.603
805.44	0.665
805.61	0.668
805.79	0.666
805.97	0.666
806.15	0.660
806.32	0.654
806.50	0.659
806.68	0.659
806.85	0.655
807.03	0.644
807.21	0.657
807.38	0.593
807.56	0.586
807.74	0.595
807.91	0.599
808.09	0.602
808.27	0.621
808.44	0.646
808.62	0.652
808.80	0.652
808.97	0.649
809.15	0.644
809.33	0.657
809.50	0.664
809.68	0.654
809.86	0.664
810.03	0.693
810.21	0.673
810.39	0.657
810.56	0.663
810.74	0.683
810.91	0.750
811.09	0.741
811.27	0.762
811.44	0.764
811.62	0.767
811.80	0.751
811.97	0.720
812.15	0.720
812.33	0.716
812.50	0.702
812.68	0.692
812.85	0.639
813.03	0.641
813.21	0.612
813.38	0.607
813.56	0.608
813.74	0.617
813.91	0.626
814.09	0.650
814.26	0.640
814.44	0.643
814.62	0.636
814.79	0.639
814.97	0.641
815.14	0.645
815.32	0.653
815.50	0.666
815.67	0.667
815.85	0.660
816.02	0.653
816.20	0.662
816.38	0.674
816.55	0.678
816.73	0.679
816.90	0.688
817.08	0.714
817.26	0.716
817.43	0.698
817.61	0.721
817.78	0.738
817.96	0.721
818.13	0.710
818.31	0.710
818.49	0.719
818.66	0.712
818.84	0.702
819.01	0.682
819.19	0.685
819.36	0.688
819.54	0.661
819.71	0.697
819.89	0.706
820.07	0.720
820.24	0.716
820.42	0.714
820.59	0.729
820.77	0.753
820.94	0.749
821.12	0.764
821.29	0.771
821.47	0.775
821.64	0.720
821.82	0.731
822.00	0.728
822.17	0.728
822.35	0.724
822.52	0.725
822.70	0.709
822.87	0.719
823.05	0.703
823.22	0.715
823.40	0.734
823.57	0.755
823.75	0.743
823.92	0.760
824.10	0.774
824.27	0.806
824.45	0.803
824.62	0.855
824.80	0.861
824.97	0.875
825.15	0.867
825.32	0.879
825.50	0.880
825.67	0.887
825.85	0.874
826.02	0.889
826.20	0.907
826.37	1.006
826.55	0.945
826.72	1.100
826.90	1.134
827.07	1.179
827.25	1.141
827.42	1.245
827.60	1.328
827.77	1.428
827.95	1.407
828.12	1.448
828.30	1.218
828.47	1.277
828.65	1.060
828.82	1.101
829.00	1.126
829.17	1.176
829.34	1.181
829.52	1.189
829.69	2.305
829.87	-0.000
830.04	-0.000
830.22	-0.000
830.39	-0.000
830.57	-0.000
830.74	-0.000
830.92	-0.000
831.09	-0.000
831.26	-0.000
831.44	-0.000
831.61	-0.000
831.79	-0.000
831.96	-0.000
832.14	-0.000
832.31	-0.000
832.49	-0.000
832.66	-0.000
832.83	-0.000
833.01	-0.000
833.18	-0.000
833.36	-0.000
833.53	-0.000
833.70	-0.000
833.88	-0.000
834.05	-0.000
834.23	-0.000
834.40	-0.000
834.58	-0.000
834.75	-0.000
834.92	-0.000
835.10	-0.000
835.27	-0.000
835.45	-0.000
835.62	-0.000
835.79	-0.000
835.97	-0.000
836.14	-0.000
836.32	-0.000
836.49	-0.000
836.66	-0.000
836.84	-0.000
837.01	-0.000
837.18	-0.000
837.36	-0.000
837.53	-0.000
837.71	-0.000
837.88	-0.000
838.05	-0.000
838.23	-0.000
838.40	-0.000
838.58	-0.000
838.75	-0.000
838.92	-0.000
839.10	-0.000
839.27	-0.000
839.44	-0.000
839.62	-0.000
839.79	-0.000
839.96	-0.000
840.14	-0.000
840.31	-0.000
840.48	-0.000
840.66	-0.000
840.83	-0.000
841.01	-0.000
841.18	-0.000
841.35	-0.000
841.53	-0.000
841.70	-0.000
841.87	-0.000
842.05	-0.000
842.22	-0.000
842.39	-0.000
842.57	-0.000
842.74	-0.000
842.91	-0.000
843.09	-0.000
843.26	-0.000
843.43	-0.000
843.60	-0.000
843.78	-0.000
843.95	-0.000
844.12	-0.000
844.30	-0.000
844.47	-0.000
844.64	-0.000
844.82	-0.000
844.99	-0.000
845.16	-0.000
845.34	-0.000
845.51	-0.000
845.68	-0.000
845.85	-0.000
846.03	-0.000
846.20	-0.000
846.37	-0.000
846.55	-0.000
846.72	-0.000
846.89	-0.000
847.06	-0.000
847.24	-0.000
847.41	-0.000
847.58	-0.000
847.76	-0.000
847.93	-0.000
848.10	-0.000
848.27	-0.000
848.45	-0.000
848.62	-0.000
848.79	-0.000
848.97	-0.000
849.14	-0.000
849.31	-0.000
849.48	-0.000
849.66	-0.000
849.83	-0.000
850.00	-0.000
850.17	-0.000
850.35	-0.000
850.52	-0.000
850.69	-0.000
850.86	-0.000
851.04	-0.000
851.21	-0.000
851.38	-0.000
851.55	-0.000
851.72	-0.000
851.90	-0.000
852.07	-0.000
852.24	-0.000
852.41	-0.000
852.59	-0.000
852.76	-0.000
852.93	-0.000
853.10	-0.000
853.28	-0.000
853.45	-0.000
853.62	-0.000
853.79	-0.000
853.96	-0.000
854.14	-0.000
854.31	-0.000
854.48	-0.000
854.65	-0.000
854.82	-0.000
855.00	-0.000
855.17	-0.000
855.34	-0.000
855.51	-0.000
855.68	-0.000
855.86	-0.000
856.03	-0.000
856.20	-0.000
856.37	-0.000
856.54	-0.000
856.72	-0.000
856.89	-0.000
857.06	-0.000
857.23	-0.000
857.40	-0.000
857.57	-0.000
857.75	-0.000
857.92	-0.000
858.09	-0.000
858.26	-0.000
858.43	-0.000
858.60	-0.000
858.78	-0.000
858.95	-0.000
859.12	-0.000
859.29	-0.000
859.46	-0.000
859.63	-0.000
859.81	-0.000
859.98	-0.000
860.15	-0.000
860.32	-0.000
860.49	-0.000
860.66	-0.000
860.83	-0.000
861.01	-0.000
861.18	-0.000
861.35	-0.000
861.52	-0.000
861.69	-0.000
861.86	-0.000
862.03	-0.000
862.21	-0.000
862.38	-0.000
862.55	-0.000
862.72	-0.000
862.89	-0.000
863.06	-0.000
863.23	-0.000
863.40	-0.000
863.58	-0.000
863.75	-0.000
863.92	-0.000
864.09	-0.000
864.26	-0.000
864.43	-0.000
864.60	-0.000
864.77	-0.000
864.94	-0.000
865.11	-0.000
865.29	-0.000
865.46	-0.000
865.63	-0.000
865.80	-0.000
865.97	-0.000
866.14	-0.000
866.31	-0.000
866.48	-0.000
866.65	-0.000
866.82	-0.000
866.99	-0.000
867.16	-0.000
867.34	-0.000
867.51	-0.000
867.68	-0.000
867.85	-0.000
868.02	-0.000
868.19	-0.000
868.36	-0.000
868.53	-0.000
868.70	-0.000
868.87	-0.000
869.04	-0.000
869.21	-0.000
869.38	-0.000
869.55	-0.000
869.72	-0.000
869.89	-0.000
870.06	-0.000
870.24	-0.000
870.41	-0.000
870.58	-0.000
870.75	-0.000
870.92	-0.000
871.09	-0.000
871.26	-0.000
871.43	-0.000
871.60	-0.000
871.77	-0.000
871.94	-0.000
872.11	-0.000
872.28	-0.000
872.45	-0.000
872.62	-0.000
872.79	-0.000
872.96	-0.000
873.13	-0.000
873.30	-0.000
873.47	-0.000
873.64	-0.000
873.81	-0.000
873.98	-0.000
874.15	-0.000
874.32	-0.000
874.49	-0.000
874.66	-0.000
874.83	-0.000
875.00	-0.000
875.17	-0.000
875.34	-0.000
875.51	-0.000
875.68	-0.000
875.85	-0.000
876.02	-0.000
876.19	-0.000
876.36	-0.000
876.53	-0.000
876.70	-0.000
876.87	-0.000
877.04	-0.000
877.21	-0.000
877.38	-0.000
877.55	-0.000
877.72	-0.000
877.89	-0.000
878.06	-0.000
878.23	-0.000
878.39	-0.000
878.56	-0.000
878.73	-0.000
878.90	-0.000
879.07	-0.000
879.24	-0.000
879.41	-0.000
879.58	-0.000
879.75	-0.000
879.92	-0.000
880.09	-0.000
880.26	-0.000
880.43	-0.000
880.60	-0.000
880.77	-0.000
880.94	-0.000
881.11	-0.000
881.27	-0.000
881.44	-0.000
881.61	-0.000
881.78	-0.000
881.95	-0.000
882.12	-0.000
882.29	-0.000
882.46	-0.000
882.63	-0.000
882.80	-0.000
882.97	-0.000
883.14	-0.000
883.30	-0.000
883.47	-0.000
883.64	-0.000
883.81	-0.000
883.98	-0.000
884.15	-0.000
884.32	-0.000
884.49	-0.000
884.66	-0.000
884.82	-0.000
884.99	-0.000
885.16	-0.000
885.33	-0.000
885.50	-0.000
885.67	-0.000
885.84	-0.000
886.01	-0.000
886.17	-0.000
886.34	-0.000
886.51	-0.000
886.68	-0.000
886.85	-0.000
887.02	-0.000
887.19	-0.000
887.36	-0.000
887.52	-0.000
887.69	-0.000
887.86	-0.000
888.03	-0.000
888.20	-0.000
888.37	-0.000
888.54	-0.000
888.70	-0.000
888.87	-0.000
889.04	-0.000
889.21	-0.000
889.38	-0.000
889.55	-0.000
889.71	-0.000
889.88	-0.000
890.05	-0.000
890.22	-0.000
890.39	-0.000
>>>>>End Processed Spectral Data<<<<<
