SpectraSuite Data File
++++++++++++++++++++++++++++++++++++
Date: Fri Jun 19 14:55:48 CEST 2015
User: introlabs
Dark Spectrum Present: Yes
Reference Spectrum Present: Yes
Number of Sampled Component Spectra: 1
Spectrometers: USB4H08886
Integration Time (usec): 745692 (USB4H08886)
Spectra Averaged: 5 (USB4H08886)
Boxcar Smoothing: 5 (USB4H08886)
Correct for Electrical Dark: Yes (USB4H08886)
Strobe/Lamp Enabled: No (USB4H08886)
Correct for Detector Non-linearity: Yes (USB4H08886)
Correct for Stray Light: Yes (USB4H08886)
Number of Pixels in Processed Spectrum: 3648
>>>>>Begin Processed Spectral Data<<<<<
178.14	-0.000
178.36	-0.000
178.57	-0.000
178.79	-0.000
179.01	-0.000
179.22	-0.000
179.44	-0.000
179.65	-0.000
179.87	-0.000
180.08	-0.000
180.30	-0.000
180.52	-0.000
180.73	-0.000
180.95	-0.000
181.16	-0.000
181.38	-0.000
181.59	-0.000
181.81	-0.000
182.03	-0.000
182.24	-0.000
182.46	-0.000
182.67	-0.000
182.89	-0.000
183.10	-0.000
183.32	-0.000
183.54	-0.000
183.75	-0.000
183.97	-0.000
184.18	-0.000
184.40	-0.000
184.61	-0.000
184.83	-0.000
185.04	-0.000
185.26	-0.000
185.48	-0.000
185.69	-0.000
185.91	-0.000
186.12	-0.000
186.34	-0.000
186.55	-0.000
186.77	-0.000
186.98	-0.000
187.20	-0.000
187.42	-0.000
187.63	-0.000
187.85	-0.000
188.06	-0.000
188.28	-0.000
188.49	-0.000
188.71	-0.000
188.92	-0.000
189.14	-0.000
189.36	-0.000
189.57	-0.000
189.79	-0.000
190.00	-0.000
190.22	-0.000
190.43	-0.000
190.65	-0.000
190.86	-0.000
191.08	-0.000
191.29	-0.000
191.51	-0.000
191.72	-0.000
191.94	-0.000
192.16	-0.000
192.37	-0.000
192.59	-0.000
192.80	-0.000
193.02	-0.000
193.23	-0.000
193.45	-0.000
193.66	-0.000
193.88	-0.000
194.09	-0.000
194.31	-0.000
194.52	-0.000
194.74	-0.000
194.95	-0.000
195.17	-0.000
195.38	-0.000
195.60	-0.000
195.81	-0.000
196.03	-0.000
196.25	-0.000
196.46	-0.000
196.68	-0.000
196.89	-0.000
197.11	-0.000
197.32	-0.000
197.54	-0.000
197.75	-0.000
197.97	-0.000
198.18	-0.000
198.40	-0.000
198.61	-0.000
198.83	-0.000
199.04	-0.000
199.26	-0.000
199.47	-0.000
199.69	-0.000
199.90	-0.000
200.12	-0.000
200.33	-0.000
200.55	-0.000
200.76	-0.000
200.98	-0.000
201.19	-0.000
201.41	-0.000
201.62	-0.000
201.84	-0.000
202.05	-0.000
202.27	-0.000
202.48	-0.000
202.70	-0.000
202.91	-0.000
203.13	-0.000
203.34	-0.000
203.56	-0.000
203.77	-0.000
203.99	-0.000
204.20	-0.000
204.42	-0.000
204.63	-0.000
204.85	-0.000
205.06	-0.000
205.28	-0.000
205.49	-0.000
205.71	-0.000
205.92	-0.000
206.14	-0.000
206.35	-0.000
206.56	-0.000
206.78	-0.000
206.99	-0.000
207.21	-0.000
207.42	-0.000
207.64	-0.000
207.85	-0.000
208.07	-0.000
208.28	-0.000
208.50	-0.000
208.71	-0.000
208.93	-0.000
209.14	-0.000
209.36	-0.000
209.57	-0.000
209.79	-0.000
210.00	-0.000
210.22	-0.000
210.43	-0.000
210.64	-0.000
210.86	-0.000
211.07	-0.000
211.29	-0.000
211.50	-0.000
211.72	-0.000
211.93	-0.000
212.15	-0.000
212.36	-0.000
212.58	-0.000
212.79	-0.000
213.01	-0.000
213.22	-0.000
213.43	-0.000
213.65	-0.000
213.86	-0.000
214.08	-0.000
214.29	-0.000
214.51	-0.000
214.72	-0.000
214.94	-0.000
215.15	-0.000
215.36	-0.000
215.58	-0.000
215.79	-0.000
216.01	-0.000
216.22	-0.000
216.44	-0.000
216.65	-0.000
216.87	-0.000
217.08	-0.000
217.29	-0.000
217.51	-0.000
217.72	-0.000
217.94	-0.000
218.15	-0.000
218.37	-0.000
218.58	-0.000
218.80	-0.000
219.01	-0.000
219.22	-0.000
219.44	-0.000
219.65	-0.000
219.87	-0.000
220.08	-0.000
220.30	-0.000
220.51	-0.000
220.72	-0.000
220.94	-0.000
221.15	-0.000
221.37	-0.000
221.58	-0.000
221.79	-0.000
222.01	-0.000
222.22	-0.000
222.44	-0.000
222.65	-0.000
222.87	-0.000
223.08	-0.000
223.29	-0.000
223.51	-0.000
223.72	-0.000
223.94	-0.000
224.15	-0.000
224.36	-0.000
224.58	-0.000
224.79	-0.000
225.01	-0.000
225.22	-0.000
225.44	-0.000
225.65	-0.000
225.86	-0.000
226.08	-0.000
226.29	-0.000
226.51	-0.000
226.72	-0.000
226.93	-0.000
227.15	-0.000
227.36	-0.000
227.58	-0.000
227.79	-0.000
228.00	-0.000
228.22	-0.000
228.43	-0.000
228.65	-0.000
228.86	-0.000
229.07	-0.000
229.29	-0.000
229.50	-0.000
229.72	-0.000
229.93	-0.000
230.14	-0.000
230.36	-0.000
230.57	-0.000
230.78	-0.000
231.00	-0.000
231.21	-0.000
231.43	-0.000
231.64	-0.000
231.85	-0.000
232.07	-0.000
232.28	-0.000
232.50	-0.000
232.71	-0.000
232.92	-0.000
233.14	-0.000
233.35	-0.000
233.56	-0.000
233.78	-0.000
233.99	-0.000
234.21	-0.000
234.42	-0.000
234.63	-0.000
234.85	-0.000
235.06	-0.000
235.27	-0.000
235.49	-0.000
235.70	-0.000
235.91	-0.000
236.13	-0.000
236.34	-0.000
236.56	-0.000
236.77	-0.000
236.98	-0.000
237.20	-0.000
237.41	-0.000
237.62	-0.000
237.84	-0.000
238.05	-0.000
238.26	-0.000
238.48	-0.000
238.69	-0.000
238.91	-0.000
239.12	-0.000
239.33	-0.000
239.55	-0.000
239.76	-0.000
239.97	-0.000
240.19	-0.000
240.40	-0.000
240.61	-0.000
240.83	-0.000
241.04	-0.000
241.25	-0.000
241.47	-0.000
241.68	-0.000
241.89	-0.000
242.11	-0.000
242.32	-0.000
242.53	-0.000
242.75	-0.000
242.96	-0.000
243.17	-0.000
243.39	-0.000
243.60	-0.000
243.81	-0.000
244.03	-0.000
244.24	-0.000
244.45	-0.000
244.67	-0.000
244.88	-0.000
245.09	-0.000
245.31	-0.000
245.52	-0.000
245.73	-0.000
245.95	-0.000
246.16	-0.000
246.37	-0.000
246.59	-0.000
246.80	-0.000
247.01	-0.000
247.23	-0.000
247.44	-0.000
247.65	-0.000
247.87	-0.000
248.08	-0.000
248.29	-0.000
248.51	-0.000
248.72	-0.000
248.93	-0.000
249.15	-0.000
249.36	-0.000
249.57	-0.000
249.78	-0.000
250.00	-0.000
250.21	-0.000
250.42	-0.000
250.64	-0.000
250.85	-0.000
251.06	-0.000
251.28	-0.000
251.49	-0.000
251.70	-0.000
251.92	-0.000
252.13	-0.000
252.34	-0.000
252.55	-0.000
252.77	-0.000
252.98	-0.000
253.19	-0.000
253.41	-0.000
253.62	-0.000
253.83	-0.000
254.05	-0.000
254.26	-0.000
254.47	-0.000
254.68	-0.000
254.90	-0.000
255.11	-0.000
255.32	-0.000
255.54	-0.000
255.75	-0.000
255.96	-0.000
256.17	-0.000
256.39	-0.000
256.60	-0.000
256.81	-0.000
257.03	-0.000
257.24	-0.000
257.45	-0.000
257.66	-0.000
257.88	-0.000
258.09	-0.000
258.30	-0.000
258.51	-0.000
258.73	-0.000
258.94	-0.000
259.15	-0.000
259.37	-0.000
259.58	-0.000
259.79	-0.000
260.00	-0.000
260.22	-0.000
260.43	-0.000
260.64	-0.000
260.85	-0.000
261.07	-0.000
261.28	-0.000
261.49	-0.000
261.71	-0.000
261.92	-0.000
262.13	-0.000
262.34	-0.000
262.56	-0.000
262.77	-0.000
262.98	-0.000
263.19	-0.000
263.41	-0.000
263.62	-0.000
263.83	-0.000
264.04	-0.000
264.26	-0.000
264.47	-0.000
264.68	-0.000
264.89	-0.000
265.11	-0.000
265.32	-0.000
265.53	-0.000
265.74	-0.000
265.96	-0.000
266.17	-0.000
266.38	-0.000
266.59	-0.000
266.81	-0.000
267.02	-0.000
267.23	-0.000
267.44	-0.000
267.65	-0.000
267.87	-0.000
268.08	-0.000
268.29	-0.000
268.50	-0.000
268.72	-0.000
268.93	-0.000
269.14	-0.000
269.35	-0.000
269.57	-0.000
269.78	-0.000
269.99	-0.000
270.20	-0.000
270.41	-0.000
270.63	-0.000
270.84	-0.000
271.05	-0.000
271.26	-0.000
271.48	-0.000
271.69	-0.000
271.90	-0.000
272.11	-0.000
272.32	-0.000
272.54	-0.000
272.75	-0.000
272.96	-0.000
273.17	-0.000
273.39	-0.000
273.60	-0.000
273.81	-0.000
274.02	-0.000
274.23	-0.000
274.45	-0.000
274.66	-0.000
274.87	-0.000
275.08	-0.000
275.29	-0.000
275.51	-0.000
275.72	-0.000
275.93	-0.000
276.14	-0.000
276.35	-0.000
276.57	-0.000
276.78	-0.000
276.99	-0.000
277.20	-0.000
277.41	-0.000
277.63	-0.000
277.84	-0.000
278.05	-0.000
278.26	-0.000
278.47	-0.000
278.69	-0.000
278.90	-0.000
279.11	-0.000
279.32	-0.000
279.53	-0.000
279.74	-0.000
279.96	-0.000
280.17	-0.000
280.38	-0.000
280.59	-0.000
280.80	-0.000
281.02	-0.000
281.23	-0.000
281.44	-0.000
281.65	-0.000
281.86	-0.000
282.07	-0.000
282.29	-0.000
282.50	-0.000
282.71	-0.000
282.92	-0.000
283.13	-0.000
283.35	-0.000
283.56	-0.000
283.77	-0.000
283.98	-0.000
284.19	-0.000
284.40	-0.000
284.62	-0.000
284.83	-0.000
285.04	-0.000
285.25	-0.000
285.46	-0.000
285.67	-0.000
285.88	-0.000
286.10	-0.000
286.31	-0.000
286.52	-0.000
286.73	-0.000
286.94	-0.000
287.15	-0.000
287.37	-0.000
287.58	-0.000
287.79	-0.000
288.00	-0.000
288.21	-0.000
288.42	-0.000
288.63	-0.000
288.85	-0.000
289.06	-0.000
289.27	-0.000
289.48	-0.000
289.69	-0.000
289.90	-0.000
290.11	-0.000
290.33	-0.000
290.54	-0.000
290.75	-0.000
290.96	-0.000
291.17	-0.000
291.38	-0.000
291.59	-0.000
291.81	-0.000
292.02	-0.000
292.23	-0.000
292.44	-0.000
292.65	-0.000
292.86	-0.000
293.07	-0.000
293.28	-0.000
293.50	-0.000
293.71	-0.000
293.92	-0.000
294.13	-0.000
294.34	-0.000
294.55	-0.000
294.76	-0.000
294.97	-0.000
295.19	-0.000
295.40	-0.000
295.61	-0.000
295.82	-0.000
296.03	-0.000
296.24	-0.000
296.45	2.673
296.66	1.939
296.87	1.962
297.09	2.070
297.30	2.517
297.51	1.845
297.72	1.804
297.93	1.931
298.14	1.870
298.35	1.818
298.56	1.788
298.77	1.959
298.99	1.913
299.20	1.883
299.41	1.840
299.62	1.768
299.83	1.774
300.04	1.695
300.25	1.691
300.46	1.747
300.67	1.699
300.88	1.637
301.10	1.631
301.31	1.721
301.52	1.645
301.73	1.584
301.94	1.597
302.15	1.608
302.36	1.556
302.57	1.482
302.78	1.490
302.99	1.541
303.20	1.561
303.41	1.464
303.63	1.438
303.84	1.446
304.05	1.445
304.26	1.374
304.47	1.384
304.68	1.385
304.89	1.375
305.10	1.331
305.31	1.319
305.52	1.368
305.73	1.363
305.94	1.321
306.15	1.312
306.37	1.334
306.58	1.343
306.79	1.306
307.00	1.330
307.21	1.373
307.42	1.361
307.63	1.320
307.84	1.284
308.05	1.320
308.26	1.322
308.47	1.299
308.68	1.292
308.89	1.290
309.10	1.289
309.31	1.246
309.52	1.237
309.73	1.251
309.95	1.247
310.16	1.216
310.37	1.204
310.58	1.222
310.79	1.219
311.00	1.216
311.21	1.218
311.42	1.218
311.63	1.215
311.84	1.194
312.05	1.193
312.26	1.215
312.47	1.227
312.68	1.205
312.89	1.186
313.10	1.192
313.31	1.164
313.52	1.169
313.73	1.169
313.94	1.169
314.15	1.153
314.36	1.132
314.57	1.126
314.78	1.112
314.99	1.106
315.21	1.094
315.42	1.101
315.63	1.114
315.84	1.091
316.05	1.077
316.26	1.085
316.47	1.102
316.68	1.100
316.89	1.080
317.10	1.101
317.31	1.107
317.52	1.109
317.73	1.085
317.94	1.083
318.15	1.136
318.36	1.136
318.57	1.117
318.78	1.105
318.99	1.143
319.20	1.139
319.41	1.103
319.62	1.104
319.83	1.118
320.04	1.113
320.25	1.100
320.46	1.058
320.67	1.059
320.88	1.055
321.09	1.041
321.30	1.023
321.51	1.038
321.72	1.035
321.93	1.018
322.14	1.009
322.35	1.037
322.56	1.039
322.77	1.026
322.98	1.038
323.19	1.046
323.40	1.054
323.61	1.033
323.82	1.029
324.03	1.035
324.24	1.034
324.45	1.021
324.66	1.000
324.87	0.995
325.08	0.995
325.29	0.976
325.50	0.969
325.71	0.973
325.92	0.982
326.13	0.968
326.34	0.969
326.55	0.977
326.76	0.975
326.97	0.965
327.18	0.960
327.39	0.984
327.60	0.987
327.80	0.988
328.01	0.986
328.22	0.985
328.43	0.988
328.64	0.975
328.85	0.980
329.06	0.984
329.27	0.984
329.48	0.979
329.69	0.961
329.90	0.970
330.11	0.963
330.32	0.956
330.53	0.949
330.74	0.948
330.95	0.946
331.16	0.929
331.37	0.938
331.58	0.937
331.79	0.936
332.00	0.927
332.21	0.919
332.42	0.924
332.63	0.915
332.83	0.911
333.04	0.915
333.25	0.929
333.46	0.930
333.67	0.915
333.88	0.918
334.09	0.928
334.30	0.926
334.51	0.917
334.72	0.913
334.93	0.915
335.14	0.915
335.35	0.906
335.56	0.900
335.77	0.906
335.98	0.906
336.18	0.899
336.39	0.892
336.60	0.896
336.81	0.894
337.02	0.893
337.23	0.899
337.44	0.901
337.65	0.903
337.86	0.892
338.07	0.887
338.28	0.889
338.49	0.889
338.70	0.882
338.91	0.889
339.11	0.897
339.32	0.892
339.53	0.881
339.74	0.878
339.95	0.874
340.16	0.873
340.37	0.866
340.58	0.865
340.79	0.867
341.00	0.867
341.21	0.856
341.41	0.855
341.62	0.856
341.83	0.856
342.04	0.851
342.25	0.862
342.46	0.866
342.67	0.865
342.88	0.858
343.09	0.858
343.30	0.864
343.50	0.869
343.71	0.859
343.92	0.858
344.13	0.862
344.34	0.862
344.55	0.845
344.76	0.845
344.97	0.849
345.18	0.848
345.38	0.845
345.59	0.839
345.80	0.838
346.01	0.837
346.22	0.833
346.43	0.828
346.64	0.836
346.85	0.835
347.06	0.827
347.26	0.827
347.47	0.831
347.68	0.827
347.89	0.823
348.10	0.817
348.31	0.823
348.52	0.821
348.73	0.819
348.93	0.816
349.14	0.819
349.35	0.818
349.56	0.812
349.77	0.807
349.98	0.812
350.19	0.809
350.39	0.805
350.60	0.800
350.81	0.815
351.02	0.813
351.23	0.809
351.44	0.810
351.65	0.811
351.86	0.809
352.06	0.809
352.27	0.809
352.48	0.810
352.69	0.810
352.90	0.806
353.11	0.793
353.31	0.799
353.52	0.795
353.73	0.788
353.94	0.790
354.15	0.796
354.36	0.796
354.57	0.786
354.77	0.789
354.98	0.788
355.19	0.788
355.40	0.787
355.61	0.792
355.82	0.796
356.02	0.795
356.23	0.789
356.44	0.790
356.65	0.793
356.86	0.794
357.07	0.786
357.27	0.790
357.48	0.793
357.69	0.789
357.90	0.775
358.11	0.772
358.32	0.776
358.52	0.778
358.73	0.769
358.94	0.772
359.15	0.776
359.36	0.777
359.56	0.772
359.77	0.768
359.98	0.774
360.19	0.773
360.40	0.769
360.61	0.770
360.81	0.769
361.02	0.769
361.23	0.761
361.44	0.759
361.65	0.759
361.85	0.759
362.06	0.757
362.27	0.760
362.48	0.760
362.69	0.763
362.89	0.756
363.10	0.757
363.31	0.761
363.52	0.763
363.73	0.759
363.93	0.759
364.14	0.761
364.35	0.762
364.56	0.751
364.77	0.754
364.97	0.756
365.18	0.757
365.39	0.752
365.60	0.749
365.81	0.749
366.01	0.750
366.22	0.746
366.43	0.745
366.64	0.747
366.84	0.753
367.05	0.749
367.26	0.748
367.47	0.749
367.68	0.749
367.88	0.747
368.09	0.744
368.30	0.747
368.51	0.746
368.71	0.746
368.92	0.750
369.13	0.747
369.34	0.747
369.55	0.745
369.75	0.745
369.96	0.752
370.17	0.751
370.38	0.749
370.58	0.748
370.79	0.753
371.00	0.751
371.21	0.742
371.41	0.748
371.62	0.752
371.83	0.748
372.04	0.746
372.24	0.738
372.45	0.739
372.66	0.739
372.87	0.736
373.07	0.732
373.28	0.734
373.49	0.737
373.70	0.728
373.90	0.727
374.11	0.736
374.32	0.735
374.53	0.735
374.73	0.735
374.94	0.738
375.15	0.738
375.36	0.735
375.56	0.744
375.77	0.744
375.98	0.744
376.19	0.742
376.39	0.735
376.60	0.740
376.81	0.740
377.02	0.738
377.22	0.737
377.43	0.737
377.64	0.737
377.84	0.729
378.05	0.734
378.26	0.740
378.47	0.739
378.67	0.736
378.88	0.733
379.09	0.733
379.30	0.734
379.50	0.732
379.71	0.734
379.92	0.736
380.12	0.735
380.33	0.726
380.54	0.723
380.75	0.730
380.95	0.729
381.16	0.727
381.37	0.728
381.57	0.729
381.78	0.730
381.99	0.729
382.20	0.730
382.40	0.733
382.61	0.733
382.82	0.730
383.02	0.724
383.23	0.727
383.44	0.727
383.64	0.726
383.85	0.728
384.06	0.730
384.27	0.728
384.47	0.725
384.68	0.726
384.89	0.732
385.09	0.732
385.30	0.731
385.51	0.730
385.71	0.733
385.92	0.734
386.13	0.732
386.33	0.735
386.54	0.737
386.75	0.736
386.95	0.732
387.16	0.727
387.37	0.730
387.58	0.730
387.78	0.728
387.99	0.724
388.20	0.726
388.40	0.723
388.61	0.718
388.82	0.721
389.02	0.723
389.23	0.723
389.44	0.721
389.64	0.722
389.85	0.733
390.06	0.733
390.26	0.734
390.47	0.733
390.68	0.736
390.88	0.734
391.09	0.730
391.30	0.729
391.50	0.729
391.71	0.729
391.92	0.727
392.12	0.719
392.33	0.720
392.53	0.720
392.74	0.721
392.95	0.719
393.15	0.722
393.36	0.724
393.57	0.722
393.77	0.725
393.98	0.726
394.19	0.726
394.39	0.725
394.60	0.726
394.81	0.727
395.01	0.725
395.22	0.724
395.43	0.725
395.63	0.730
395.84	0.731
396.04	0.727
396.25	0.729
396.46	0.731
396.66	0.729
396.87	0.726
397.08	0.724
397.28	0.726
397.49	0.728
397.69	0.725
397.90	0.720
398.11	0.721
398.31	0.722
398.52	0.718
398.73	0.720
398.93	0.719
399.14	0.718
399.34	0.717
399.55	0.718
399.76	0.718
399.96	0.718
400.17	0.716
400.37	0.715
400.58	0.721
400.79	0.723
400.99	0.720
401.20	0.726
401.41	0.729
401.61	0.730
401.82	0.736
402.02	0.735
402.23	0.737
402.44	0.736
402.64	0.736
402.85	0.731
403.05	0.730
403.26	0.728
403.47	0.723
403.67	0.721
403.88	0.722
404.08	0.716
404.29	0.715
404.50	0.714
404.70	0.714
404.91	0.713
405.11	0.710
405.32	0.711
405.52	0.712
405.73	0.712
405.94	0.710
406.14	0.713
406.35	0.715
406.55	0.714
406.76	0.712
406.97	0.714
407.17	0.717
407.38	0.716
407.58	0.715
407.79	0.717
407.99	0.720
408.20	0.720
408.41	0.715
408.61	0.713
408.82	0.714
409.02	0.714
409.23	0.712
409.43	0.710
409.64	0.712
409.84	0.711
410.05	0.708
410.26	0.706
410.46	0.706
410.67	0.705
410.87	0.707
411.08	0.709
411.28	0.711
411.49	0.712
411.69	0.710
411.90	0.711
412.11	0.714
412.31	0.715
412.52	0.713
412.72	0.714
412.93	0.714
413.13	0.712
413.34	0.709
413.54	0.710
413.75	0.712
413.95	0.711
414.16	0.708
414.37	0.710
414.57	0.710
414.78	0.713
414.98	0.712
415.19	0.713
415.39	0.711
415.60	0.713
415.80	0.713
416.01	0.710
416.21	0.712
416.42	0.712
416.62	0.707
416.83	0.707
417.03	0.706
417.24	0.706
417.44	0.704
417.65	0.703
417.86	0.704
418.06	0.700
418.27	0.699
418.47	0.701
418.68	0.702
418.88	0.703
419.09	0.701
419.29	0.702
419.50	0.702
419.70	0.701
419.91	0.699
420.11	0.697
420.32	0.700
420.52	0.700
420.73	0.699
420.93	0.699
421.14	0.701
421.34	0.700
421.55	0.696
421.75	0.696
421.96	0.698
422.16	0.698
422.37	0.697
422.57	0.694
422.78	0.695
422.98	0.692
423.19	0.689
423.39	0.688
423.60	0.691
423.80	0.693
424.01	0.691
424.21	0.694
424.42	0.695
424.62	0.694
424.83	0.693
425.03	0.694
425.23	0.695
425.44	0.696
425.64	0.696
425.85	0.694
426.05	0.695
426.26	0.695
426.46	0.691
426.67	0.690
426.87	0.695
427.08	0.696
427.28	0.694
427.49	0.695
427.69	0.696
427.90	0.696
428.10	0.692
428.31	0.693
428.51	0.694
428.71	0.694
428.92	0.695
429.12	0.692
429.33	0.693
429.53	0.697
429.74	0.702
429.94	0.702
430.15	0.701
430.35	0.702
430.56	0.698
430.76	0.697
430.96	0.698
431.17	0.695
431.37	0.692
431.58	0.690
431.78	0.686
431.99	0.678
432.19	0.680
432.40	0.682
432.60	0.683
432.80	0.685
433.01	0.683
433.21	0.683
433.42	0.685
433.62	0.686
433.83	0.685
434.03	0.687
434.23	0.690
434.44	0.690
434.64	0.687
434.85	0.692
435.05	0.693
435.26	0.693
435.46	0.692
435.66	0.692
435.87	0.691
436.07	0.691
436.28	0.687
436.48	0.685
436.69	0.684
436.89	0.684
437.09	0.678
437.30	0.677
437.50	0.676
437.71	0.688
437.91	0.686
438.11	0.688
438.32	0.693
438.52	0.693
438.73	0.692
438.93	0.690
439.13	0.691
439.34	0.694
439.54	0.692
439.75	0.692
439.95	0.682
440.15	0.687
440.36	0.685
440.56	0.683
440.77	0.684
440.97	0.684
441.17	0.682
441.38	0.683
441.58	0.681
441.79	0.681
441.99	0.679
442.19	0.679
442.40	0.676
442.60	0.675
442.81	0.673
443.01	0.673
443.21	0.673
443.42	0.673
443.62	0.671
443.82	0.671
444.03	0.672
444.23	0.672
444.44	0.672
444.64	0.670
444.84	0.671
445.05	0.671
445.25	0.668
445.45	0.668
445.66	0.670
445.86	0.670
446.06	0.671
446.27	0.670
446.47	0.674
446.68	0.672
446.88	0.672
447.08	0.671
447.29	0.673
447.49	0.673
447.69	0.673
447.90	0.672
448.10	0.675
448.30	0.672
448.51	0.673
448.71	0.670
448.91	0.672
449.12	0.671
449.32	0.672
449.52	0.671
449.73	0.674
449.93	0.673
450.14	0.674
450.34	0.673
450.54	0.676
450.75	0.674
450.95	0.673
451.15	0.673
451.36	0.675
451.56	0.672
451.76	0.671
451.97	0.668
452.17	0.668
452.37	0.666
452.58	0.663
452.78	0.662
452.98	0.664
453.19	0.664
453.39	0.664
453.59	0.663
453.79	0.664
454.00	0.665
454.20	0.664
454.40	0.665
454.61	0.667
454.81	0.668
455.01	0.667
455.22	0.668
455.42	0.668
455.62	0.666
455.83	0.666
456.03	0.668
456.23	0.669
456.44	0.670
456.64	0.669
456.84	0.669
457.04	0.669
457.25	0.668
457.45	0.665
457.65	0.665
457.86	0.666
458.06	0.665
458.26	0.661
458.47	0.660
458.67	0.661
458.87	0.661
459.07	0.658
459.28	0.660
459.48	0.663
459.68	0.662
459.89	0.661
460.09	0.660
460.29	0.661
460.49	0.663
460.70	0.661
460.90	0.661
461.10	0.662
461.31	0.661
461.51	0.659
461.71	0.660
461.91	0.661
462.12	0.661
462.32	0.660
462.52	0.660
462.72	0.663
462.93	0.663
463.13	0.662
463.33	0.663
463.53	0.664
463.74	0.663
463.94	0.659
464.14	0.660
464.35	0.661
464.55	0.661
464.75	0.659
464.95	0.657
465.16	0.659
465.36	0.658
465.56	0.657
465.76	0.657
465.97	0.657
466.17	0.658
466.37	0.655
466.57	0.657
466.78	0.657
466.98	0.657
467.18	0.655
467.38	0.653
467.59	0.655
467.79	0.655
467.99	0.655
468.19	0.656
468.39	0.659
468.60	0.658
468.80	0.657
469.00	0.659
469.20	0.660
469.41	0.660
469.61	0.660
469.81	0.661
470.01	0.661
470.22	0.661
470.42	0.660
470.62	0.657
470.82	0.659
471.02	0.658
471.23	0.656
471.43	0.656
471.63	0.658
471.83	0.658
472.04	0.656
472.24	0.654
472.44	0.660
472.64	0.659
472.84	0.657
473.05	0.656
473.25	0.659
473.45	0.658
473.65	0.657
473.85	0.657
474.06	0.659
474.26	0.659
474.46	0.660
474.66	0.657
474.86	0.658
475.07	0.658
475.27	0.657
475.47	0.655
475.67	0.655
475.87	0.658
476.08	0.654
476.28	0.655
476.48	0.656
476.68	0.654
476.88	0.652
477.09	0.653
477.29	0.655
477.49	0.655
477.69	0.654
477.89	0.654
478.09	0.653
478.30	0.655
478.50	0.652
478.70	0.652
478.90	0.653
479.10	0.655
479.31	0.656
479.51	0.654
479.71	0.655
479.91	0.654
480.11	0.653
480.31	0.653
480.52	0.652
480.72	0.651
480.92	0.651
481.12	0.650
481.32	0.647
481.52	0.645
481.72	0.645
481.93	0.648
482.13	0.649
482.33	0.649
482.53	0.647
482.73	0.648
482.93	0.649
483.14	0.648
483.34	0.647
483.54	0.648
483.74	0.647
483.94	0.647
484.14	0.643
484.34	0.643
484.55	0.644
484.75	0.644
484.95	0.642
485.15	0.642
485.35	0.642
485.55	0.641
485.75	0.639
485.96	0.640
486.16	0.641
486.36	0.641
486.56	0.639
486.76	0.639
486.96	0.639
487.16	0.638
487.36	0.636
487.57	0.636
487.77	0.637
487.97	0.637
488.17	0.635
488.37	0.634
488.57	0.635
488.77	0.635
488.97	0.633
489.18	0.633
489.38	0.635
489.58	0.636
489.78	0.635
489.98	0.634
490.18	0.635
490.38	0.636
490.58	0.635
490.78	0.636
490.98	0.637
491.19	0.638
491.39	0.637
491.59	0.636
491.79	0.639
491.99	0.640
492.19	0.639
492.39	0.642
492.59	0.643
492.79	0.644
492.99	0.644
493.20	0.644
493.40	0.644
493.60	0.645
493.80	0.644
494.00	0.641
494.20	0.642
494.40	0.641
494.60	0.639
494.80	0.643
495.00	0.642
495.20	0.640
495.40	0.639
495.61	0.641
495.81	0.641
496.01	0.644
496.21	0.646
496.41	0.644
496.61	0.646
496.81	0.644
497.01	0.639
497.21	0.639
497.41	0.640
497.61	0.639
497.81	0.637
498.01	0.637
498.21	0.635
498.41	0.633
498.61	0.633
498.82	0.633
499.02	0.635
499.22	0.636
499.42	0.635
499.62	0.637
499.82	0.638
500.02	0.639
500.22	0.637
500.42	0.640
500.62	0.640
500.82	0.641
501.02	0.639
501.22	0.639
501.42	0.639
501.62	0.641
501.82	0.641
502.02	0.641
502.22	0.639
502.42	0.642
502.62	0.638
502.82	0.639
503.02	0.639
503.22	0.639
503.42	0.637
503.63	0.637
503.83	0.635
504.03	0.634
504.23	0.633
504.43	0.634
504.63	0.635
504.83	0.634
505.03	0.633
505.23	0.635
505.43	0.637
505.63	0.637
505.83	0.636
506.03	0.638
506.23	0.640
506.43	0.640
506.63	0.639
506.83	0.638
507.03	0.640
507.23	0.640
507.43	0.637
507.63	0.638
507.83	0.638
508.03	0.638
508.23	0.637
508.43	0.636
508.63	0.637
508.83	0.638
509.03	0.639
509.23	0.638
509.43	0.640
509.63	0.640
509.83	0.638
510.03	0.641
510.23	0.643
510.43	0.644
510.63	0.644
510.83	0.644
511.03	0.645
511.23	0.643
511.43	0.643
511.63	0.643
511.83	0.646
512.03	0.646
512.22	0.643
512.42	0.642
512.62	0.643
512.82	0.642
513.02	0.642
513.22	0.641
513.42	0.643
513.62	0.645
513.82	0.643
514.02	0.642
514.22	0.644
514.42	0.644
514.62	0.644
514.82	0.644
515.02	0.646
515.22	0.650
515.42	0.649
515.62	0.651
515.82	0.651
516.02	0.652
516.22	0.652
516.42	0.653
516.62	0.655
516.82	0.656
517.01	0.654
517.21	0.653
517.41	0.657
517.61	0.658
517.81	0.654
518.01	0.654
518.21	0.653
518.41	0.652
518.61	0.651
518.81	0.651
519.01	0.652
519.21	0.652
519.41	0.651
519.61	0.646
519.81	0.648
520.00	0.648
520.20	0.648
520.40	0.651
520.60	0.652
520.80	0.651
521.00	0.651
521.20	0.652
521.40	0.657
521.60	0.658
521.80	0.657
522.00	0.657
522.20	0.659
522.39	0.658
522.59	0.655
522.79	0.657
522.99	0.659
523.19	0.658
523.39	0.656
523.59	0.654
523.79	0.656
523.99	0.659
524.19	0.659
524.38	0.657
524.58	0.659
524.78	0.660
524.98	0.657
525.18	0.660
525.38	0.661
525.58	0.661
525.78	0.659
525.98	0.657
526.18	0.658
526.37	0.657
526.57	0.658
526.77	0.658
526.97	0.658
527.17	0.659
527.37	0.655
527.57	0.658
527.77	0.659
527.96	0.659
528.16	0.658
528.36	0.658
528.56	0.660
528.76	0.658
528.96	0.657
529.16	0.659
529.36	0.661
529.55	0.660
529.75	0.657
529.95	0.657
530.15	0.659
530.35	0.662
530.55	0.659
530.75	0.660
530.94	0.662
531.14	0.663
531.34	0.661
531.54	0.659
531.74	0.662
531.94	0.665
532.13	0.663
532.33	0.665
532.53	0.663
532.73	0.663
532.93	0.661
533.13	0.661
533.33	0.660
533.52	0.661
533.72	0.664
533.92	0.662
534.12	0.660
534.32	0.661
534.52	0.659
534.71	0.661
534.91	0.664
535.11	0.666
535.31	0.665
535.51	0.667
535.71	0.668
535.90	0.666
536.10	0.667
536.30	0.669
536.50	0.670
536.70	0.670
536.89	0.667
537.09	0.667
537.29	0.667
537.49	0.668
537.69	0.666
537.89	0.667
538.08	0.667
538.28	0.664
538.48	0.665
538.68	0.666
538.88	0.668
539.07	0.668
539.27	0.667
539.47	0.666
539.67	0.666
539.87	0.667
540.06	0.664
540.26	0.665
540.46	0.668
540.66	0.665
540.86	0.662
541.05	0.662
541.25	0.664
541.45	0.664
541.65	0.663
541.84	0.665
542.04	0.666
542.24	0.667
542.44	0.666
542.64	0.667
542.83	0.671
543.03	0.671
543.23	0.668
543.43	0.668
543.62	0.670
543.82	0.670
544.02	0.669
544.22	0.668
544.42	0.672
544.61	0.671
544.81	0.668
545.01	0.667
545.21	0.669
545.40	0.670
545.60	0.668
545.80	0.671
546.00	0.672
546.19	0.671
546.39	0.670
546.59	0.667
546.79	0.669
546.98	0.670
547.18	0.670
547.38	0.670
547.58	0.673
547.77	0.674
547.97	0.670
548.17	0.671
548.37	0.671
548.56	0.671
548.76	0.672
548.96	0.673
549.16	0.675
549.35	0.675
549.55	0.672
549.75	0.672
549.95	0.675
550.14	0.676
550.34	0.674
550.54	0.679
550.73	0.683
550.93	0.683
551.13	0.680
551.33	0.679
551.52	0.679
551.72	0.680
551.92	0.678
552.12	0.678
552.31	0.679
552.51	0.679
552.71	0.674
552.90	0.674
553.10	0.675
553.30	0.675
553.50	0.674
553.69	0.676
553.89	0.676
554.09	0.677
554.28	0.674
554.48	0.675
554.68	0.677
554.87	0.677
555.07	0.673
555.27	0.673
555.47	0.675
555.66	0.676
555.86	0.674
556.06	0.676
556.25	0.677
556.45	0.685
556.65	0.683
556.84	0.687
557.04	0.690
557.24	0.692
557.43	0.691
557.63	0.694
557.83	0.696
558.02	0.696
558.22	0.700
558.42	0.700
558.61	0.693
558.81	0.694
559.01	0.691
559.21	0.691
559.40	0.692
559.60	0.692
559.80	0.688
559.99	0.689
560.19	0.692
560.39	0.686
560.58	0.684
560.78	0.684
560.97	0.687
561.17	0.686
561.37	0.684
561.56	0.684
561.76	0.686
561.96	0.685
562.15	0.683
562.35	0.685
562.55	0.686
562.74	0.685
562.94	0.683
563.14	0.682
563.33	0.682
563.53	0.682
563.73	0.681
563.92	0.682
564.12	0.685
564.31	0.687
564.51	0.685
564.71	0.687
564.90	0.690
565.10	0.691
565.30	0.694
565.49	0.695
565.69	0.696
565.89	0.697
566.08	0.694
566.28	0.695
566.47	0.697
566.67	0.695
566.87	0.692
567.06	0.694
567.26	0.701
567.46	0.696
567.65	0.696
567.85	0.698
568.04	0.701
568.24	0.700
568.44	0.696
568.63	0.695
568.83	0.696
569.02	0.695
569.22	0.691
569.42	0.687
569.61	0.689
569.81	0.687
570.00	0.685
570.20	0.686
570.40	0.688
570.59	0.688
570.79	0.686
570.98	0.684
571.18	0.685
571.38	0.684
571.57	0.682
571.77	0.680
571.96	0.684
572.16	0.681
572.35	0.676
572.55	0.677
572.75	0.675
572.94	0.675
573.14	0.674
573.33	0.674
573.53	0.674
573.73	0.673
573.92	0.671
574.12	0.669
574.31	0.672
574.51	0.672
574.70	0.670
574.90	0.671
575.09	0.673
575.29	0.673
575.49	0.671
575.68	0.672
575.88	0.673
576.07	0.675
576.27	0.672
576.46	0.670
576.66	0.670
576.86	0.669
577.05	0.667
577.25	0.665
577.44	0.666
577.64	0.666
577.83	0.664
578.03	0.666
578.22	0.665
578.42	0.665
578.61	0.663
578.81	0.664
579.00	0.664
579.20	0.664
579.40	0.663
579.59	0.661
579.79	0.661
579.98	0.661
580.18	0.660
580.37	0.660
580.57	0.662
580.76	0.667
580.96	0.666
581.15	0.666
581.35	0.668
581.54	0.668
581.74	0.667
581.93	0.669
582.13	0.670
582.32	0.667
582.52	0.665
582.71	0.664
582.91	0.660
583.10	0.660
583.30	0.659
583.49	0.658
583.69	0.661
583.88	0.663
584.08	0.662
584.27	0.664
584.47	0.667
584.66	0.668
584.86	0.668
585.05	0.670
585.25	0.673
585.44	0.673
585.64	0.671
585.83	0.668
586.03	0.668
586.22	0.666
586.42	0.662
586.61	0.664
586.81	0.666
587.00	0.666
587.20	0.663
587.39	0.664
587.59	0.665
587.78	0.667
587.98	0.667
588.17	0.668
588.37	0.671
588.56	0.673
588.76	0.668
588.95	0.668
589.15	0.672
589.34	0.674
589.54	0.672
589.73	0.673
589.92	0.676
590.12	0.676
590.31	0.674
590.51	0.679
590.70	0.681
590.90	0.682
591.09	0.680
591.29	0.679
591.48	0.679
591.68	0.680
591.87	0.678
592.06	0.678
592.26	0.680
592.45	0.679
592.65	0.673
592.84	0.672
593.04	0.675
593.23	0.677
593.43	0.674
593.62	0.674
593.81	0.674
594.01	0.673
594.20	0.671
594.40	0.670
594.59	0.671
594.79	0.672
594.98	0.671
595.17	0.670
595.37	0.671
595.56	0.672
595.76	0.672
595.95	0.674
596.14	0.677
596.34	0.679
596.53	0.677
596.73	0.679
596.92	0.681
597.12	0.684
597.31	0.684
597.50	0.683
597.70	0.686
597.89	0.685
598.09	0.681
598.28	0.682
598.47	0.684
598.67	0.683
598.86	0.679
599.06	0.680
599.25	0.680
599.44	0.678
599.64	0.675
599.83	0.673
600.03	0.675
600.22	0.676
600.41	0.677
600.61	0.674
600.80	0.677
601.00	0.677
601.19	0.673
601.38	0.671
601.58	0.674
601.77	0.676
601.96	0.678
602.16	0.678
602.35	0.687
602.55	0.683
602.74	0.684
602.93	0.686
603.13	0.691
603.32	0.693
603.51	0.692
603.71	0.696
603.90	0.697
604.09	0.698
604.29	0.695
604.48	0.690
604.68	0.692
604.87	0.690
605.06	0.686
605.26	0.683
605.45	0.684
605.64	0.683
605.84	0.678
606.03	0.677
606.22	0.676
606.42	0.675
606.61	0.671
606.80	0.671
607.00	0.672
607.19	0.672
607.38	0.671
607.58	0.672
607.77	0.674
607.96	0.674
608.16	0.672
608.35	0.677
608.54	0.680
608.74	0.684
608.93	0.689
609.12	0.692
609.32	0.695
609.51	0.698
609.70	0.698
609.90	0.700
610.09	0.704
610.28	0.709
610.48	0.703
610.67	0.705
610.86	0.704
611.06	0.699
611.25	0.697
611.44	0.697
611.64	0.697
611.83	0.699
612.02	0.695
612.21	0.694
612.41	0.693
612.60	0.692
612.79	0.688
612.99	0.688
613.18	0.691
613.37	0.688
613.57	0.686
613.76	0.687
613.95	0.684
614.14	0.684
614.34	0.682
614.53	0.682
614.72	0.684
614.92	0.684
615.11	0.681
615.30	0.677
615.49	0.679
615.69	0.682
615.88	0.678
616.07	0.680
616.26	0.683
616.46	0.684
616.65	0.681
616.84	0.680
617.04	0.682
617.23	0.685
617.42	0.686
617.61	0.689
617.81	0.689
618.00	0.692
618.19	0.690
618.38	0.693
618.58	0.696
618.77	0.698
618.96	0.697
619.15	0.699
619.35	0.701
619.54	0.702
619.73	0.698
619.92	0.700
620.12	0.704
620.31	0.704
620.50	0.699
620.69	0.700
620.89	0.702
621.08	0.702
621.27	0.702
621.46	0.700
621.66	0.704
621.85	0.704
622.04	0.700
622.23	0.701
622.43	0.702
622.62	0.701
622.81	0.700
623.00	0.700
623.19	0.703
623.39	0.703
623.58	0.700
623.77	0.699
623.96	0.702
624.16	0.703
624.35	0.698
624.54	0.700
624.73	0.704
624.92	0.702
625.12	0.700
625.31	0.700
625.50	0.703
625.69	0.703
625.88	0.700
626.08	0.698
626.27	0.700
626.46	0.700
626.65	0.698
626.84	0.697
627.04	0.702
627.23	0.702
627.42	0.697
627.61	0.699
627.80	0.703
628.00	0.704
628.19	0.702
628.38	0.706
628.57	0.707
628.76	0.707
628.96	0.704
629.15	0.706
629.34	0.709
629.53	0.710
629.72	0.704
629.91	0.704
630.11	0.707
630.30	0.708
630.49	0.709
630.68	0.710
630.87	0.714
631.06	0.716
631.26	0.711
631.45	0.713
631.64	0.720
631.83	0.722
632.02	0.719
632.21	0.719
632.41	0.727
632.60	0.721
632.79	0.719
632.98	0.719
633.17	0.719
633.36	0.721
633.55	0.717
633.75	0.713
633.94	0.715
634.13	0.716
634.32	0.713
634.51	0.707
634.70	0.709
634.89	0.708
635.09	0.705
635.28	0.706
635.47	0.707
635.66	0.709
635.85	0.706
636.04	0.707
636.23	0.712
636.43	0.713
636.62	0.712
636.81	0.712
637.00	0.715
637.19	0.718
637.38	0.714
637.57	0.714
637.76	0.715
637.95	0.716
638.15	0.713
638.34	0.710
638.53	0.713
638.72	0.715
638.91	0.711
639.10	0.710
639.29	0.710
639.48	0.712
639.67	0.711
639.87	0.710
640.06	0.715
640.25	0.715
640.44	0.715
640.63	0.715
640.82	0.718
641.01	0.717
641.20	0.716
641.39	0.718
641.58	0.718
641.78	0.718
641.97	0.714
642.16	0.728
642.35	0.729
642.54	0.727
642.73	0.721
642.92	0.720
643.11	0.724
643.30	0.724
643.49	0.719
643.68	0.723
643.87	0.724
644.06	0.724
644.25	0.704
644.45	0.706
644.64	0.708
644.83	0.709
645.02	0.706
645.21	0.705
645.40	0.707
645.59	0.707
645.78	0.701
645.97	0.703
646.16	0.703
646.35	0.703
646.54	0.702
646.73	0.703
646.92	0.704
647.11	0.703
647.30	0.700
647.49	0.701
647.68	0.700
647.88	0.699
648.07	0.692
648.26	0.697
648.45	0.698
648.64	0.694
648.83	0.691
649.02	0.694
649.21	0.705
649.40	0.703
649.59	0.699
649.78	0.700
649.97	0.714
650.16	0.712
650.35	0.706
650.54	0.709
650.73	0.717
650.92	0.714
651.11	0.707
651.30	0.704
651.49	0.709
651.68	0.710
651.87	0.708
652.06	0.697
652.25	0.700
652.44	0.703
652.63	0.702
652.82	0.703
653.01	0.704
653.20	0.702
653.39	0.690
653.58	0.688
653.77	0.686
653.96	0.682
654.15	0.675
654.34	0.673
654.53	0.668
654.72	0.662
654.91	0.652
655.10	0.648
655.29	0.645
655.48	0.643
655.67	0.638
655.86	0.635
656.05	0.634
656.24	0.633
656.43	0.628
656.62	0.626
656.81	0.626
657.00	0.624
657.19	0.620
657.38	0.620
657.57	0.619
657.76	0.621
657.95	0.618
658.14	0.621
658.33	0.623
658.51	0.628
658.70	0.628
658.89	0.629
659.08	0.638
659.27	0.646
659.46	0.646
659.65	0.654
659.84	0.657
660.03	0.661
660.22	0.662
660.41	0.666
660.60	0.665
660.79	0.667
660.98	0.673
661.17	0.672
661.36	0.671
661.55	0.672
661.74	0.670
661.92	0.673
662.11	0.675
662.30	0.675
662.49	0.668
662.68	0.668
662.87	0.671
663.06	0.666
663.25	0.667
663.44	0.668
663.63	0.669
663.82	0.668
664.01	0.663
664.20	0.662
664.38	0.663
664.57	0.663
664.76	0.663
664.95	0.663
665.14	0.668
665.33	0.663
665.52	0.671
665.71	0.674
665.90	0.673
666.09	0.674
666.28	0.672
666.46	0.671
666.65	0.671
666.84	0.668
667.03	0.663
667.22	0.660
667.41	0.662
667.60	0.651
667.79	0.644
667.98	0.646
668.16	0.647
668.35	0.646
668.54	0.643
668.73	0.643
668.92	0.645
669.11	0.644
669.30	0.639
669.49	0.636
669.67	0.638
669.86	0.641
670.05	0.639
670.24	0.636
670.43	0.634
670.62	0.634
670.81	0.629
671.00	0.630
671.18	0.630
671.37	0.629
671.56	0.627
671.75	0.626
671.94	0.622
672.13	0.621
672.32	0.616
672.50	0.616
672.69	0.615
672.88	0.615
673.07	0.611
673.26	0.613
673.45	0.614
673.63	0.614
673.82	0.610
674.01	0.612
674.20	0.611
674.39	0.610
674.58	0.609
674.76	0.609
674.95	0.608
675.14	0.608
675.33	0.603
675.52	0.603
675.71	0.602
675.89	0.602
676.08	0.598
676.27	0.599
676.46	0.599
676.65	0.600
676.84	0.600
677.02	0.601
677.21	0.603
677.40	0.603
677.59	0.600
677.78	0.601
677.96	0.604
678.15	0.603
678.34	0.601
678.53	0.601
678.72	0.600
678.90	0.596
679.09	0.592
679.28	0.589
679.47	0.589
679.66	0.588
679.84	0.584
680.03	0.581
680.22	0.580
680.41	0.582
680.60	0.579
680.78	0.578
680.97	0.581
681.16	0.580
681.35	0.579
681.53	0.578
681.72	0.580
681.91	0.583
682.10	0.581
682.29	0.584
682.47	0.580
682.66	0.580
682.85	0.579
683.04	0.577
683.22	0.578
683.41	0.579
683.60	0.577
683.79	0.578
683.97	0.577
684.16	0.575
684.35	0.571
684.54	0.572
684.72	0.572
684.91	0.572
685.10	0.570
685.29	0.572
685.47	0.569
685.66	0.569
685.85	0.565
686.04	0.565
686.22	0.567
686.41	0.570
686.60	0.568
686.79	0.571
686.97	0.572
687.16	0.573
687.35	0.570
687.54	0.574
687.72	0.577
687.91	0.576
688.10	0.578
688.29	0.578
688.47	0.576
688.66	0.576
688.85	0.573
689.03	0.570
689.22	0.575
689.41	0.576
689.60	0.571
689.78	0.569
689.97	0.569
690.16	0.567
690.34	0.563
690.53	0.562
690.72	0.562
690.91	0.560
691.09	0.558
691.28	0.552
691.47	0.550
691.65	0.549
691.84	0.546
692.03	0.545
692.21	0.543
692.40	0.543
692.59	0.540
692.77	0.539
692.96	0.541
693.15	0.541
693.34	0.539
693.52	0.539
693.71	0.540
693.90	0.541
694.08	0.541
694.27	0.542
694.46	0.552
694.64	0.553
694.83	0.553
695.02	0.552
695.20	0.552
695.39	0.552
695.58	0.551
695.76	0.552
695.95	0.551
696.14	0.550
696.32	0.548
696.51	0.538
696.70	0.538
696.88	0.539
697.07	0.538
697.26	0.539
697.44	0.540
697.63	0.539
697.81	0.536
698.00	0.536
698.19	0.536
698.37	0.535
698.56	0.535
698.75	0.534
698.93	0.534
699.12	0.533
699.31	0.532
699.49	0.531
699.68	0.533
699.87	0.535
700.05	0.536
700.24	0.534
700.42	0.536
700.61	0.535
700.80	0.533
700.98	0.534
701.17	0.535
701.36	0.534
701.54	0.533
701.73	0.534
701.91	0.532
702.10	0.532
702.29	0.530
702.47	0.530
702.66	0.531
702.84	0.532
703.03	0.529
703.22	0.531
703.40	0.531
703.59	0.532
703.77	0.532
703.96	0.532
704.15	0.532
704.33	0.532
704.52	0.531
704.70	0.531
704.89	0.531
705.08	0.531
705.26	0.527
705.45	0.527
705.63	0.526
705.82	0.523
706.00	0.521
706.19	0.521
706.38	0.521
706.56	0.521
706.75	0.519
706.93	0.518
707.12	0.519
707.30	0.519
707.49	0.517
707.68	0.515
707.86	0.515
708.05	0.515
708.23	0.512
708.42	0.512
708.60	0.514
708.79	0.514
708.98	0.512
709.16	0.512
709.35	0.513
709.53	0.517
709.72	0.516
709.90	0.518
710.09	0.520
710.27	0.522
710.46	0.526
710.64	0.525
710.83	0.527
711.02	0.529
711.20	0.528
711.39	0.526
711.57	0.524
711.76	0.525
711.94	0.523
712.13	0.524
712.31	0.524
712.50	0.519
712.68	0.516
712.87	0.516
713.05	0.517
713.24	0.517
713.42	0.516
713.61	0.517
713.79	0.518
713.98	0.518
714.16	0.519
714.35	0.519
714.54	0.520
714.72	0.520
714.91	0.518
715.09	0.524
715.28	0.528
715.46	0.527
715.65	0.525
715.83	0.524
716.02	0.526
716.20	0.522
716.39	0.521
716.57	0.522
716.76	0.525
716.94	0.525
717.12	0.517
717.31	0.518
717.49	0.521
717.68	0.523
717.86	0.522
718.05	0.525
718.23	0.527
718.42	0.530
718.60	0.531
718.79	0.538
718.97	0.540
719.16	0.540
719.34	0.537
719.53	0.537
719.71	0.536
719.90	0.538
720.08	0.535
720.27	0.535
720.45	0.534
720.63	0.533
720.82	0.528
721.00	0.530
721.19	0.534
721.37	0.534
721.56	0.534
721.74	0.536
721.93	0.545
722.11	0.553
722.30	0.552
722.48	0.556
722.66	0.558
722.85	0.558
723.03	0.558
723.22	0.557
723.40	0.560
723.59	0.561
723.77	0.565
723.95	0.558
724.14	0.559
724.32	0.561
724.51	0.561
724.69	0.562
724.88	0.562
725.06	0.559
725.24	0.560
725.43	0.561
725.61	0.563
725.80	0.557
725.98	0.555
726.16	0.551
726.35	0.556
726.53	0.555
726.72	0.554
726.90	0.564
727.09	0.565
727.27	0.570
727.45	0.567
727.64	0.576
727.82	0.585
728.01	0.590
728.19	0.589
728.37	0.592
728.56	0.596
728.74	0.602
728.92	0.590
729.11	0.593
729.29	0.591
729.48	0.593
729.66	0.582
729.84	0.580
730.03	0.583
730.21	0.585
730.40	0.576
730.58	0.578
730.76	0.578
730.95	0.581
731.13	0.581
731.31	0.594
731.50	0.603
731.68	0.607
731.86	0.604
732.05	0.618
732.23	0.621
732.42	0.624
732.60	0.628
732.78	0.633
732.97	0.650
733.15	0.656
733.33	0.646
733.52	0.654
733.70	0.665
733.88	0.673
734.07	0.658
734.25	0.683
734.43	0.692
734.62	0.693
734.80	0.688
734.98	0.677
735.17	0.682
735.35	0.687
735.53	0.674
735.72	0.677
735.90	0.697
736.08	0.716
736.27	0.694
736.45	0.700
736.63	0.712
736.82	0.722
737.00	0.723
737.18	0.735
737.37	0.766
737.55	0.789
737.73	0.784
737.92	0.784
738.10	0.780
738.28	0.800
738.46	0.791
738.65	0.801
738.83	0.824
739.01	0.875
739.20	0.862
739.38	0.847
739.56	0.836
739.75	0.838
739.93	0.808
740.11	0.834
740.29	0.836
740.48	0.842
740.66	0.821
740.84	0.812
741.03	0.778
741.21	0.790
741.39	0.770
741.57	0.786
741.76	0.802
741.94	0.810
742.12	0.776
742.31	0.778
742.49	0.796
742.67	0.815
742.85	0.828
743.04	0.833
743.22	0.842
743.40	0.894
743.58	0.874
743.77	0.888
743.95	0.917
744.13	0.958
744.31	0.944
744.50	0.936
744.68	0.938
744.86	0.916
745.04	0.929
745.23	0.982
745.41	0.962
745.59	0.967
745.77	0.932
745.96	0.925
746.14	0.937
746.32	0.935
746.50	0.928
746.69	0.911
746.87	0.920
747.05	0.906
747.23	0.837
747.42	0.822
747.60	0.845
747.78	0.854
747.96	0.877
748.14	0.840
748.33	0.863
748.51	0.860
748.69	0.852
748.87	0.882
749.06	0.876
749.24	0.879
749.42	0.869
749.60	0.853
749.78	0.857
749.97	0.814
750.15	0.806
750.33	0.806
750.51	0.825
750.69	0.833
750.88	0.832
751.06	0.844
751.24	0.867
751.42	0.859
751.60	0.852
751.79	0.919
751.97	0.956
752.15	0.961
752.33	0.935
752.51	0.997
752.69	1.010
752.88	0.981
753.06	1.025
753.24	1.007
753.42	1.040
753.60	1.197
753.78	1.060
753.97	1.086
754.15	1.099
754.33	1.127
754.51	1.008
754.69	0.994
754.87	1.018
755.06	0.948
755.24	0.947
755.42	0.952
755.60	0.859
755.78	0.871
755.96	0.819
756.15	0.820
756.33	0.826
756.51	0.846
756.69	0.837
756.87	0.810
757.05	0.831
757.23	0.814
757.42	0.785
757.60	0.784
757.78	0.774
757.96	0.776
758.14	0.762
758.32	0.744
758.50	0.756
758.69	0.752
758.87	0.743
759.05	0.744
759.23	0.753
759.41	0.751
759.59	0.744
759.77	0.763
759.95	0.787
760.13	0.831
760.32	0.832
760.50	0.826
760.68	0.846
760.86	0.847
761.04	0.825
761.22	0.828
761.40	0.873
761.58	0.878
761.76	0.852
761.95	0.833
762.13	0.789
762.31	0.787
762.49	0.758
762.67	0.777
762.85	0.789
763.03	0.784
763.21	0.770
763.39	0.753
763.57	0.756
763.75	0.751
763.94	0.737
764.12	0.741
764.30	0.764
764.48	0.769
764.66	0.735
764.84	0.733
765.02	0.767
765.20	0.773
765.38	0.755
765.56	0.756
765.74	0.790
765.92	0.790
766.10	0.797
766.28	0.792
766.46	0.816
766.65	0.815
766.83	0.804
767.01	0.788
767.19	0.792
767.37	0.792
767.55	0.785
767.73	0.768
767.91	0.770
768.09	0.757
768.27	0.745
768.45	0.737
768.63	0.743
768.81	0.747
768.99	0.722
769.17	0.745
769.35	0.757
769.53	0.754
769.71	0.736
769.89	0.746
770.07	0.752
770.25	0.737
770.43	0.718
770.61	0.741
770.79	0.745
770.97	0.753
771.15	0.725
771.33	0.726
771.51	0.729
771.69	0.738
771.87	0.748
772.05	0.753
772.24	0.760
772.42	0.767
772.60	0.743
772.78	0.797
772.96	0.825
773.14	0.821
773.32	0.805
773.49	0.812
773.67	0.813
773.85	0.789
774.03	0.779
774.21	0.810
774.39	0.816
774.57	0.841
774.75	0.774
774.93	0.767
775.11	0.785
775.29	0.789
775.47	0.791
775.65	0.797
775.83	0.813
776.01	0.832
776.19	0.789
776.37	0.793
776.55	0.790
776.73	0.789
776.91	0.786
777.09	0.769
777.27	0.767
777.45	0.756
777.63	0.734
777.81	0.730
777.99	0.716
778.17	0.716
778.35	0.696
778.53	0.683
778.71	0.688
778.89	0.676
779.07	0.666
779.24	0.671
779.42	0.672
779.60	0.691
779.78	0.688
779.96	0.692
780.14	0.700
780.32	0.720
780.50	0.706
780.68	0.703
780.86	0.696
781.04	0.714
781.22	0.722
781.40	0.730
781.58	0.720
781.75	0.715
781.93	0.701
782.11	0.701
782.29	0.685
782.47	0.685
782.65	0.675
782.83	0.702
783.01	0.696
783.19	0.690
783.37	0.676
783.55	0.679
783.72	0.694
783.90	0.703
784.08	0.697
784.26	0.709
784.44	0.728
784.62	0.730
784.80	0.700
784.98	0.704
785.16	0.708
785.33	0.721
785.51	0.708
785.69	0.695
785.87	0.696
786.05	0.708
786.23	0.704
786.41	0.700
786.59	0.706
786.77	0.706
786.94	0.694
787.12	0.698
787.30	0.701
787.48	0.698
787.66	0.688
787.84	0.690
788.02	0.680
788.19	0.680
788.37	0.669
788.55	0.671
788.73	0.671
788.91	0.667
789.09	0.649
789.27	0.639
789.44	0.651
789.62	0.658
789.80	0.665
789.98	0.689
790.16	0.678
790.34	0.673
790.51	0.663
790.69	0.681
790.87	0.687
791.05	0.686
791.23	0.679
791.41	0.678
791.58	0.683
791.76	0.662
791.94	0.634
792.12	0.639
792.30	0.641
792.48	0.637
792.65	0.630
792.83	0.637
793.01	0.642
793.19	0.640
793.37	0.625
793.54	0.622
793.72	0.632
793.90	0.630
794.08	0.621
794.26	0.622
794.43	0.632
794.61	0.618
794.79	0.606
794.97	0.606
795.15	0.611
795.32	0.615
795.50	0.606
795.68	0.601
795.86	0.606
796.04	0.608
796.21	0.602
796.39	0.600
796.57	0.611
796.75	0.619
796.92	0.619
797.10	0.624
797.28	0.626
797.46	0.628
797.64	0.630
797.81	0.635
797.99	0.640
798.17	0.643
798.35	0.636
798.52	0.641
798.70	0.635
798.88	0.644
799.06	0.644
799.23	0.648
799.41	0.655
799.59	0.650
799.77	0.641
799.94	0.648
800.12	0.656
800.30	0.674
800.48	0.670
800.65	0.673
800.83	0.662
801.01	0.655
801.19	0.655
801.36	0.652
801.54	0.652
801.72	0.661
801.90	0.646
802.07	0.644
802.25	0.631
802.43	0.617
802.60	0.612
802.78	0.619
802.96	0.622
803.14	0.616
803.31	0.616
803.49	0.619
803.67	0.614
803.84	0.621
804.02	0.613
804.20	0.615
804.38	0.621
804.55	0.621
804.73	0.610
804.91	0.611
805.08	0.623
805.26	0.617
805.44	0.678
805.61	0.681
805.79	0.679
805.97	0.678
806.15	0.671
806.32	0.666
806.50	0.671
806.68	0.668
806.85	0.661
807.03	0.651
807.21	0.666
807.38	0.602
807.56	0.591
807.74	0.602
807.91	0.606
808.09	0.609
808.27	0.626
808.44	0.652
808.62	0.662
808.80	0.663
808.97	0.658
809.15	0.655
809.33	0.671
809.50	0.681
809.68	0.667
809.86	0.676
810.03	0.703
810.21	0.686
810.39	0.669
810.56	0.673
810.74	0.695
810.91	0.763
811.09	0.751
811.27	0.770
811.44	0.773
811.62	0.774
811.80	0.758
811.97	0.731
812.15	0.729
812.33	0.725
812.50	0.712
812.68	0.700
812.85	0.648
813.03	0.651
813.21	0.623
813.38	0.619
813.56	0.621
813.74	0.632
813.91	0.637
814.09	0.665
814.26	0.658
814.44	0.661
814.62	0.652
814.79	0.655
814.97	0.659
815.14	0.661
815.32	0.664
815.50	0.680
815.67	0.681
815.85	0.671
816.02	0.660
816.20	0.667
816.38	0.681
816.55	0.686
816.73	0.687
816.90	0.697
817.08	0.722
817.26	0.729
817.43	0.711
817.61	0.732
817.78	0.752
817.96	0.734
818.13	0.723
818.31	0.723
818.49	0.735
818.66	0.724
818.84	0.713
819.01	0.695
819.19	0.699
819.36	0.700
819.54	0.673
819.71	0.713
819.89	0.726
820.07	0.738
820.24	0.735
820.42	0.735
820.59	0.755
820.77	0.775
820.94	0.768
821.12	0.786
821.29	0.800
821.47	0.800
821.64	0.742
821.82	0.753
822.00	0.749
822.17	0.745
822.35	0.738
822.52	0.738
822.70	0.727
822.87	0.736
823.05	0.716
823.22	0.729
823.40	0.756
823.57	0.772
823.75	0.756
823.92	0.782
824.10	0.798
824.27	0.838
824.45	0.833
824.62	0.890
824.80	0.903
824.97	0.912
825.15	0.900
825.32	0.915
825.50	0.916
825.67	0.925
825.85	0.899
826.02	0.913
826.20	0.924
826.37	1.030
826.55	0.961
826.72	1.132
826.90	1.206
827.07	1.254
827.25	1.188
827.42	1.336
827.60	1.464
827.77	1.626
827.95	1.626
828.12	1.746
828.30	1.407
828.47	1.531
828.65	1.180
828.82	1.225
829.00	1.295
829.17	1.428
829.34	1.434
829.52	1.515
829.69	-0.000
829.87	-0.000
830.04	-0.000
830.22	-0.000
830.39	-0.000
830.57	-0.000
830.74	-0.000
830.92	-0.000
831.09	-0.000
831.26	-0.000
831.44	-0.000
831.61	-0.000
831.79	-0.000
831.96	-0.000
832.14	-0.000
832.31	-0.000
832.49	-0.000
832.66	-0.000
832.83	-0.000
833.01	-0.000
833.18	-0.000
833.36	-0.000
833.53	-0.000
833.70	-0.000
833.88	-0.000
834.05	-0.000
834.23	-0.000
834.40	-0.000
834.58	-0.000
834.75	-0.000
834.92	-0.000
835.10	-0.000
835.27	-0.000
835.45	-0.000
835.62	-0.000
835.79	-0.000
835.97	-0.000
836.14	-0.000
836.32	-0.000
836.49	-0.000
836.66	-0.000
836.84	-0.000
837.01	-0.000
837.18	-0.000
837.36	-0.000
837.53	-0.000
837.71	-0.000
837.88	-0.000
838.05	-0.000
838.23	-0.000
838.40	-0.000
838.58	-0.000
838.75	-0.000
838.92	-0.000
839.10	-0.000
839.27	-0.000
839.44	-0.000
839.62	-0.000
839.79	-0.000
839.96	-0.000
840.14	-0.000
840.31	-0.000
840.48	-0.000
840.66	-0.000
840.83	-0.000
841.01	-0.000
841.18	-0.000
841.35	-0.000
841.53	-0.000
841.70	-0.000
841.87	-0.000
842.05	-0.000
842.22	-0.000
842.39	-0.000
842.57	-0.000
842.74	-0.000
842.91	-0.000
843.09	-0.000
843.26	-0.000
843.43	-0.000
843.60	-0.000
843.78	-0.000
843.95	-0.000
844.12	-0.000
844.30	-0.000
844.47	-0.000
844.64	-0.000
844.82	-0.000
844.99	-0.000
845.16	-0.000
845.34	-0.000
845.51	-0.000
845.68	-0.000
845.85	-0.000
846.03	-0.000
846.20	-0.000
846.37	-0.000
846.55	-0.000
846.72	-0.000
846.89	-0.000
847.06	-0.000
847.24	-0.000
847.41	-0.000
847.58	-0.000
847.76	-0.000
847.93	-0.000
848.10	-0.000
848.27	-0.000
848.45	-0.000
848.62	-0.000
848.79	-0.000
848.97	-0.000
849.14	-0.000
849.31	-0.000
849.48	-0.000
849.66	-0.000
849.83	-0.000
850.00	-0.000
850.17	-0.000
850.35	-0.000
850.52	-0.000
850.69	-0.000
850.86	-0.000
851.04	-0.000
851.21	-0.000
851.38	-0.000
851.55	-0.000
851.72	-0.000
851.90	-0.000
852.07	-0.000
852.24	-0.000
852.41	-0.000
852.59	-0.000
852.76	-0.000
852.93	-0.000
853.10	-0.000
853.28	-0.000
853.45	-0.000
853.62	-0.000
853.79	-0.000
853.96	-0.000
854.14	-0.000
854.31	-0.000
854.48	-0.000
854.65	-0.000
854.82	-0.000
855.00	-0.000
855.17	-0.000
855.34	-0.000
855.51	-0.000
855.68	-0.000
855.86	-0.000
856.03	-0.000
856.20	-0.000
856.37	-0.000
856.54	-0.000
856.72	-0.000
856.89	-0.000
857.06	-0.000
857.23	-0.000
857.40	-0.000
857.57	-0.000
857.75	-0.000
857.92	-0.000
858.09	-0.000
858.26	-0.000
858.43	-0.000
858.60	-0.000
858.78	-0.000
858.95	-0.000
859.12	-0.000
859.29	-0.000
859.46	-0.000
859.63	-0.000
859.81	-0.000
859.98	-0.000
860.15	-0.000
860.32	-0.000
860.49	-0.000
860.66	-0.000
860.83	-0.000
861.01	-0.000
861.18	-0.000
861.35	-0.000
861.52	-0.000
861.69	-0.000
861.86	-0.000
862.03	-0.000
862.21	-0.000
862.38	-0.000
862.55	-0.000
862.72	-0.000
862.89	-0.000
863.06	-0.000
863.23	-0.000
863.40	-0.000
863.58	-0.000
863.75	-0.000
863.92	-0.000
864.09	-0.000
864.26	-0.000
864.43	-0.000
864.60	-0.000
864.77	-0.000
864.94	-0.000
865.11	-0.000
865.29	-0.000
865.46	-0.000
865.63	-0.000
865.80	-0.000
865.97	-0.000
866.14	-0.000
866.31	-0.000
866.48	-0.000
866.65	-0.000
866.82	-0.000
866.99	-0.000
867.16	-0.000
867.34	-0.000
867.51	-0.000
867.68	-0.000
867.85	-0.000
868.02	-0.000
868.19	-0.000
868.36	-0.000
868.53	-0.000
868.70	-0.000
868.87	-0.000
869.04	-0.000
869.21	-0.000
869.38	-0.000
869.55	-0.000
869.72	-0.000
869.89	-0.000
870.06	-0.000
870.24	-0.000
870.41	-0.000
870.58	-0.000
870.75	-0.000
870.92	-0.000
871.09	-0.000
871.26	-0.000
871.43	-0.000
871.60	-0.000
871.77	-0.000
871.94	-0.000
872.11	-0.000
872.28	-0.000
872.45	-0.000
872.62	-0.000
872.79	-0.000
872.96	-0.000
873.13	-0.000
873.30	-0.000
873.47	-0.000
873.64	-0.000
873.81	-0.000
873.98	-0.000
874.15	-0.000
874.32	-0.000
874.49	-0.000
874.66	-0.000
874.83	-0.000
875.00	-0.000
875.17	-0.000
875.34	-0.000
875.51	-0.000
875.68	-0.000
875.85	-0.000
876.02	-0.000
876.19	-0.000
876.36	-0.000
876.53	-0.000
876.70	-0.000
876.87	-0.000
877.04	-0.000
877.21	-0.000
877.38	-0.000
877.55	-0.000
877.72	-0.000
877.89	-0.000
878.06	-0.000
878.23	-0.000
878.39	-0.000
878.56	-0.000
878.73	-0.000
878.90	-0.000
879.07	-0.000
879.24	-0.000
879.41	-0.000
879.58	-0.000
879.75	-0.000
879.92	-0.000
880.09	-0.000
880.26	-0.000
880.43	-0.000
880.60	-0.000
880.77	-0.000
880.94	-0.000
881.11	-0.000
881.27	-0.000
881.44	-0.000
881.61	-0.000
881.78	-0.000
881.95	-0.000
882.12	-0.000
882.29	-0.000
882.46	-0.000
882.63	-0.000
882.80	-0.000
882.97	-0.000
883.14	-0.000
883.30	-0.000
883.47	-0.000
883.64	-0.000
883.81	-0.000
883.98	-0.000
884.15	-0.000
884.32	-0.000
884.49	-0.000
884.66	-0.000
884.82	-0.000
884.99	-0.000
885.16	-0.000
885.33	-0.000
885.50	-0.000
885.67	-0.000
885.84	-0.000
886.01	-0.000
886.17	-0.000
886.34	-0.000
886.51	-0.000
886.68	-0.000
886.85	-0.000
887.02	-0.000
887.19	-0.000
887.36	-0.000
887.52	-0.000
887.69	-0.000
887.86	-0.000
888.03	-0.000
888.20	-0.000
888.37	-0.000
888.54	-0.000
888.70	-0.000
888.87	-0.000
889.04	-0.000
889.21	-0.000
889.38	-0.000
889.55	-0.000
889.71	-0.000
889.88	-0.000
890.05	-0.000
890.22	-0.000
890.39	-0.000
>>>>>End Processed Spectral Data<<<<<
