SpectraSuite Data File
++++++++++++++++++++++++++++++++++++
Date: Fri Jun 19 13:10:51 CEST 2015
User: introlabs
Dark Spectrum Present: Yes
Reference Spectrum Present: Yes
Number of Sampled Component Spectra: 1
Spectrometers: USB4H08886
Integration Time (usec): 745692 (USB4H08886)
Spectra Averaged: 5 (USB4H08886)
Boxcar Smoothing: 5 (USB4H08886)
Correct for Electrical Dark: Yes (USB4H08886)
Strobe/Lamp Enabled: No (USB4H08886)
Correct for Detector Non-linearity: Yes (USB4H08886)
Correct for Stray Light: Yes (USB4H08886)
Number of Pixels in Processed Spectrum: 3648
>>>>>Begin Processed Spectral Data<<<<<
178.14	-0.000
178.36	-0.000
178.57	-0.000
178.79	-0.000
179.01	-0.000
179.22	-0.000
179.44	-0.000
179.65	-0.000
179.87	-0.000
180.08	-0.000
180.30	-0.000
180.52	-0.000
180.73	-0.000
180.95	-0.000
181.16	-0.000
181.38	-0.000
181.59	-0.000
181.81	-0.000
182.03	-0.000
182.24	-0.000
182.46	-0.000
182.67	-0.000
182.89	-0.000
183.10	-0.000
183.32	-0.000
183.54	-0.000
183.75	-0.000
183.97	-0.000
184.18	-0.000
184.40	-0.000
184.61	-0.000
184.83	-0.000
185.04	-0.000
185.26	-0.000
185.48	-0.000
185.69	-0.000
185.91	-0.000
186.12	-0.000
186.34	-0.000
186.55	-0.000
186.77	-0.000
186.98	-0.000
187.20	-0.000
187.42	-0.000
187.63	-0.000
187.85	-0.000
188.06	-0.000
188.28	-0.000
188.49	-0.000
188.71	-0.000
188.92	-0.000
189.14	-0.000
189.36	-0.000
189.57	-0.000
189.79	-0.000
190.00	-0.000
190.22	-0.000
190.43	-0.000
190.65	-0.000
190.86	-0.000
191.08	-0.000
191.29	-0.000
191.51	-0.000
191.72	-0.000
191.94	-0.000
192.16	-0.000
192.37	-0.000
192.59	-0.000
192.80	-0.000
193.02	-0.000
193.23	-0.000
193.45	-0.000
193.66	-0.000
193.88	-0.000
194.09	-0.000
194.31	-0.000
194.52	-0.000
194.74	-0.000
194.95	-0.000
195.17	-0.000
195.38	-0.000
195.60	-0.000
195.81	-0.000
196.03	-0.000
196.25	-0.000
196.46	-0.000
196.68	-0.000
196.89	-0.000
197.11	-0.000
197.32	-0.000
197.54	-0.000
197.75	-0.000
197.97	-0.000
198.18	-0.000
198.40	-0.000
198.61	-0.000
198.83	-0.000
199.04	-0.000
199.26	-0.000
199.47	-0.000
199.69	-0.000
199.90	-0.000
200.12	-0.000
200.33	-0.000
200.55	-0.000
200.76	-0.000
200.98	-0.000
201.19	-0.000
201.41	-0.000
201.62	-0.000
201.84	-0.000
202.05	-0.000
202.27	-0.000
202.48	-0.000
202.70	-0.000
202.91	-0.000
203.13	-0.000
203.34	-0.000
203.56	-0.000
203.77	-0.000
203.99	-0.000
204.20	-0.000
204.42	-0.000
204.63	-0.000
204.85	-0.000
205.06	-0.000
205.28	-0.000
205.49	-0.000
205.71	-0.000
205.92	-0.000
206.14	-0.000
206.35	-0.000
206.56	-0.000
206.78	-0.000
206.99	-0.000
207.21	-0.000
207.42	-0.000
207.64	-0.000
207.85	-0.000
208.07	-0.000
208.28	-0.000
208.50	-0.000
208.71	-0.000
208.93	-0.000
209.14	-0.000
209.36	-0.000
209.57	-0.000
209.79	-0.000
210.00	-0.000
210.22	-0.000
210.43	-0.000
210.64	-0.000
210.86	-0.000
211.07	-0.000
211.29	-0.000
211.50	-0.000
211.72	-0.000
211.93	-0.000
212.15	-0.000
212.36	-0.000
212.58	-0.000
212.79	-0.000
213.01	-0.000
213.22	-0.000
213.43	-0.000
213.65	-0.000
213.86	-0.000
214.08	-0.000
214.29	-0.000
214.51	-0.000
214.72	-0.000
214.94	-0.000
215.15	-0.000
215.36	-0.000
215.58	-0.000
215.79	-0.000
216.01	-0.000
216.22	-0.000
216.44	-0.000
216.65	-0.000
216.87	-0.000
217.08	-0.000
217.29	-0.000
217.51	-0.000
217.72	-0.000
217.94	-0.000
218.15	-0.000
218.37	-0.000
218.58	-0.000
218.80	-0.000
219.01	-0.000
219.22	-0.000
219.44	-0.000
219.65	-0.000
219.87	-0.000
220.08	-0.000
220.30	-0.000
220.51	-0.000
220.72	-0.000
220.94	-0.000
221.15	-0.000
221.37	-0.000
221.58	-0.000
221.79	-0.000
222.01	-0.000
222.22	-0.000
222.44	-0.000
222.65	-0.000
222.87	-0.000
223.08	-0.000
223.29	-0.000
223.51	-0.000
223.72	-0.000
223.94	-0.000
224.15	-0.000
224.36	-0.000
224.58	-0.000
224.79	-0.000
225.01	-0.000
225.22	-0.000
225.44	-0.000
225.65	-0.000
225.86	-0.000
226.08	-0.000
226.29	-0.000
226.51	-0.000
226.72	-0.000
226.93	-0.000
227.15	-0.000
227.36	-0.000
227.58	-0.000
227.79	-0.000
228.00	-0.000
228.22	-0.000
228.43	-0.000
228.65	-0.000
228.86	-0.000
229.07	-0.000
229.29	-0.000
229.50	-0.000
229.72	-0.000
229.93	-0.000
230.14	-0.000
230.36	-0.000
230.57	-0.000
230.78	-0.000
231.00	-0.000
231.21	-0.000
231.43	-0.000
231.64	-0.000
231.85	-0.000
232.07	-0.000
232.28	-0.000
232.50	-0.000
232.71	-0.000
232.92	-0.000
233.14	-0.000
233.35	-0.000
233.56	-0.000
233.78	-0.000
233.99	-0.000
234.21	-0.000
234.42	-0.000
234.63	-0.000
234.85	-0.000
235.06	-0.000
235.27	-0.000
235.49	-0.000
235.70	-0.000
235.91	-0.000
236.13	-0.000
236.34	-0.000
236.56	-0.000
236.77	-0.000
236.98	-0.000
237.20	-0.000
237.41	-0.000
237.62	-0.000
237.84	-0.000
238.05	-0.000
238.26	-0.000
238.48	-0.000
238.69	-0.000
238.91	-0.000
239.12	-0.000
239.33	-0.000
239.55	-0.000
239.76	-0.000
239.97	-0.000
240.19	-0.000
240.40	-0.000
240.61	-0.000
240.83	-0.000
241.04	-0.000
241.25	-0.000
241.47	-0.000
241.68	-0.000
241.89	-0.000
242.11	-0.000
242.32	-0.000
242.53	-0.000
242.75	-0.000
242.96	-0.000
243.17	-0.000
243.39	-0.000
243.60	-0.000
243.81	-0.000
244.03	-0.000
244.24	-0.000
244.45	-0.000
244.67	-0.000
244.88	-0.000
245.09	-0.000
245.31	-0.000
245.52	-0.000
245.73	-0.000
245.95	-0.000
246.16	-0.000
246.37	-0.000
246.59	-0.000
246.80	-0.000
247.01	-0.000
247.23	-0.000
247.44	-0.000
247.65	-0.000
247.87	-0.000
248.08	-0.000
248.29	-0.000
248.51	-0.000
248.72	-0.000
248.93	-0.000
249.15	-0.000
249.36	-0.000
249.57	-0.000
249.78	-0.000
250.00	-0.000
250.21	-0.000
250.42	-0.000
250.64	-0.000
250.85	-0.000
251.06	-0.000
251.28	-0.000
251.49	-0.000
251.70	-0.000
251.92	-0.000
252.13	-0.000
252.34	-0.000
252.55	-0.000
252.77	-0.000
252.98	-0.000
253.19	-0.000
253.41	-0.000
253.62	-0.000
253.83	-0.000
254.05	-0.000
254.26	-0.000
254.47	-0.000
254.68	-0.000
254.90	-0.000
255.11	-0.000
255.32	-0.000
255.54	-0.000
255.75	-0.000
255.96	-0.000
256.17	-0.000
256.39	-0.000
256.60	-0.000
256.81	-0.000
257.03	-0.000
257.24	-0.000
257.45	-0.000
257.66	-0.000
257.88	-0.000
258.09	-0.000
258.30	-0.000
258.51	-0.000
258.73	-0.000
258.94	-0.000
259.15	-0.000
259.37	-0.000
259.58	-0.000
259.79	-0.000
260.00	-0.000
260.22	-0.000
260.43	-0.000
260.64	-0.000
260.85	-0.000
261.07	-0.000
261.28	-0.000
261.49	-0.000
261.71	-0.000
261.92	-0.000
262.13	-0.000
262.34	-0.000
262.56	-0.000
262.77	-0.000
262.98	-0.000
263.19	-0.000
263.41	-0.000
263.62	-0.000
263.83	-0.000
264.04	-0.000
264.26	-0.000
264.47	-0.000
264.68	-0.000
264.89	-0.000
265.11	-0.000
265.32	-0.000
265.53	-0.000
265.74	-0.000
265.96	-0.000
266.17	-0.000
266.38	-0.000
266.59	-0.000
266.81	-0.000
267.02	-0.000
267.23	-0.000
267.44	-0.000
267.65	-0.000
267.87	-0.000
268.08	-0.000
268.29	-0.000
268.50	-0.000
268.72	-0.000
268.93	-0.000
269.14	-0.000
269.35	-0.000
269.57	-0.000
269.78	-0.000
269.99	-0.000
270.20	-0.000
270.41	-0.000
270.63	-0.000
270.84	-0.000
271.05	-0.000
271.26	-0.000
271.48	-0.000
271.69	-0.000
271.90	-0.000
272.11	-0.000
272.32	-0.000
272.54	-0.000
272.75	-0.000
272.96	-0.000
273.17	-0.000
273.39	-0.000
273.60	-0.000
273.81	-0.000
274.02	-0.000
274.23	-0.000
274.45	-0.000
274.66	-0.000
274.87	-0.000
275.08	-0.000
275.29	-0.000
275.51	-0.000
275.72	-0.000
275.93	-0.000
276.14	-0.000
276.35	-0.000
276.57	-0.000
276.78	-0.000
276.99	-0.000
277.20	-0.000
277.41	-0.000
277.63	-0.000
277.84	-0.000
278.05	-0.000
278.26	-0.000
278.47	-0.000
278.69	-0.000
278.90	-0.000
279.11	-0.000
279.32	-0.000
279.53	-0.000
279.74	-0.000
279.96	-0.000
280.17	-0.000
280.38	-0.000
280.59	-0.000
280.80	-0.000
281.02	-0.000
281.23	-0.000
281.44	-0.000
281.65	-0.000
281.86	-0.000
282.07	-0.000
282.29	-0.000
282.50	-0.000
282.71	-0.000
282.92	-0.000
283.13	-0.000
283.35	-0.000
283.56	-0.000
283.77	-0.000
283.98	-0.000
284.19	-0.000
284.40	-0.000
284.62	-0.000
284.83	-0.000
285.04	-0.000
285.25	-0.000
285.46	-0.000
285.67	-0.000
285.88	-0.000
286.10	-0.000
286.31	-0.000
286.52	-0.000
286.73	-0.000
286.94	-0.000
287.15	-0.000
287.37	-0.000
287.58	-0.000
287.79	-0.000
288.00	-0.000
288.21	-0.000
288.42	-0.000
288.63	-0.000
288.85	-0.000
289.06	-0.000
289.27	-0.000
289.48	-0.000
289.69	-0.000
289.90	-0.000
290.11	-0.000
290.33	-0.000
290.54	-0.000
290.75	-0.000
290.96	-0.000
291.17	-0.000
291.38	-0.000
291.59	-0.000
291.81	-0.000
292.02	-0.000
292.23	-0.000
292.44	-0.000
292.65	-0.000
292.86	-0.000
293.07	-0.000
293.28	-0.000
293.50	-0.000
293.71	-0.000
293.92	-0.000
294.13	-0.000
294.34	-0.000
294.55	-0.000
294.76	-0.000
294.97	-0.000
295.19	-0.000
295.40	-0.000
295.61	-0.000
295.82	-0.000
296.03	-0.000
296.24	-0.000
296.45	-0.000
296.66	-0.000
296.87	-0.000
297.09	-0.000
297.30	-0.000
297.51	2.654
297.72	2.419
297.93	-0.000
298.14	2.949
298.35	2.441
298.56	2.305
298.77	-0.000
298.99	3.119
299.20	2.749
299.41	2.565
299.62	2.391
299.83	2.295
300.04	2.045
300.25	2.003
300.46	2.121
300.67	2.040
300.88	1.907
301.10	1.912
301.31	2.133
301.52	1.934
301.73	1.798
301.94	1.789
302.15	1.834
302.36	1.746
302.57	1.626
302.78	1.641
302.99	1.724
303.20	1.743
303.41	1.581
303.63	1.555
303.84	1.567
304.05	1.559
304.26	1.469
304.47	1.476
304.68	1.479
304.89	1.464
305.10	1.404
305.31	1.384
305.52	1.445
305.73	1.435
305.94	1.379
306.15	1.374
306.37	1.405
306.58	1.411
306.79	1.367
307.00	1.397
307.21	1.453
307.42	1.437
307.63	1.389
307.84	1.344
308.05	1.398
308.26	1.394
308.47	1.357
308.68	1.352
308.89	1.354
309.10	1.348
309.31	1.294
309.52	1.287
309.73	1.307
309.95	1.299
310.16	1.264
310.37	1.248
310.58	1.273
310.79	1.269
311.00	1.262
311.21	1.265
311.42	1.268
311.63	1.263
311.84	1.236
312.05	1.233
312.26	1.261
312.47	1.274
312.68	1.243
312.89	1.221
313.10	1.231
313.31	1.199
313.52	1.198
313.73	1.199
313.94	1.200
314.15	1.178
314.36	1.151
314.57	1.142
314.78	1.129
314.99	1.122
315.21	1.107
315.42	1.112
315.63	1.127
315.84	1.103
316.05	1.086
316.26	1.097
316.47	1.119
316.68	1.117
316.89	1.092
317.10	1.113
317.31	1.122
317.52	1.122
317.73	1.097
317.94	1.096
318.15	1.145
318.36	1.145
318.57	1.122
318.78	1.111
318.99	1.150
319.20	1.150
319.41	1.113
319.62	1.112
319.83	1.131
320.04	1.127
320.25	1.109
320.46	1.073
320.67	1.076
320.88	1.071
321.09	1.054
321.30	1.037
321.51	1.053
321.72	1.048
321.93	1.030
322.14	1.020
322.35	1.050
322.56	1.050
322.77	1.034
322.98	1.047
323.19	1.056
323.40	1.063
323.61	1.039
323.82	1.034
324.03	1.041
324.24	1.037
324.45	1.022
324.66	1.001
324.87	0.998
325.08	0.999
325.29	0.977
325.50	0.974
325.71	0.980
325.92	0.987
326.13	0.971
326.34	0.971
326.55	0.982
326.76	0.980
326.97	0.968
327.18	0.962
327.39	0.989
327.60	0.990
327.80	0.984
328.01	0.981
328.22	0.984
328.43	0.988
328.64	0.974
328.85	0.976
329.06	0.980
329.27	0.981
329.48	0.975
329.69	0.954
329.90	0.964
330.11	0.957
330.32	0.950
330.53	0.942
330.74	0.943
330.95	0.941
331.16	0.926
331.37	0.933
331.58	0.933
331.79	0.934
332.00	0.925
332.21	0.918
332.42	0.922
332.63	0.913
332.83	0.908
333.04	0.909
333.25	0.923
333.46	0.920
333.67	0.905
333.88	0.907
334.09	0.917
334.30	0.913
334.51	0.904
334.72	0.899
334.93	0.902
335.14	0.902
335.35	0.893
335.56	0.887
335.77	0.898
335.98	0.896
336.18	0.889
336.39	0.881
336.60	0.886
336.81	0.885
337.02	0.884
337.23	0.890
337.44	0.893
337.65	0.895
337.86	0.884
338.07	0.877
338.28	0.882
338.49	0.880
338.70	0.872
338.91	0.879
339.11	0.886
339.32	0.881
339.53	0.867
339.74	0.866
339.95	0.863
340.16	0.861
340.37	0.854
340.58	0.853
340.79	0.858
341.00	0.859
341.21	0.846
341.41	0.847
341.62	0.850
341.83	0.851
342.04	0.845
342.25	0.856
342.46	0.861
342.67	0.858
342.88	0.851
343.09	0.850
343.30	0.856
343.50	0.860
343.71	0.849
343.92	0.847
344.13	0.852
344.34	0.851
344.55	0.834
344.76	0.832
344.97	0.838
345.18	0.835
345.38	0.831
345.59	0.827
345.80	0.827
346.01	0.825
346.22	0.821
346.43	0.815
346.64	0.824
346.85	0.823
347.06	0.816
347.26	0.816
347.47	0.821
347.68	0.817
347.89	0.812
348.10	0.807
348.31	0.815
348.52	0.814
348.73	0.811
348.93	0.807
349.14	0.810
349.35	0.809
349.56	0.803
349.77	0.799
349.98	0.805
350.19	0.802
350.39	0.797
350.60	0.793
350.81	0.809
351.02	0.807
351.23	0.801
351.44	0.804
351.65	0.808
351.86	0.805
352.06	0.804
352.27	0.803
352.48	0.804
352.69	0.804
352.90	0.797
353.11	0.784
353.31	0.792
353.52	0.788
353.73	0.780
353.94	0.781
354.15	0.788
354.36	0.787
354.57	0.778
354.77	0.780
354.98	0.780
355.19	0.780
355.40	0.779
355.61	0.785
355.82	0.790
356.02	0.790
356.23	0.782
356.44	0.784
356.65	0.788
356.86	0.789
357.07	0.782
357.27	0.785
357.48	0.788
357.69	0.784
357.90	0.768
358.11	0.765
358.32	0.769
358.52	0.772
358.73	0.761
358.94	0.763
359.15	0.769
359.36	0.770
359.56	0.764
359.77	0.761
359.98	0.769
360.19	0.769
360.40	0.764
360.61	0.764
360.81	0.764
361.02	0.764
361.23	0.756
361.44	0.753
361.65	0.755
361.85	0.754
362.06	0.752
362.27	0.754
362.48	0.754
362.69	0.756
362.89	0.750
363.10	0.752
363.31	0.757
363.52	0.759
363.73	0.754
363.93	0.753
364.14	0.756
364.35	0.757
364.56	0.746
364.77	0.748
364.97	0.751
365.18	0.751
365.39	0.745
365.60	0.742
365.81	0.744
366.01	0.744
366.22	0.740
366.43	0.740
366.64	0.743
366.84	0.749
367.05	0.745
367.26	0.744
367.47	0.746
367.68	0.747
367.88	0.743
368.09	0.741
368.30	0.743
368.51	0.743
368.71	0.742
368.92	0.746
369.13	0.744
369.34	0.743
369.55	0.741
369.75	0.741
369.96	0.748
370.17	0.749
370.38	0.745
370.58	0.744
370.79	0.749
371.00	0.747
371.21	0.738
371.41	0.745
371.62	0.748
371.83	0.744
372.04	0.741
372.24	0.734
372.45	0.735
372.66	0.737
372.87	0.734
373.07	0.731
373.28	0.733
373.49	0.736
373.70	0.726
373.90	0.726
374.11	0.736
374.32	0.735
374.53	0.734
374.73	0.734
374.94	0.736
375.15	0.736
375.36	0.733
375.56	0.740
375.77	0.741
375.98	0.742
376.19	0.739
376.39	0.731
376.60	0.735
376.81	0.735
377.02	0.732
377.22	0.731
377.43	0.731
377.64	0.731
377.84	0.722
378.05	0.726
378.26	0.732
378.47	0.731
378.67	0.728
378.88	0.725
379.09	0.726
379.30	0.727
379.50	0.725
379.71	0.727
379.92	0.731
380.12	0.730
380.33	0.721
380.54	0.717
380.75	0.725
380.95	0.725
381.16	0.723
381.37	0.723
381.57	0.724
381.78	0.723
381.99	0.723
382.20	0.722
382.40	0.726
382.61	0.726
382.82	0.721
383.02	0.714
383.23	0.718
383.44	0.718
383.64	0.716
383.85	0.718
384.06	0.722
384.27	0.719
384.47	0.717
384.68	0.717
384.89	0.723
385.09	0.723
385.30	0.721
385.51	0.720
385.71	0.723
385.92	0.723
386.13	0.721
386.33	0.723
386.54	0.724
386.75	0.723
386.95	0.718
387.16	0.714
387.37	0.716
387.58	0.716
387.78	0.713
387.99	0.711
388.20	0.714
388.40	0.710
388.61	0.706
388.82	0.709
389.02	0.712
389.23	0.712
389.44	0.709
389.64	0.710
389.85	0.721
390.06	0.721
390.26	0.721
390.47	0.720
390.68	0.723
390.88	0.721
391.09	0.715
391.30	0.715
391.50	0.715
391.71	0.715
391.92	0.712
392.12	0.705
392.33	0.706
392.53	0.705
392.74	0.705
392.95	0.704
393.15	0.707
393.36	0.709
393.57	0.707
393.77	0.710
393.98	0.712
394.19	0.711
394.39	0.710
394.60	0.711
394.81	0.713
395.01	0.711
395.22	0.709
395.43	0.709
395.63	0.714
395.84	0.714
396.04	0.710
396.25	0.712
396.46	0.714
396.66	0.712
396.87	0.709
397.08	0.706
397.28	0.708
397.49	0.709
397.69	0.705
397.90	0.701
398.11	0.702
398.31	0.702
398.52	0.698
398.73	0.698
398.93	0.698
399.14	0.698
399.34	0.696
399.55	0.698
399.76	0.698
399.96	0.699
400.17	0.697
400.37	0.696
400.58	0.703
400.79	0.705
400.99	0.703
401.20	0.708
401.41	0.710
401.61	0.711
401.82	0.715
402.02	0.714
402.23	0.715
402.44	0.715
402.64	0.715
402.85	0.709
403.05	0.708
403.26	0.706
403.47	0.700
403.67	0.699
403.88	0.700
404.08	0.694
404.29	0.692
404.50	0.692
404.70	0.692
404.91	0.690
405.11	0.687
405.32	0.687
405.52	0.688
405.73	0.687
405.94	0.685
406.14	0.687
406.35	0.689
406.55	0.689
406.76	0.686
406.97	0.687
407.17	0.690
407.38	0.690
407.58	0.688
407.79	0.691
407.99	0.694
408.20	0.695
408.41	0.690
408.61	0.689
408.82	0.691
409.02	0.690
409.23	0.687
409.43	0.686
409.64	0.688
409.84	0.688
410.05	0.684
410.26	0.683
410.46	0.682
410.67	0.682
410.87	0.682
411.08	0.684
411.28	0.686
411.49	0.687
411.69	0.685
411.90	0.686
412.11	0.688
412.31	0.688
412.52	0.686
412.72	0.687
412.93	0.688
413.13	0.687
413.34	0.684
413.54	0.684
413.75	0.686
413.95	0.685
414.16	0.682
414.37	0.684
414.57	0.684
414.78	0.686
414.98	0.684
415.19	0.685
415.39	0.684
415.60	0.685
415.80	0.684
416.01	0.683
416.21	0.685
416.42	0.685
416.62	0.681
416.83	0.681
417.03	0.681
417.24	0.681
417.44	0.678
417.65	0.677
417.86	0.677
418.06	0.675
418.27	0.673
418.47	0.675
418.68	0.676
418.88	0.676
419.09	0.674
419.29	0.675
419.50	0.675
419.70	0.675
419.91	0.674
420.11	0.673
420.32	0.676
420.52	0.675
420.73	0.674
420.93	0.675
421.14	0.677
421.34	0.676
421.55	0.673
421.75	0.673
421.96	0.675
422.16	0.675
422.37	0.674
422.57	0.671
422.78	0.672
422.98	0.669
423.19	0.666
423.39	0.665
423.60	0.668
423.80	0.670
424.01	0.668
424.21	0.670
424.42	0.672
424.62	0.671
424.83	0.670
425.03	0.670
425.23	0.673
425.44	0.674
425.64	0.674
425.85	0.673
426.05	0.674
426.26	0.675
426.46	0.671
426.67	0.670
426.87	0.675
427.08	0.676
427.28	0.674
427.49	0.675
427.69	0.675
427.90	0.674
428.10	0.670
428.31	0.670
428.51	0.672
428.71	0.671
428.92	0.672
429.12	0.669
429.33	0.669
429.53	0.674
429.74	0.677
429.94	0.677
430.15	0.677
430.35	0.677
430.56	0.674
430.76	0.674
430.96	0.675
431.17	0.672
431.37	0.670
431.58	0.668
431.78	0.666
431.99	0.660
432.19	0.662
432.40	0.664
432.60	0.665
432.80	0.667
433.01	0.665
433.21	0.665
433.42	0.667
433.62	0.667
433.83	0.666
434.03	0.669
434.23	0.672
434.44	0.670
434.64	0.667
434.85	0.672
435.05	0.673
435.26	0.674
435.46	0.673
435.66	0.673
435.87	0.673
436.07	0.673
436.28	0.668
436.48	0.666
436.69	0.666
436.89	0.667
437.09	0.661
437.30	0.661
437.50	0.661
437.71	0.672
437.91	0.671
438.11	0.673
438.32	0.677
438.52	0.678
438.73	0.676
438.93	0.674
439.13	0.674
439.34	0.678
439.54	0.675
439.75	0.675
439.95	0.666
440.15	0.670
440.36	0.668
440.56	0.665
440.77	0.667
440.97	0.667
441.17	0.666
441.38	0.666
441.58	0.663
441.79	0.664
441.99	0.662
442.19	0.661
442.40	0.658
442.60	0.658
442.81	0.656
443.01	0.656
443.21	0.657
443.42	0.656
443.62	0.655
443.82	0.655
444.03	0.657
444.23	0.657
444.44	0.657
444.64	0.657
444.84	0.658
445.05	0.658
445.25	0.656
445.45	0.656
445.66	0.659
445.86	0.659
446.06	0.660
446.27	0.659
446.47	0.663
446.68	0.661
446.88	0.660
447.08	0.659
447.29	0.662
447.49	0.662
447.69	0.662
447.90	0.660
448.10	0.663
448.30	0.661
448.51	0.662
448.71	0.659
448.91	0.662
449.12	0.660
449.32	0.661
449.52	0.660
449.73	0.663
449.93	0.663
450.14	0.664
450.34	0.663
450.54	0.666
450.75	0.663
450.95	0.663
451.15	0.662
451.36	0.665
451.56	0.661
451.76	0.661
451.97	0.658
452.17	0.659
452.37	0.657
452.58	0.654
452.78	0.653
452.98	0.656
453.19	0.656
453.39	0.656
453.59	0.655
453.79	0.657
454.00	0.657
454.20	0.656
454.40	0.657
454.61	0.659
454.81	0.659
455.01	0.657
455.22	0.658
455.42	0.661
455.62	0.658
455.83	0.658
456.03	0.661
456.23	0.662
456.44	0.663
456.64	0.661
456.84	0.662
457.04	0.662
457.25	0.662
457.45	0.659
457.65	0.657
457.86	0.659
458.06	0.658
458.26	0.654
458.47	0.653
458.67	0.655
458.87	0.654
459.07	0.652
459.28	0.655
459.48	0.657
459.68	0.657
459.89	0.655
460.09	0.654
460.29	0.655
460.49	0.657
460.70	0.655
460.90	0.655
461.10	0.656
461.31	0.656
461.51	0.652
461.71	0.654
461.91	0.656
462.12	0.656
462.32	0.655
462.52	0.656
462.72	0.659
462.93	0.659
463.13	0.657
463.33	0.658
463.53	0.660
463.74	0.659
463.94	0.654
464.14	0.654
464.35	0.656
464.55	0.656
464.75	0.654
464.95	0.652
465.16	0.654
465.36	0.653
465.56	0.652
465.76	0.651
465.97	0.651
466.17	0.653
466.37	0.651
466.57	0.652
466.78	0.652
466.98	0.652
467.18	0.650
467.38	0.649
467.59	0.651
467.79	0.653
467.99	0.652
468.19	0.654
468.39	0.657
468.60	0.657
468.80	0.655
469.00	0.657
469.20	0.658
469.41	0.658
469.61	0.657
469.81	0.658
470.01	0.658
470.22	0.658
470.42	0.655
470.62	0.652
470.82	0.654
471.02	0.654
471.23	0.651
471.43	0.652
471.63	0.654
471.83	0.654
472.04	0.651
472.24	0.650
472.44	0.656
472.64	0.656
472.84	0.654
473.05	0.653
473.25	0.656
473.45	0.655
473.65	0.653
473.85	0.654
474.06	0.656
474.26	0.656
474.46	0.656
474.66	0.653
474.86	0.654
475.07	0.654
475.27	0.652
475.47	0.649
475.67	0.650
475.87	0.652
476.08	0.649
476.28	0.649
476.48	0.651
476.68	0.650
476.88	0.648
477.09	0.649
477.29	0.650
477.49	0.651
477.69	0.649
477.89	0.649
478.09	0.649
478.30	0.651
478.50	0.648
478.70	0.647
478.90	0.647
479.10	0.650
479.31	0.650
479.51	0.649
479.71	0.650
479.91	0.650
480.11	0.649
480.31	0.649
480.52	0.648
480.72	0.648
480.92	0.647
481.12	0.645
481.32	0.643
481.52	0.642
481.72	0.642
481.93	0.645
482.13	0.647
482.33	0.646
482.53	0.644
482.73	0.646
482.93	0.647
483.14	0.646
483.34	0.645
483.54	0.646
483.74	0.645
483.94	0.644
484.14	0.640
484.34	0.640
484.55	0.640
484.75	0.640
484.95	0.638
485.15	0.638
485.35	0.638
485.55	0.637
485.75	0.635
485.96	0.636
486.16	0.638
486.36	0.637
486.56	0.635
486.76	0.635
486.96	0.635
487.16	0.635
487.36	0.633
487.57	0.633
487.77	0.634
487.97	0.634
488.17	0.632
488.37	0.631
488.57	0.632
488.77	0.632
488.97	0.631
489.18	0.630
489.38	0.633
489.58	0.634
489.78	0.633
489.98	0.632
490.18	0.632
490.38	0.633
490.58	0.632
490.78	0.633
490.98	0.635
491.19	0.635
491.39	0.634
491.59	0.633
491.79	0.636
491.99	0.636
492.19	0.635
492.39	0.639
492.59	0.638
492.79	0.641
492.99	0.640
493.20	0.640
493.40	0.640
493.60	0.642
493.80	0.640
494.00	0.638
494.20	0.639
494.40	0.638
494.60	0.635
494.80	0.640
495.00	0.639
495.20	0.638
495.40	0.637
495.61	0.639
495.81	0.639
496.01	0.642
496.21	0.643
496.41	0.642
496.61	0.644
496.81	0.643
497.01	0.638
497.21	0.637
497.41	0.638
497.61	0.638
497.81	0.635
498.01	0.635
498.21	0.633
498.41	0.631
498.61	0.631
498.82	0.632
499.02	0.634
499.22	0.635
499.42	0.634
499.62	0.635
499.82	0.636
500.02	0.637
500.22	0.635
500.42	0.638
500.62	0.639
500.82	0.639
501.02	0.636
501.22	0.636
501.42	0.636
501.62	0.638
501.82	0.638
502.02	0.638
502.22	0.637
502.42	0.640
502.62	0.637
502.82	0.637
503.02	0.638
503.22	0.638
503.42	0.635
503.63	0.635
503.83	0.633
504.03	0.632
504.23	0.631
504.43	0.632
504.63	0.633
504.83	0.632
505.03	0.631
505.23	0.633
505.43	0.635
505.63	0.636
505.83	0.635
506.03	0.637
506.23	0.640
506.43	0.640
506.63	0.638
506.83	0.637
507.03	0.640
507.23	0.640
507.43	0.637
507.63	0.637
507.83	0.638
508.03	0.638
508.23	0.637
508.43	0.635
508.63	0.637
508.83	0.637
509.03	0.638
509.23	0.637
509.43	0.638
509.63	0.639
509.83	0.637
510.03	0.640
510.23	0.642
510.43	0.643
510.63	0.643
510.83	0.643
511.03	0.645
511.23	0.642
511.43	0.642
511.63	0.643
511.83	0.646
512.03	0.646
512.22	0.642
512.42	0.641
512.62	0.642
512.82	0.642
513.02	0.641
513.22	0.641
513.42	0.643
513.62	0.646
513.82	0.643
514.02	0.643
514.22	0.645
514.42	0.646
514.62	0.645
514.82	0.646
515.02	0.648
515.22	0.651
515.42	0.650
515.62	0.653
515.82	0.652
516.02	0.653
516.22	0.653
516.42	0.653
516.62	0.655
516.82	0.656
517.01	0.654
517.21	0.653
517.41	0.657
517.61	0.657
517.81	0.653
518.01	0.652
518.21	0.653
518.41	0.652
518.61	0.650
518.81	0.652
519.01	0.652
519.21	0.653
519.41	0.651
519.61	0.646
519.81	0.649
520.00	0.649
520.20	0.649
520.40	0.652
520.60	0.653
520.80	0.652
521.00	0.651
521.20	0.653
521.40	0.658
521.60	0.658
521.80	0.657
522.00	0.656
522.20	0.659
522.39	0.658
522.59	0.654
522.79	0.656
522.99	0.659
523.19	0.657
523.39	0.654
523.59	0.652
523.79	0.656
523.99	0.658
524.19	0.657
524.38	0.655
524.58	0.657
524.78	0.658
524.98	0.657
525.18	0.658
525.38	0.660
525.58	0.661
525.78	0.658
525.98	0.656
526.18	0.657
526.37	0.656
526.57	0.658
526.77	0.658
526.97	0.658
527.17	0.659
527.37	0.655
527.57	0.657
527.77	0.659
527.96	0.660
528.16	0.658
528.36	0.659
528.56	0.661
528.76	0.658
528.96	0.657
529.16	0.659
529.36	0.662
529.55	0.662
529.75	0.658
529.95	0.659
530.15	0.660
530.35	0.662
530.55	0.659
530.75	0.660
530.94	0.662
531.14	0.663
531.34	0.660
531.54	0.658
531.74	0.661
531.94	0.664
532.13	0.662
532.33	0.665
532.53	0.664
532.73	0.664
532.93	0.661
533.13	0.662
533.33	0.663
533.52	0.664
533.72	0.667
533.92	0.665
534.12	0.664
534.32	0.664
534.52	0.662
534.71	0.664
534.91	0.667
535.11	0.669
535.31	0.666
535.51	0.668
535.71	0.670
535.90	0.667
536.10	0.668
536.30	0.670
536.50	0.671
536.70	0.671
536.89	0.668
537.09	0.667
537.29	0.669
537.49	0.670
537.69	0.668
537.89	0.668
538.08	0.668
538.28	0.666
538.48	0.666
538.68	0.667
538.88	0.669
539.07	0.670
539.27	0.668
539.47	0.667
539.67	0.668
539.87	0.670
540.06	0.667
540.26	0.667
540.46	0.670
540.66	0.667
540.86	0.664
541.05	0.665
541.25	0.666
541.45	0.667
541.65	0.665
541.84	0.667
542.04	0.667
542.24	0.668
542.44	0.667
542.64	0.668
542.83	0.671
543.03	0.672
543.23	0.670
543.43	0.671
543.62	0.672
543.82	0.672
544.02	0.670
544.22	0.671
544.42	0.675
544.61	0.675
544.81	0.672
545.01	0.671
545.21	0.673
545.40	0.673
545.60	0.671
545.80	0.675
546.00	0.676
546.19	0.675
546.39	0.673
546.59	0.670
546.79	0.672
546.98	0.672
547.18	0.671
547.38	0.672
547.58	0.674
547.77	0.675
547.97	0.671
548.17	0.673
548.37	0.674
548.56	0.674
548.76	0.674
548.96	0.676
549.16	0.679
549.35	0.679
549.55	0.676
549.75	0.677
549.95	0.680
550.14	0.680
550.34	0.678
550.54	0.683
550.73	0.686
550.93	0.687
551.13	0.683
551.33	0.681
551.52	0.682
551.72	0.682
551.92	0.680
552.12	0.680
552.31	0.681
552.51	0.681
552.71	0.676
552.90	0.676
553.10	0.677
553.30	0.678
553.50	0.677
553.69	0.680
553.89	0.681
554.09	0.681
554.28	0.678
554.48	0.679
554.68	0.682
554.87	0.682
555.07	0.678
555.27	0.678
555.47	0.680
555.66	0.680
555.86	0.677
556.06	0.680
556.25	0.681
556.45	0.689
556.65	0.687
556.84	0.691
557.04	0.695
557.24	0.697
557.43	0.696
557.63	0.699
557.83	0.701
558.02	0.701
558.22	0.704
558.42	0.705
558.61	0.698
558.81	0.699
559.01	0.695
559.21	0.694
559.40	0.695
559.60	0.695
559.80	0.691
559.99	0.693
560.19	0.695
560.39	0.689
560.58	0.686
560.78	0.687
560.97	0.689
561.17	0.688
561.37	0.685
561.56	0.686
561.76	0.688
561.96	0.687
562.15	0.685
562.35	0.687
562.55	0.689
562.74	0.689
562.94	0.687
563.14	0.685
563.33	0.687
563.53	0.687
563.73	0.684
563.92	0.685
564.12	0.688
564.31	0.690
564.51	0.688
564.71	0.690
564.90	0.693
565.10	0.694
565.30	0.696
565.49	0.697
565.69	0.699
565.89	0.700
566.08	0.697
566.28	0.699
566.47	0.701
566.67	0.698
566.87	0.695
567.06	0.696
567.26	0.703
567.46	0.698
567.65	0.697
567.85	0.698
568.04	0.701
568.24	0.700
568.44	0.697
568.63	0.695
568.83	0.697
569.02	0.696
569.22	0.690
569.42	0.687
569.61	0.690
569.81	0.688
570.00	0.685
570.20	0.687
570.40	0.689
570.59	0.688
570.79	0.686
570.98	0.685
571.18	0.686
571.38	0.685
571.57	0.682
571.77	0.680
571.96	0.684
572.16	0.681
572.35	0.676
572.55	0.677
572.75	0.676
572.94	0.675
573.14	0.673
573.33	0.673
573.53	0.674
573.73	0.674
573.92	0.671
574.12	0.669
574.31	0.672
574.51	0.672
574.70	0.669
574.90	0.670
575.09	0.673
575.29	0.673
575.49	0.670
575.68	0.671
575.88	0.672
576.07	0.674
576.27	0.672
576.46	0.671
576.66	0.670
576.86	0.670
577.05	0.667
577.25	0.665
577.44	0.667
577.64	0.667
577.83	0.665
578.03	0.666
578.22	0.666
578.42	0.665
578.61	0.663
578.81	0.664
579.00	0.665
579.20	0.664
579.40	0.663
579.59	0.662
579.79	0.662
579.98	0.662
580.18	0.662
580.37	0.662
580.57	0.664
580.76	0.669
580.96	0.666
581.15	0.667
581.35	0.670
581.54	0.669
581.74	0.669
581.93	0.670
582.13	0.671
582.32	0.668
582.52	0.666
582.71	0.665
582.91	0.662
583.10	0.662
583.30	0.661
583.49	0.660
583.69	0.664
583.88	0.665
584.08	0.664
584.27	0.667
584.47	0.670
584.66	0.671
584.86	0.670
585.05	0.672
585.25	0.674
585.44	0.673
585.64	0.671
585.83	0.668
586.03	0.669
586.22	0.667
586.42	0.663
586.61	0.665
586.81	0.667
587.00	0.667
587.20	0.664
587.39	0.665
587.59	0.667
587.78	0.668
587.98	0.669
588.17	0.670
588.37	0.672
588.56	0.675
588.76	0.671
588.95	0.671
589.15	0.675
589.34	0.678
589.54	0.676
589.73	0.676
589.92	0.680
590.12	0.680
590.31	0.677
590.51	0.682
590.70	0.684
590.90	0.684
591.09	0.682
591.29	0.681
591.48	0.681
591.68	0.682
591.87	0.680
592.06	0.679
592.26	0.682
592.45	0.681
592.65	0.674
592.84	0.674
593.04	0.677
593.23	0.679
593.43	0.676
593.62	0.676
593.81	0.677
594.01	0.676
594.20	0.674
594.40	0.673
594.59	0.676
594.79	0.677
594.98	0.675
595.17	0.674
595.37	0.675
595.56	0.677
595.76	0.676
595.95	0.677
596.14	0.681
596.34	0.682
596.53	0.681
596.73	0.682
596.92	0.683
597.12	0.686
597.31	0.686
597.50	0.684
597.70	0.687
597.89	0.686
598.09	0.681
598.28	0.682
598.47	0.685
598.67	0.684
598.86	0.680
599.06	0.682
599.25	0.682
599.44	0.680
599.64	0.678
599.83	0.676
600.03	0.679
600.22	0.680
600.41	0.680
600.61	0.677
600.80	0.680
601.00	0.681
601.19	0.677
601.38	0.676
601.58	0.679
601.77	0.680
601.96	0.681
602.16	0.681
602.35	0.690
602.55	0.688
602.74	0.689
602.93	0.691
603.13	0.696
603.32	0.697
603.51	0.696
603.71	0.699
603.90	0.701
604.09	0.702
604.29	0.699
604.48	0.693
604.68	0.695
604.87	0.693
605.06	0.689
605.26	0.685
605.45	0.687
605.64	0.686
605.84	0.681
606.03	0.680
606.22	0.678
606.42	0.678
606.61	0.674
606.80	0.674
607.00	0.677
607.19	0.677
607.38	0.675
607.58	0.676
607.77	0.679
607.96	0.679
608.16	0.677
608.35	0.683
608.54	0.687
608.74	0.690
608.93	0.694
609.12	0.697
609.32	0.700
609.51	0.704
609.70	0.703
609.90	0.705
610.09	0.709
610.28	0.714
610.48	0.707
610.67	0.709
610.86	0.709
611.06	0.705
611.25	0.701
611.44	0.702
611.64	0.701
611.83	0.704
612.02	0.699
612.21	0.698
612.41	0.697
612.60	0.696
612.79	0.691
612.99	0.691
613.18	0.693
613.37	0.691
613.57	0.689
613.76	0.691
613.95	0.690
614.14	0.690
614.34	0.687
614.53	0.688
614.72	0.692
614.92	0.692
615.11	0.689
615.30	0.686
615.49	0.688
615.69	0.691
615.88	0.686
616.07	0.688
616.26	0.691
616.46	0.692
616.65	0.689
616.84	0.687
617.04	0.689
617.23	0.692
617.42	0.692
617.61	0.696
617.81	0.697
618.00	0.699
618.19	0.697
618.38	0.700
618.58	0.704
618.77	0.705
618.96	0.704
619.15	0.706
619.35	0.708
619.54	0.709
619.73	0.703
619.92	0.706
620.12	0.710
620.31	0.711
620.50	0.705
620.69	0.705
620.89	0.709
621.08	0.709
621.27	0.709
621.46	0.708
621.66	0.712
621.85	0.713
622.04	0.708
622.23	0.709
622.43	0.710
622.62	0.710
622.81	0.708
623.00	0.708
623.19	0.712
623.39	0.710
623.58	0.707
623.77	0.705
623.96	0.708
624.16	0.709
624.35	0.703
624.54	0.706
624.73	0.711
624.92	0.709
625.12	0.706
625.31	0.707
625.50	0.710
625.69	0.712
625.88	0.707
626.08	0.707
626.27	0.708
626.46	0.710
626.65	0.706
626.84	0.706
627.04	0.712
627.23	0.713
627.42	0.707
627.61	0.710
627.80	0.714
628.00	0.715
628.19	0.713
628.38	0.717
628.57	0.720
628.76	0.718
628.96	0.714
629.15	0.715
629.34	0.717
629.53	0.719
629.72	0.713
629.91	0.713
630.11	0.717
630.30	0.717
630.49	0.719
630.68	0.719
630.87	0.725
631.06	0.727
631.26	0.722
631.45	0.724
631.64	0.732
631.83	0.734
632.02	0.732
632.21	0.731
632.41	0.739
632.60	0.733
632.79	0.730
632.98	0.730
633.17	0.732
633.36	0.734
633.55	0.729
633.75	0.725
633.94	0.727
634.13	0.726
634.32	0.723
634.51	0.717
634.70	0.720
634.89	0.719
635.09	0.715
635.28	0.716
635.47	0.718
635.66	0.721
635.85	0.716
636.04	0.718
636.23	0.725
636.43	0.726
636.62	0.724
636.81	0.723
637.00	0.727
637.19	0.732
637.38	0.728
637.57	0.727
637.76	0.729
637.95	0.731
638.15	0.727
638.34	0.722
638.53	0.726
638.72	0.727
638.91	0.724
639.10	0.721
639.29	0.721
639.48	0.722
639.67	0.722
639.87	0.721
640.06	0.727
640.25	0.726
640.44	0.727
640.63	0.726
640.82	0.730
641.01	0.730
641.20	0.730
641.39	0.731
641.58	0.733
641.78	0.732
641.97	0.727
642.16	0.741
642.35	0.743
642.54	0.741
642.73	0.735
642.92	0.732
643.11	0.736
643.30	0.735
643.49	0.729
643.68	0.732
643.87	0.734
644.06	0.734
644.25	0.713
644.45	0.715
644.64	0.718
644.83	0.719
645.02	0.715
645.21	0.715
645.40	0.717
645.59	0.718
645.78	0.710
645.97	0.712
646.16	0.714
646.35	0.713
646.54	0.711
646.73	0.711
646.92	0.713
647.11	0.713
647.30	0.708
647.49	0.709
647.68	0.710
647.88	0.709
648.07	0.700
648.26	0.704
648.45	0.707
648.64	0.703
648.83	0.701
649.02	0.704
649.21	0.716
649.40	0.715
649.59	0.710
649.78	0.711
649.97	0.726
650.16	0.727
650.35	0.720
650.54	0.722
650.73	0.732
650.92	0.729
651.11	0.721
651.30	0.718
651.49	0.723
651.68	0.723
651.87	0.719
652.06	0.709
652.25	0.712
652.44	0.714
652.63	0.709
652.82	0.707
653.01	0.707
653.20	0.704
653.39	0.691
653.58	0.688
653.77	0.688
653.96	0.683
654.15	0.674
654.34	0.673
654.53	0.669
654.72	0.663
654.91	0.654
655.10	0.650
655.29	0.649
655.48	0.647
655.67	0.641
655.86	0.639
656.05	0.637
656.24	0.637
656.43	0.631
656.62	0.630
656.81	0.631
657.00	0.630
657.19	0.628
657.38	0.628
657.57	0.628
657.76	0.631
657.95	0.629
658.14	0.633
658.33	0.636
658.51	0.641
658.70	0.642
658.89	0.644
659.08	0.652
659.27	0.660
659.46	0.659
659.65	0.665
659.84	0.668
660.03	0.672
660.22	0.673
660.41	0.677
660.60	0.677
660.79	0.679
660.98	0.684
661.17	0.684
661.36	0.684
661.55	0.683
661.74	0.681
661.92	0.684
662.11	0.687
662.30	0.685
662.49	0.677
662.68	0.677
662.87	0.681
663.06	0.674
663.25	0.675
663.44	0.675
663.63	0.677
663.82	0.675
664.01	0.669
664.20	0.668
664.38	0.671
664.57	0.671
664.76	0.669
664.95	0.670
665.14	0.676
665.33	0.670
665.52	0.678
665.71	0.682
665.90	0.683
666.09	0.684
666.28	0.682
666.46	0.680
666.65	0.681
666.84	0.679
667.03	0.672
667.22	0.670
667.41	0.674
667.60	0.663
667.79	0.656
667.98	0.658
668.16	0.660
668.35	0.659
668.54	0.655
668.73	0.657
668.92	0.658
669.11	0.658
669.30	0.652
669.49	0.648
669.67	0.650
669.86	0.652
670.05	0.649
670.24	0.646
670.43	0.644
670.62	0.643
670.81	0.638
671.00	0.638
671.18	0.638
671.37	0.637
671.56	0.634
671.75	0.633
671.94	0.630
672.13	0.628
672.32	0.624
672.50	0.623
672.69	0.624
672.88	0.624
673.07	0.619
673.26	0.621
673.45	0.622
673.63	0.622
673.82	0.618
674.01	0.620
674.20	0.619
674.39	0.619
674.58	0.618
674.76	0.618
674.95	0.616
675.14	0.616
675.33	0.611
675.52	0.610
675.71	0.610
675.89	0.610
676.08	0.606
676.27	0.606
676.46	0.606
676.65	0.606
676.84	0.604
677.02	0.606
677.21	0.609
677.40	0.608
677.59	0.605
677.78	0.606
677.96	0.609
678.15	0.609
678.34	0.606
678.53	0.607
678.72	0.607
678.90	0.604
679.09	0.599
679.28	0.596
679.47	0.597
679.66	0.596
679.84	0.592
680.03	0.589
680.22	0.589
680.41	0.591
680.60	0.586
680.78	0.586
680.97	0.589
681.16	0.589
681.35	0.588
681.53	0.586
681.72	0.588
681.91	0.590
682.10	0.588
682.29	0.591
682.47	0.588
682.66	0.588
682.85	0.587
683.04	0.585
683.22	0.585
683.41	0.587
683.60	0.586
683.79	0.588
683.97	0.587
684.16	0.586
684.35	0.581
684.54	0.583
684.72	0.583
684.91	0.584
685.10	0.581
685.29	0.582
685.47	0.580
685.66	0.579
685.85	0.575
686.04	0.574
686.22	0.577
686.41	0.579
686.60	0.576
686.79	0.579
686.97	0.580
687.16	0.582
687.35	0.579
687.54	0.582
687.72	0.587
687.91	0.586
688.10	0.587
688.29	0.587
688.47	0.585
688.66	0.584
688.85	0.580
689.03	0.578
689.22	0.583
689.41	0.583
689.60	0.578
689.78	0.575
689.97	0.576
690.16	0.573
690.34	0.569
690.53	0.568
690.72	0.569
690.91	0.567
691.09	0.565
691.28	0.560
691.47	0.558
691.65	0.557
691.84	0.554
692.03	0.553
692.21	0.552
692.40	0.551
692.59	0.549
692.77	0.548
692.96	0.550
693.15	0.550
693.34	0.547
693.52	0.547
693.71	0.549
693.90	0.550
694.08	0.550
694.27	0.552
694.46	0.561
694.64	0.563
694.83	0.561
695.02	0.560
695.20	0.560
695.39	0.559
695.58	0.559
695.76	0.560
695.95	0.560
696.14	0.558
696.32	0.556
696.51	0.546
696.70	0.546
696.88	0.547
697.07	0.545
697.26	0.547
697.44	0.549
697.63	0.548
697.81	0.545
698.00	0.544
698.19	0.544
698.37	0.544
698.56	0.544
698.75	0.544
698.93	0.544
699.12	0.544
699.31	0.543
699.49	0.542
699.68	0.543
699.87	0.546
700.05	0.546
700.24	0.545
700.42	0.547
700.61	0.546
700.80	0.544
700.98	0.544
701.17	0.545
701.36	0.544
701.54	0.543
701.73	0.544
701.91	0.542
702.10	0.542
702.29	0.540
702.47	0.538
702.66	0.541
702.84	0.542
703.03	0.540
703.22	0.542
703.40	0.542
703.59	0.543
703.77	0.542
703.96	0.542
704.15	0.543
704.33	0.543
704.52	0.542
704.70	0.541
704.89	0.542
705.08	0.541
705.26	0.536
705.45	0.536
705.63	0.536
705.82	0.533
706.00	0.531
706.19	0.530
706.38	0.530
706.56	0.530
706.75	0.527
706.93	0.525
707.12	0.527
707.30	0.528
707.49	0.525
707.68	0.523
707.86	0.523
708.05	0.523
708.23	0.521
708.42	0.521
708.60	0.524
708.79	0.524
708.98	0.523
709.16	0.522
709.35	0.524
709.53	0.528
709.72	0.527
709.90	0.529
710.09	0.531
710.27	0.533
710.46	0.537
710.64	0.535
710.83	0.537
711.02	0.539
711.20	0.537
711.39	0.535
711.57	0.533
711.76	0.533
711.94	0.531
712.13	0.532
712.31	0.532
712.50	0.527
712.68	0.524
712.87	0.525
713.05	0.525
713.24	0.526
713.42	0.525
713.61	0.526
713.79	0.526
713.98	0.527
714.16	0.527
714.35	0.527
714.54	0.528
714.72	0.528
714.91	0.526
715.09	0.532
715.28	0.535
715.46	0.535
715.65	0.532
715.83	0.533
716.02	0.535
716.20	0.531
716.39	0.531
716.57	0.532
716.76	0.535
716.94	0.535
717.12	0.526
717.31	0.528
717.49	0.531
717.68	0.533
717.86	0.532
718.05	0.535
718.23	0.537
718.42	0.540
718.60	0.541
718.79	0.548
718.97	0.551
719.16	0.552
719.34	0.549
719.53	0.548
719.71	0.548
719.90	0.550
720.08	0.546
720.27	0.547
720.45	0.547
720.63	0.546
720.82	0.540
721.00	0.543
721.19	0.547
721.37	0.547
721.56	0.547
721.74	0.550
721.93	0.559
722.11	0.567
722.30	0.566
722.48	0.571
722.66	0.572
722.85	0.572
723.03	0.571
723.22	0.569
723.40	0.572
723.59	0.572
723.77	0.575
723.95	0.568
724.14	0.570
724.32	0.571
724.51	0.569
724.69	0.570
724.88	0.571
725.06	0.570
725.24	0.571
725.43	0.573
725.61	0.576
725.80	0.570
725.98	0.568
726.16	0.565
726.35	0.572
726.53	0.572
726.72	0.570
726.90	0.581
727.09	0.582
727.27	0.588
727.45	0.584
727.64	0.593
727.82	0.601
728.01	0.606
728.19	0.601
728.37	0.606
728.56	0.610
728.74	0.616
728.92	0.602
729.11	0.605
729.29	0.604
729.48	0.608
729.66	0.597
729.84	0.596
730.03	0.599
730.21	0.602
730.40	0.593
730.58	0.595
730.76	0.596
730.95	0.599
731.13	0.597
731.31	0.609
731.50	0.619
731.68	0.624
731.86	0.620
732.05	0.636
732.23	0.640
732.42	0.644
732.60	0.648
732.78	0.653
732.97	0.675
733.15	0.682
733.33	0.671
733.52	0.677
733.70	0.688
733.88	0.698
734.07	0.682
734.25	0.709
734.43	0.719
734.62	0.720
734.80	0.713
734.98	0.703
735.17	0.713
735.35	0.720
735.53	0.710
735.72	0.715
735.90	0.740
736.08	0.760
736.27	0.735
736.45	0.745
736.63	0.761
736.82	0.772
737.00	0.770
737.18	0.783
737.37	0.820
737.55	0.844
737.73	0.834
737.92	0.836
738.10	0.840
738.28	0.863
738.46	0.849
738.65	0.865
738.83	0.894
739.01	0.959
739.20	0.947
739.38	0.922
739.56	0.914
739.75	0.926
739.93	0.885
740.11	0.910
740.29	0.911
740.48	0.920
740.66	0.889
740.84	0.884
741.03	0.846
741.21	0.855
741.39	0.833
741.57	0.848
741.76	0.865
741.94	0.872
742.12	0.830
742.31	0.838
742.49	0.863
742.67	0.892
742.85	0.902
743.04	0.905
743.22	0.923
743.40	0.988
743.58	0.968
743.77	0.992
743.95	1.039
744.13	1.100
744.31	1.073
744.50	1.060
744.68	1.066
744.86	1.034
745.04	1.045
745.23	1.120
745.41	1.102
745.59	1.103
745.77	1.061
745.96	1.042
746.14	1.062
746.32	1.058
746.50	1.048
746.69	1.028
746.87	1.044
747.05	1.032
747.23	0.941
747.42	0.929
747.60	0.967
747.78	0.969
747.96	1.006
748.14	0.952
748.33	0.989
748.51	0.981
748.69	0.967
748.87	1.004
749.06	1.004
749.24	1.008
749.42	0.986
749.60	0.959
749.78	0.972
749.97	0.920
750.15	0.912
750.33	0.912
750.51	0.946
750.69	0.955
750.88	0.959
751.06	0.970
751.24	1.002
751.42	0.985
751.60	0.974
751.79	1.058
751.97	1.120
752.15	1.109
752.33	1.065
752.51	1.148
752.69	1.175
752.88	1.127
753.06	1.172
753.24	1.141
753.42	1.198
753.60	1.448
753.78	1.231
753.97	1.252
754.15	1.298
754.33	1.343
754.51	1.157
754.69	1.132
754.87	1.175
755.06	1.089
755.24	1.088
755.42	1.097
755.60	0.975
755.78	0.983
755.96	0.917
756.15	0.913
756.33	0.925
756.51	0.945
756.69	0.923
756.87	0.884
757.05	0.906
757.23	0.884
757.42	0.845
757.60	0.843
757.78	0.833
757.96	0.830
758.14	0.812
758.32	0.795
758.50	0.814
758.69	0.814
758.87	0.805
759.05	0.810
759.23	0.825
759.41	0.826
759.59	0.818
759.77	0.843
759.95	0.878
760.13	0.929
760.32	0.924
760.50	0.910
760.68	0.943
760.86	0.947
761.04	0.911
761.22	0.916
761.40	0.972
761.58	0.971
761.76	0.933
761.95	0.911
762.13	0.865
762.31	0.866
762.49	0.832
762.67	0.852
762.85	0.866
763.03	0.859
763.21	0.835
763.39	0.814
763.57	0.818
763.75	0.815
763.94	0.797
764.12	0.797
764.30	0.823
764.48	0.828
764.66	0.783
764.84	0.780
765.02	0.827
765.20	0.836
765.38	0.813
765.56	0.821
765.74	0.865
765.92	0.866
766.10	0.873
766.28	0.866
766.46	0.899
766.65	0.902
766.83	0.882
767.01	0.860
767.19	0.869
767.37	0.871
767.55	0.853
767.73	0.831
767.91	0.836
768.09	0.824
768.27	0.810
768.45	0.803
768.63	0.809
768.81	0.816
768.99	0.785
769.17	0.812
769.35	0.828
769.53	0.826
769.71	0.802
769.89	0.813
770.07	0.821
770.25	0.801
770.43	0.774
770.61	0.799
770.79	0.808
770.97	0.822
771.15	0.788
771.33	0.794
771.51	0.799
771.69	0.810
771.87	0.816
772.05	0.820
772.24	0.833
772.42	0.844
772.60	0.819
772.78	0.884
772.96	0.917
773.14	0.910
773.32	0.878
773.49	0.887
773.67	0.888
773.85	0.863
774.03	0.851
774.21	0.889
774.39	0.901
774.57	0.925
774.75	0.843
774.93	0.839
775.11	0.868
775.29	0.877
775.47	0.873
775.65	0.885
775.83	0.910
776.01	0.935
776.19	0.879
776.37	0.885
776.55	0.886
776.73	0.882
776.91	0.869
777.09	0.848
777.27	0.847
777.45	0.836
777.63	0.809
777.81	0.804
777.99	0.792
778.17	0.790
778.35	0.763
778.53	0.752
778.71	0.758
778.89	0.744
779.07	0.734
779.24	0.742
779.42	0.744
779.60	0.767
779.78	0.760
779.96	0.766
780.14	0.776
780.32	0.800
780.50	0.779
780.68	0.779
780.86	0.775
781.04	0.792
781.22	0.793
781.40	0.805
781.58	0.798
781.75	0.790
781.93	0.768
782.11	0.769
782.29	0.755
782.47	0.752
782.65	0.737
782.83	0.768
783.01	0.763
783.19	0.756
783.37	0.739
783.55	0.742
783.72	0.763
783.90	0.775
784.08	0.763
784.26	0.776
784.44	0.800
784.62	0.804
784.80	0.763
784.98	0.767
785.16	0.774
785.33	0.786
785.51	0.768
785.69	0.751
785.87	0.751
786.05	0.765
786.23	0.758
786.41	0.760
786.59	0.767
786.77	0.768
786.94	0.752
787.12	0.754
787.30	0.761
787.48	0.758
787.66	0.746
787.84	0.746
788.02	0.736
788.19	0.734
788.37	0.715
788.55	0.716
788.73	0.717
788.91	0.713
789.09	0.696
789.27	0.684
789.44	0.696
789.62	0.704
789.80	0.710
789.98	0.738
790.16	0.723
790.34	0.721
790.51	0.707
790.69	0.728
790.87	0.734
791.05	0.732
791.23	0.725
791.41	0.727
791.58	0.738
791.76	0.717
791.94	0.682
792.12	0.695
792.30	0.697
792.48	0.695
792.65	0.686
792.83	0.697
793.01	0.705
793.19	0.701
793.37	0.682
793.54	0.677
793.72	0.691
793.90	0.690
794.08	0.677
794.26	0.681
794.43	0.692
794.61	0.675
794.79	0.659
794.97	0.658
795.15	0.667
795.32	0.671
795.50	0.657
795.68	0.651
795.86	0.655
796.04	0.656
796.21	0.647
796.39	0.645
796.57	0.661
796.75	0.670
796.92	0.669
797.10	0.675
797.28	0.677
797.46	0.681
797.64	0.683
797.81	0.692
797.99	0.699
798.17	0.704
798.35	0.695
798.52	0.699
798.70	0.696
798.88	0.704
799.06	0.699
799.23	0.703
799.41	0.714
799.59	0.703
799.77	0.688
799.94	0.697
800.12	0.707
800.30	0.728
800.48	0.727
800.65	0.728
800.83	0.719
801.01	0.712
801.19	0.711
801.36	0.707
801.54	0.712
801.72	0.723
801.90	0.708
802.07	0.703
802.25	0.687
802.43	0.667
802.60	0.661
802.78	0.668
802.96	0.675
803.14	0.669
803.31	0.666
803.49	0.667
803.67	0.665
803.84	0.670
804.02	0.659
804.20	0.663
804.38	0.670
804.55	0.669
804.73	0.653
804.91	0.653
805.08	0.666
805.26	0.661
805.44	0.722
805.61	0.725
805.79	0.724
805.97	0.724
806.15	0.715
806.32	0.710
806.50	0.716
806.68	0.717
806.85	0.707
807.03	0.700
807.21	0.717
807.38	0.652
807.56	0.641
807.74	0.652
807.91	0.659
808.09	0.660
808.27	0.679
808.44	0.708
808.62	0.718
808.80	0.719
808.97	0.710
809.15	0.704
809.33	0.723
809.50	0.730
809.68	0.713
809.86	0.725
810.03	0.760
810.21	0.737
810.39	0.715
810.56	0.721
810.74	0.752
810.91	0.833
811.09	0.821
811.27	0.844
811.44	0.853
811.62	0.856
811.80	0.830
811.97	0.797
812.15	0.799
812.33	0.797
812.50	0.779
812.68	0.763
812.85	0.704
813.03	0.708
813.21	0.672
813.38	0.666
813.56	0.671
813.74	0.684
813.91	0.690
814.09	0.722
814.26	0.716
814.44	0.722
814.62	0.711
814.79	0.715
814.97	0.722
815.14	0.726
815.32	0.729
815.50	0.748
815.67	0.754
815.85	0.744
816.02	0.733
816.20	0.740
816.38	0.758
816.55	0.764
816.73	0.761
816.90	0.773
817.08	0.810
817.26	0.817
817.43	0.792
817.61	0.817
817.78	0.841
817.96	0.815
818.13	0.805
818.31	0.807
818.49	0.824
818.66	0.814
818.84	0.796
819.01	0.771
819.19	0.780
819.36	0.785
819.54	0.755
819.71	0.802
819.89	0.821
820.07	0.832
820.24	0.820
820.42	0.820
820.59	0.845
820.77	0.871
820.94	0.862
821.12	0.881
821.29	0.897
821.47	0.895
821.64	0.822
821.82	0.837
822.00	0.837
822.17	0.836
822.35	0.825
822.52	0.828
822.70	0.816
822.87	0.824
823.05	0.801
823.22	0.818
823.40	0.855
823.57	0.878
823.75	0.855
823.92	0.886
824.10	0.911
824.27	0.967
824.45	0.952
824.62	1.039
824.80	1.063
824.97	1.082
825.15	1.059
825.32	1.072
825.50	1.087
825.67	1.099
825.85	1.064
826.02	1.095
826.20	1.134
826.37	1.324
826.55	1.196
826.72	1.576
826.90	1.824
827.07	2.160
827.25	1.864
827.42	-0.000
827.60	-0.000
827.77	-0.000
827.95	-0.000
828.12	-0.000
828.30	-0.000
828.47	-0.000
828.65	2.460
828.82	-0.000
829.00	-0.000
829.17	-0.000
829.34	-0.000
829.52	-0.000
829.69	-0.000
829.87	-0.000
830.04	-0.000
830.22	-0.000
830.39	-0.000
830.57	-0.000
830.74	-0.000
830.92	-0.000
831.09	-0.000
831.26	-0.000
831.44	-0.000
831.61	-0.000
831.79	-0.000
831.96	-0.000
832.14	-0.000
832.31	-0.000
832.49	-0.000
832.66	-0.000
832.83	-0.000
833.01	-0.000
833.18	-0.000
833.36	-0.000
833.53	-0.000
833.70	-0.000
833.88	-0.000
834.05	-0.000
834.23	-0.000
834.40	-0.000
834.58	-0.000
834.75	-0.000
834.92	-0.000
835.10	-0.000
835.27	-0.000
835.45	-0.000
835.62	-0.000
835.79	-0.000
835.97	-0.000
836.14	-0.000
836.32	-0.000
836.49	-0.000
836.66	-0.000
836.84	-0.000
837.01	-0.000
837.18	-0.000
837.36	-0.000
837.53	-0.000
837.71	-0.000
837.88	-0.000
838.05	-0.000
838.23	-0.000
838.40	-0.000
838.58	-0.000
838.75	-0.000
838.92	-0.000
839.10	-0.000
839.27	-0.000
839.44	-0.000
839.62	-0.000
839.79	-0.000
839.96	-0.000
840.14	-0.000
840.31	-0.000
840.48	-0.000
840.66	-0.000
840.83	-0.000
841.01	-0.000
841.18	-0.000
841.35	-0.000
841.53	-0.000
841.70	-0.000
841.87	-0.000
842.05	-0.000
842.22	-0.000
842.39	-0.000
842.57	-0.000
842.74	-0.000
842.91	-0.000
843.09	-0.000
843.26	-0.000
843.43	-0.000
843.60	-0.000
843.78	-0.000
843.95	-0.000
844.12	-0.000
844.30	-0.000
844.47	-0.000
844.64	-0.000
844.82	-0.000
844.99	-0.000
845.16	-0.000
845.34	-0.000
845.51	-0.000
845.68	-0.000
845.85	-0.000
846.03	-0.000
846.20	-0.000
846.37	-0.000
846.55	-0.000
846.72	-0.000
846.89	-0.000
847.06	-0.000
847.24	-0.000
847.41	-0.000
847.58	-0.000
847.76	-0.000
847.93	-0.000
848.10	-0.000
848.27	-0.000
848.45	-0.000
848.62	-0.000
848.79	-0.000
848.97	-0.000
849.14	-0.000
849.31	-0.000
849.48	-0.000
849.66	-0.000
849.83	-0.000
850.00	-0.000
850.17	-0.000
850.35	-0.000
850.52	-0.000
850.69	-0.000
850.86	-0.000
851.04	-0.000
851.21	-0.000
851.38	-0.000
851.55	-0.000
851.72	-0.000
851.90	-0.000
852.07	-0.000
852.24	-0.000
852.41	-0.000
852.59	-0.000
852.76	-0.000
852.93	-0.000
853.10	-0.000
853.28	-0.000
853.45	-0.000
853.62	-0.000
853.79	-0.000
853.96	-0.000
854.14	-0.000
854.31	-0.000
854.48	-0.000
854.65	-0.000
854.82	-0.000
855.00	-0.000
855.17	-0.000
855.34	-0.000
855.51	-0.000
855.68	-0.000
855.86	-0.000
856.03	-0.000
856.20	-0.000
856.37	-0.000
856.54	-0.000
856.72	-0.000
856.89	-0.000
857.06	-0.000
857.23	-0.000
857.40	-0.000
857.57	-0.000
857.75	-0.000
857.92	-0.000
858.09	-0.000
858.26	-0.000
858.43	-0.000
858.60	-0.000
858.78	-0.000
858.95	-0.000
859.12	-0.000
859.29	-0.000
859.46	-0.000
859.63	-0.000
859.81	-0.000
859.98	-0.000
860.15	-0.000
860.32	-0.000
860.49	-0.000
860.66	-0.000
860.83	-0.000
861.01	-0.000
861.18	-0.000
861.35	-0.000
861.52	-0.000
861.69	-0.000
861.86	-0.000
862.03	-0.000
862.21	-0.000
862.38	-0.000
862.55	-0.000
862.72	-0.000
862.89	-0.000
863.06	-0.000
863.23	-0.000
863.40	-0.000
863.58	-0.000
863.75	-0.000
863.92	-0.000
864.09	-0.000
864.26	-0.000
864.43	-0.000
864.60	-0.000
864.77	-0.000
864.94	-0.000
865.11	-0.000
865.29	-0.000
865.46	-0.000
865.63	-0.000
865.80	-0.000
865.97	-0.000
866.14	-0.000
866.31	-0.000
866.48	-0.000
866.65	-0.000
866.82	-0.000
866.99	-0.000
867.16	-0.000
867.34	-0.000
867.51	-0.000
867.68	-0.000
867.85	-0.000
868.02	-0.000
868.19	-0.000
868.36	-0.000
868.53	-0.000
868.70	-0.000
868.87	-0.000
869.04	-0.000
869.21	-0.000
869.38	-0.000
869.55	-0.000
869.72	-0.000
869.89	-0.000
870.06	-0.000
870.24	-0.000
870.41	-0.000
870.58	-0.000
870.75	-0.000
870.92	-0.000
871.09	-0.000
871.26	-0.000
871.43	-0.000
871.60	-0.000
871.77	-0.000
871.94	-0.000
872.11	-0.000
872.28	-0.000
872.45	-0.000
872.62	-0.000
872.79	-0.000
872.96	-0.000
873.13	-0.000
873.30	-0.000
873.47	-0.000
873.64	-0.000
873.81	-0.000
873.98	-0.000
874.15	-0.000
874.32	-0.000
874.49	-0.000
874.66	-0.000
874.83	-0.000
875.00	-0.000
875.17	-0.000
875.34	-0.000
875.51	-0.000
875.68	-0.000
875.85	-0.000
876.02	-0.000
876.19	-0.000
876.36	-0.000
876.53	-0.000
876.70	-0.000
876.87	-0.000
877.04	-0.000
877.21	-0.000
877.38	-0.000
877.55	-0.000
877.72	-0.000
877.89	-0.000
878.06	-0.000
878.23	-0.000
878.39	-0.000
878.56	-0.000
878.73	-0.000
878.90	-0.000
879.07	-0.000
879.24	-0.000
879.41	-0.000
879.58	-0.000
879.75	-0.000
879.92	-0.000
880.09	-0.000
880.26	-0.000
880.43	-0.000
880.60	-0.000
880.77	-0.000
880.94	-0.000
881.11	-0.000
881.27	-0.000
881.44	-0.000
881.61	-0.000
881.78	-0.000
881.95	-0.000
882.12	-0.000
882.29	-0.000
882.46	-0.000
882.63	-0.000
882.80	-0.000
882.97	-0.000
883.14	-0.000
883.30	-0.000
883.47	-0.000
883.64	-0.000
883.81	-0.000
883.98	-0.000
884.15	-0.000
884.32	-0.000
884.49	-0.000
884.66	-0.000
884.82	-0.000
884.99	-0.000
885.16	-0.000
885.33	-0.000
885.50	-0.000
885.67	-0.000
885.84	-0.000
886.01	-0.000
886.17	-0.000
886.34	-0.000
886.51	-0.000
886.68	-0.000
886.85	-0.000
887.02	-0.000
887.19	-0.000
887.36	-0.000
887.52	-0.000
887.69	-0.000
887.86	-0.000
888.03	-0.000
888.20	-0.000
888.37	-0.000
888.54	-0.000
888.70	-0.000
888.87	-0.000
889.04	-0.000
889.21	-0.000
889.38	-0.000
889.55	-0.000
889.71	-0.000
889.88	-0.000
890.05	-0.000
890.22	-0.000
890.39	-0.000
>>>>>End Processed Spectral Data<<<<<
