SpectraSuite Data File
++++++++++++++++++++++++++++++++++++
Date: Fri Jun 19 15:22:26 CEST 2015
User: introlabs
Dark Spectrum Present: Yes
Reference Spectrum Present: Yes
Number of Sampled Component Spectra: 1
Spectrometers: USB4H08886
Integration Time (usec): 745692 (USB4H08886)
Spectra Averaged: 5 (USB4H08886)
Boxcar Smoothing: 5 (USB4H08886)
Correct for Electrical Dark: Yes (USB4H08886)
Strobe/Lamp Enabled: No (USB4H08886)
Correct for Detector Non-linearity: Yes (USB4H08886)
Correct for Stray Light: Yes (USB4H08886)
Number of Pixels in Processed Spectrum: 3648
>>>>>Begin Processed Spectral Data<<<<<
178.14	-0.000
178.36	-0.000
178.57	-0.000
178.79	-0.000
179.01	-0.000
179.22	-0.000
179.44	-0.000
179.65	-0.000
179.87	-0.000
180.08	-0.000
180.30	-0.000
180.52	-0.000
180.73	-0.000
180.95	-0.000
181.16	-0.000
181.38	-0.000
181.59	-0.000
181.81	-0.000
182.03	-0.000
182.24	-0.000
182.46	-0.000
182.67	-0.000
182.89	-0.000
183.10	-0.000
183.32	-0.000
183.54	-0.000
183.75	-0.000
183.97	-0.000
184.18	-0.000
184.40	-0.000
184.61	-0.000
184.83	-0.000
185.04	-0.000
185.26	-0.000
185.48	-0.000
185.69	-0.000
185.91	-0.000
186.12	-0.000
186.34	-0.000
186.55	-0.000
186.77	-0.000
186.98	-0.000
187.20	-0.000
187.42	-0.000
187.63	-0.000
187.85	-0.000
188.06	-0.000
188.28	-0.000
188.49	-0.000
188.71	-0.000
188.92	-0.000
189.14	-0.000
189.36	-0.000
189.57	-0.000
189.79	-0.000
190.00	-0.000
190.22	-0.000
190.43	-0.000
190.65	-0.000
190.86	-0.000
191.08	-0.000
191.29	-0.000
191.51	-0.000
191.72	-0.000
191.94	-0.000
192.16	-0.000
192.37	-0.000
192.59	-0.000
192.80	-0.000
193.02	-0.000
193.23	-0.000
193.45	-0.000
193.66	-0.000
193.88	-0.000
194.09	-0.000
194.31	-0.000
194.52	-0.000
194.74	-0.000
194.95	-0.000
195.17	-0.000
195.38	-0.000
195.60	-0.000
195.81	-0.000
196.03	-0.000
196.25	-0.000
196.46	-0.000
196.68	-0.000
196.89	-0.000
197.11	-0.000
197.32	-0.000
197.54	-0.000
197.75	-0.000
197.97	-0.000
198.18	-0.000
198.40	-0.000
198.61	-0.000
198.83	-0.000
199.04	-0.000
199.26	-0.000
199.47	-0.000
199.69	-0.000
199.90	-0.000
200.12	-0.000
200.33	-0.000
200.55	-0.000
200.76	-0.000
200.98	-0.000
201.19	-0.000
201.41	-0.000
201.62	-0.000
201.84	-0.000
202.05	-0.000
202.27	-0.000
202.48	-0.000
202.70	-0.000
202.91	-0.000
203.13	-0.000
203.34	-0.000
203.56	-0.000
203.77	-0.000
203.99	-0.000
204.20	-0.000
204.42	-0.000
204.63	-0.000
204.85	-0.000
205.06	-0.000
205.28	-0.000
205.49	-0.000
205.71	-0.000
205.92	-0.000
206.14	-0.000
206.35	-0.000
206.56	-0.000
206.78	-0.000
206.99	-0.000
207.21	-0.000
207.42	-0.000
207.64	-0.000
207.85	-0.000
208.07	-0.000
208.28	-0.000
208.50	-0.000
208.71	-0.000
208.93	-0.000
209.14	-0.000
209.36	-0.000
209.57	-0.000
209.79	-0.000
210.00	-0.000
210.22	-0.000
210.43	-0.000
210.64	-0.000
210.86	-0.000
211.07	-0.000
211.29	-0.000
211.50	-0.000
211.72	-0.000
211.93	-0.000
212.15	-0.000
212.36	-0.000
212.58	-0.000
212.79	-0.000
213.01	-0.000
213.22	-0.000
213.43	-0.000
213.65	-0.000
213.86	-0.000
214.08	-0.000
214.29	-0.000
214.51	-0.000
214.72	-0.000
214.94	-0.000
215.15	-0.000
215.36	-0.000
215.58	-0.000
215.79	-0.000
216.01	-0.000
216.22	-0.000
216.44	-0.000
216.65	-0.000
216.87	-0.000
217.08	-0.000
217.29	-0.000
217.51	-0.000
217.72	-0.000
217.94	-0.000
218.15	-0.000
218.37	-0.000
218.58	-0.000
218.80	-0.000
219.01	-0.000
219.22	-0.000
219.44	-0.000
219.65	-0.000
219.87	-0.000
220.08	-0.000
220.30	-0.000
220.51	-0.000
220.72	-0.000
220.94	-0.000
221.15	-0.000
221.37	-0.000
221.58	-0.000
221.79	-0.000
222.01	-0.000
222.22	-0.000
222.44	-0.000
222.65	-0.000
222.87	-0.000
223.08	-0.000
223.29	-0.000
223.51	-0.000
223.72	-0.000
223.94	-0.000
224.15	-0.000
224.36	-0.000
224.58	-0.000
224.79	-0.000
225.01	-0.000
225.22	-0.000
225.44	-0.000
225.65	-0.000
225.86	-0.000
226.08	-0.000
226.29	-0.000
226.51	-0.000
226.72	-0.000
226.93	-0.000
227.15	-0.000
227.36	-0.000
227.58	-0.000
227.79	-0.000
228.00	-0.000
228.22	-0.000
228.43	-0.000
228.65	-0.000
228.86	-0.000
229.07	-0.000
229.29	-0.000
229.50	-0.000
229.72	-0.000
229.93	-0.000
230.14	-0.000
230.36	-0.000
230.57	-0.000
230.78	-0.000
231.00	-0.000
231.21	-0.000
231.43	-0.000
231.64	-0.000
231.85	-0.000
232.07	-0.000
232.28	-0.000
232.50	-0.000
232.71	-0.000
232.92	-0.000
233.14	-0.000
233.35	-0.000
233.56	-0.000
233.78	-0.000
233.99	-0.000
234.21	-0.000
234.42	-0.000
234.63	-0.000
234.85	-0.000
235.06	-0.000
235.27	-0.000
235.49	-0.000
235.70	-0.000
235.91	-0.000
236.13	-0.000
236.34	-0.000
236.56	-0.000
236.77	-0.000
236.98	-0.000
237.20	-0.000
237.41	-0.000
237.62	-0.000
237.84	-0.000
238.05	-0.000
238.26	-0.000
238.48	-0.000
238.69	-0.000
238.91	-0.000
239.12	-0.000
239.33	-0.000
239.55	-0.000
239.76	-0.000
239.97	-0.000
240.19	-0.000
240.40	-0.000
240.61	-0.000
240.83	-0.000
241.04	-0.000
241.25	-0.000
241.47	-0.000
241.68	-0.000
241.89	-0.000
242.11	-0.000
242.32	-0.000
242.53	-0.000
242.75	-0.000
242.96	-0.000
243.17	-0.000
243.39	-0.000
243.60	-0.000
243.81	-0.000
244.03	-0.000
244.24	-0.000
244.45	-0.000
244.67	-0.000
244.88	-0.000
245.09	-0.000
245.31	-0.000
245.52	-0.000
245.73	-0.000
245.95	-0.000
246.16	-0.000
246.37	-0.000
246.59	-0.000
246.80	-0.000
247.01	-0.000
247.23	-0.000
247.44	-0.000
247.65	-0.000
247.87	-0.000
248.08	-0.000
248.29	-0.000
248.51	-0.000
248.72	-0.000
248.93	-0.000
249.15	-0.000
249.36	-0.000
249.57	-0.000
249.78	-0.000
250.00	-0.000
250.21	-0.000
250.42	-0.000
250.64	-0.000
250.85	-0.000
251.06	-0.000
251.28	-0.000
251.49	-0.000
251.70	-0.000
251.92	-0.000
252.13	-0.000
252.34	-0.000
252.55	-0.000
252.77	-0.000
252.98	-0.000
253.19	-0.000
253.41	-0.000
253.62	-0.000
253.83	-0.000
254.05	-0.000
254.26	-0.000
254.47	-0.000
254.68	-0.000
254.90	-0.000
255.11	-0.000
255.32	-0.000
255.54	-0.000
255.75	-0.000
255.96	-0.000
256.17	-0.000
256.39	-0.000
256.60	-0.000
256.81	-0.000
257.03	-0.000
257.24	-0.000
257.45	-0.000
257.66	-0.000
257.88	-0.000
258.09	-0.000
258.30	-0.000
258.51	-0.000
258.73	-0.000
258.94	-0.000
259.15	-0.000
259.37	-0.000
259.58	-0.000
259.79	-0.000
260.00	-0.000
260.22	-0.000
260.43	-0.000
260.64	-0.000
260.85	-0.000
261.07	-0.000
261.28	-0.000
261.49	-0.000
261.71	-0.000
261.92	-0.000
262.13	-0.000
262.34	-0.000
262.56	-0.000
262.77	-0.000
262.98	-0.000
263.19	-0.000
263.41	-0.000
263.62	-0.000
263.83	-0.000
264.04	-0.000
264.26	-0.000
264.47	-0.000
264.68	-0.000
264.89	-0.000
265.11	-0.000
265.32	-0.000
265.53	-0.000
265.74	-0.000
265.96	-0.000
266.17	-0.000
266.38	-0.000
266.59	-0.000
266.81	-0.000
267.02	-0.000
267.23	-0.000
267.44	-0.000
267.65	-0.000
267.87	-0.000
268.08	-0.000
268.29	-0.000
268.50	-0.000
268.72	-0.000
268.93	-0.000
269.14	-0.000
269.35	-0.000
269.57	-0.000
269.78	-0.000
269.99	-0.000
270.20	-0.000
270.41	-0.000
270.63	-0.000
270.84	-0.000
271.05	-0.000
271.26	-0.000
271.48	-0.000
271.69	-0.000
271.90	-0.000
272.11	-0.000
272.32	-0.000
272.54	-0.000
272.75	-0.000
272.96	-0.000
273.17	-0.000
273.39	-0.000
273.60	-0.000
273.81	-0.000
274.02	-0.000
274.23	-0.000
274.45	-0.000
274.66	-0.000
274.87	-0.000
275.08	-0.000
275.29	-0.000
275.51	-0.000
275.72	-0.000
275.93	-0.000
276.14	-0.000
276.35	-0.000
276.57	-0.000
276.78	-0.000
276.99	-0.000
277.20	-0.000
277.41	-0.000
277.63	-0.000
277.84	-0.000
278.05	-0.000
278.26	-0.000
278.47	-0.000
278.69	-0.000
278.90	-0.000
279.11	-0.000
279.32	-0.000
279.53	-0.000
279.74	-0.000
279.96	-0.000
280.17	-0.000
280.38	-0.000
280.59	-0.000
280.80	-0.000
281.02	-0.000
281.23	-0.000
281.44	-0.000
281.65	-0.000
281.86	-0.000
282.07	-0.000
282.29	-0.000
282.50	-0.000
282.71	-0.000
282.92	-0.000
283.13	-0.000
283.35	-0.000
283.56	-0.000
283.77	-0.000
283.98	-0.000
284.19	-0.000
284.40	-0.000
284.62	-0.000
284.83	-0.000
285.04	-0.000
285.25	-0.000
285.46	-0.000
285.67	-0.000
285.88	-0.000
286.10	-0.000
286.31	-0.000
286.52	-0.000
286.73	-0.000
286.94	-0.000
287.15	-0.000
287.37	-0.000
287.58	-0.000
287.79	-0.000
288.00	-0.000
288.21	-0.000
288.42	-0.000
288.63	-0.000
288.85	-0.000
289.06	-0.000
289.27	-0.000
289.48	-0.000
289.69	-0.000
289.90	-0.000
290.11	-0.000
290.33	-0.000
290.54	-0.000
290.75	-0.000
290.96	-0.000
291.17	-0.000
291.38	-0.000
291.59	-0.000
291.81	-0.000
292.02	-0.000
292.23	-0.000
292.44	-0.000
292.65	-0.000
292.86	-0.000
293.07	-0.000
293.28	-0.000
293.50	-0.000
293.71	-0.000
293.92	-0.000
294.13	-0.000
294.34	-0.000
294.55	-0.000
294.76	-0.000
294.97	-0.000
295.19	-0.000
295.40	-0.000
295.61	-0.000
295.82	-0.000
296.03	3.321
296.24	-0.000
296.45	2.038
296.66	1.735
296.87	1.749
297.09	1.790
297.30	1.962
297.51	1.671
297.72	1.638
297.93	1.703
298.14	1.663
298.35	1.631
298.56	1.605
298.77	1.700
298.99	1.674
299.20	1.658
299.41	1.640
299.62	1.592
299.83	1.588
300.04	1.538
300.25	1.538
300.46	1.578
300.67	1.555
300.88	1.519
301.10	1.528
301.31	1.588
301.52	1.528
301.73	1.478
301.94	1.483
302.15	1.489
302.36	1.443
302.57	1.384
302.78	1.387
302.99	1.422
303.20	1.431
303.41	1.351
303.63	1.338
303.84	1.347
304.05	1.346
304.26	1.295
304.47	1.300
304.68	1.305
304.89	1.296
305.10	1.262
305.31	1.248
305.52	1.292
305.73	1.285
305.94	1.250
306.15	1.240
306.37	1.260
306.58	1.266
306.79	1.239
307.00	1.258
307.21	1.299
307.42	1.290
307.63	1.259
307.84	1.227
308.05	1.258
308.26	1.260
308.47	1.243
308.68	1.238
308.89	1.235
309.10	1.234
309.31	1.199
309.52	1.186
309.73	1.200
309.95	1.195
310.16	1.168
310.37	1.158
310.58	1.173
310.79	1.167
311.00	1.166
311.21	1.170
311.42	1.168
311.63	1.163
311.84	1.148
312.05	1.145
312.26	1.164
312.47	1.176
312.68	1.154
312.89	1.137
313.10	1.144
313.31	1.119
313.52	1.121
313.73	1.123
313.94	1.124
314.15	1.107
314.36	1.089
314.57	1.081
314.78	1.069
314.99	1.065
315.21	1.055
315.42	1.059
315.63	1.070
315.84	1.048
316.05	1.035
316.26	1.045
316.47	1.061
316.68	1.058
316.89	1.042
317.10	1.061
317.31	1.065
317.52	1.067
317.73	1.049
317.94	1.048
318.15	1.098
318.36	1.095
318.57	1.076
318.78	1.067
318.99	1.099
319.20	1.096
319.41	1.064
319.62	1.068
319.83	1.078
320.04	1.074
320.25	1.062
320.46	1.021
320.67	1.026
320.88	1.023
321.09	1.009
321.30	0.995
321.51	1.007
321.72	1.005
321.93	0.989
322.14	0.982
322.35	1.005
322.56	1.008
322.77	0.997
322.98	1.007
323.19	1.015
323.40	1.022
323.61	1.003
323.82	1.000
324.03	1.005
324.24	1.003
324.45	0.992
324.66	0.975
324.87	0.970
325.08	0.971
325.29	0.951
325.50	0.943
325.71	0.946
325.92	0.955
326.13	0.942
326.34	0.941
326.55	0.950
326.76	0.948
326.97	0.938
327.18	0.932
327.39	0.954
327.60	0.956
327.80	0.960
328.01	0.959
328.22	0.957
328.43	0.960
328.64	0.950
328.85	0.953
329.06	0.955
329.27	0.955
329.48	0.952
329.69	0.935
329.90	0.945
330.11	0.936
330.32	0.930
330.53	0.924
330.74	0.924
330.95	0.923
331.16	0.908
331.37	0.916
331.58	0.915
331.79	0.915
332.00	0.907
332.21	0.901
332.42	0.904
332.63	0.896
332.83	0.892
333.04	0.894
333.25	0.905
333.46	0.904
333.67	0.891
333.88	0.893
334.09	0.902
334.30	0.899
334.51	0.891
334.72	0.886
334.93	0.889
335.14	0.888
335.35	0.882
335.56	0.878
335.77	0.885
335.98	0.884
336.18	0.878
336.39	0.871
336.60	0.873
336.81	0.871
337.02	0.872
337.23	0.876
337.44	0.878
337.65	0.879
337.86	0.869
338.07	0.864
338.28	0.869
338.49	0.867
338.70	0.860
338.91	0.868
339.11	0.875
339.32	0.871
339.53	0.860
339.74	0.858
339.95	0.855
340.16	0.854
340.37	0.848
340.58	0.846
340.79	0.849
341.00	0.848
341.21	0.838
341.41	0.838
341.62	0.838
341.83	0.839
342.04	0.834
342.25	0.845
342.46	0.849
342.67	0.847
342.88	0.841
343.09	0.841
343.30	0.848
343.50	0.851
343.71	0.842
343.92	0.841
344.13	0.844
344.34	0.844
344.55	0.828
344.76	0.826
344.97	0.830
345.18	0.828
345.38	0.825
345.59	0.819
345.80	0.818
346.01	0.817
346.22	0.812
346.43	0.807
346.64	0.815
346.85	0.815
347.06	0.809
347.26	0.810
347.47	0.813
347.68	0.809
347.89	0.807
348.10	0.801
348.31	0.807
348.52	0.807
348.73	0.805
348.93	0.802
349.14	0.802
349.35	0.801
349.56	0.796
349.77	0.791
349.98	0.797
350.19	0.794
350.39	0.791
350.60	0.786
350.81	0.801
351.02	0.800
351.23	0.795
351.44	0.799
351.65	0.801
351.86	0.799
352.06	0.798
352.27	0.797
352.48	0.798
352.69	0.797
352.90	0.792
353.11	0.779
353.31	0.786
353.52	0.782
353.73	0.774
353.94	0.774
354.15	0.778
354.36	0.778
354.57	0.770
354.77	0.772
354.98	0.771
355.19	0.771
355.40	0.770
355.61	0.774
355.82	0.778
356.02	0.777
356.23	0.772
356.44	0.774
356.65	0.778
356.86	0.779
357.07	0.773
357.27	0.776
357.48	0.778
357.69	0.774
357.90	0.760
358.11	0.757
358.32	0.760
358.52	0.762
358.73	0.753
358.94	0.755
359.15	0.760
359.36	0.760
359.56	0.756
359.77	0.754
359.98	0.760
360.19	0.760
360.40	0.757
360.61	0.758
360.81	0.756
361.02	0.757
361.23	0.749
361.44	0.747
361.65	0.748
361.85	0.748
362.06	0.747
362.27	0.748
362.48	0.749
362.69	0.750
362.89	0.744
363.10	0.746
363.31	0.751
363.52	0.754
363.73	0.750
363.93	0.749
364.14	0.751
364.35	0.752
364.56	0.742
364.77	0.744
364.97	0.746
365.18	0.747
365.39	0.742
365.60	0.739
365.81	0.739
366.01	0.738
366.22	0.735
366.43	0.733
366.64	0.735
366.84	0.741
367.05	0.738
367.26	0.737
367.47	0.739
367.68	0.738
367.88	0.735
368.09	0.733
368.30	0.736
368.51	0.736
368.71	0.736
368.92	0.740
369.13	0.738
369.34	0.737
369.55	0.736
369.75	0.737
369.96	0.743
370.17	0.743
370.38	0.741
370.58	0.740
370.79	0.745
371.00	0.744
371.21	0.735
371.41	0.740
371.62	0.743
371.83	0.739
372.04	0.737
372.24	0.731
372.45	0.732
372.66	0.731
372.87	0.728
373.07	0.725
373.28	0.726
373.49	0.729
373.70	0.720
373.90	0.719
374.11	0.727
374.32	0.727
374.53	0.726
374.73	0.727
374.94	0.729
375.15	0.730
375.36	0.728
375.56	0.736
375.77	0.736
375.98	0.736
376.19	0.734
376.39	0.729
376.60	0.731
376.81	0.732
377.02	0.730
377.22	0.729
377.43	0.729
377.64	0.729
377.84	0.721
378.05	0.725
378.26	0.731
378.47	0.731
378.67	0.727
378.88	0.725
379.09	0.725
379.30	0.725
379.50	0.723
379.71	0.724
379.92	0.726
380.12	0.725
380.33	0.717
380.54	0.714
380.75	0.720
380.95	0.720
381.16	0.719
381.37	0.719
381.57	0.721
381.78	0.721
381.99	0.721
382.20	0.721
382.40	0.724
382.61	0.724
382.82	0.722
383.02	0.716
383.23	0.719
383.44	0.719
383.64	0.717
383.85	0.720
384.06	0.722
384.27	0.720
384.47	0.718
384.68	0.719
384.89	0.724
385.09	0.723
385.30	0.723
385.51	0.721
385.71	0.724
385.92	0.726
386.13	0.724
386.33	0.727
386.54	0.728
386.75	0.727
386.95	0.723
387.16	0.719
387.37	0.721
387.58	0.721
387.78	0.720
387.99	0.718
388.20	0.718
388.40	0.716
388.61	0.712
388.82	0.716
389.02	0.717
389.23	0.717
389.44	0.715
389.64	0.715
389.85	0.726
390.06	0.726
390.26	0.727
390.47	0.727
390.68	0.729
390.88	0.727
391.09	0.723
391.30	0.723
391.50	0.723
391.71	0.723
391.92	0.721
392.12	0.713
392.33	0.714
392.53	0.713
392.74	0.713
392.95	0.713
393.15	0.716
393.36	0.719
393.57	0.717
393.77	0.720
393.98	0.722
394.19	0.722
394.39	0.722
394.60	0.723
394.81	0.725
395.01	0.723
395.22	0.721
395.43	0.722
395.63	0.726
395.84	0.727
396.04	0.724
396.25	0.725
396.46	0.726
396.66	0.724
396.87	0.722
397.08	0.719
397.28	0.722
397.49	0.723
397.69	0.719
397.90	0.715
398.11	0.716
398.31	0.717
398.52	0.714
398.73	0.715
398.93	0.715
399.14	0.714
399.34	0.713
399.55	0.714
399.76	0.714
399.96	0.715
400.17	0.714
400.37	0.712
400.58	0.718
400.79	0.720
400.99	0.717
401.20	0.723
401.41	0.725
401.61	0.727
401.82	0.732
402.02	0.732
402.23	0.733
402.44	0.734
402.64	0.734
402.85	0.729
403.05	0.728
403.26	0.727
403.47	0.721
403.67	0.720
403.88	0.721
404.08	0.714
404.29	0.713
404.50	0.713
404.70	0.713
404.91	0.711
405.11	0.709
405.32	0.710
405.52	0.710
405.73	0.710
405.94	0.708
406.14	0.711
406.35	0.712
406.55	0.712
406.76	0.710
406.97	0.711
407.17	0.713
407.38	0.713
407.58	0.712
407.79	0.715
407.99	0.717
408.20	0.718
408.41	0.714
408.61	0.712
408.82	0.712
409.02	0.712
409.23	0.710
409.43	0.709
409.64	0.710
409.84	0.709
410.05	0.706
410.26	0.704
410.46	0.703
410.67	0.703
410.87	0.705
411.08	0.707
411.28	0.708
411.49	0.709
411.69	0.707
411.90	0.709
412.11	0.711
412.31	0.712
412.52	0.711
412.72	0.712
412.93	0.712
413.13	0.711
413.34	0.707
413.54	0.709
413.75	0.711
413.95	0.711
414.16	0.707
414.37	0.709
414.57	0.709
414.78	0.712
414.98	0.710
415.19	0.712
415.39	0.709
415.60	0.711
415.80	0.710
416.01	0.708
416.21	0.710
416.42	0.711
416.62	0.706
416.83	0.706
417.03	0.704
417.24	0.705
417.44	0.702
417.65	0.702
417.86	0.702
418.06	0.701
418.27	0.699
418.47	0.700
418.68	0.701
418.88	0.701
419.09	0.700
419.29	0.701
419.50	0.701
419.70	0.701
419.91	0.700
420.11	0.698
420.32	0.700
420.52	0.700
420.73	0.699
420.93	0.699
421.14	0.701
421.34	0.700
421.55	0.697
421.75	0.697
421.96	0.697
422.16	0.697
422.37	0.696
422.57	0.693
422.78	0.695
422.98	0.691
423.19	0.689
423.39	0.688
423.60	0.691
423.80	0.693
424.01	0.691
424.21	0.694
424.42	0.695
424.62	0.695
424.83	0.694
425.03	0.694
425.23	0.696
425.44	0.696
425.64	0.696
425.85	0.695
426.05	0.695
426.26	0.695
426.46	0.692
426.67	0.691
426.87	0.696
427.08	0.696
427.28	0.694
427.49	0.695
427.69	0.695
427.90	0.695
428.10	0.692
428.31	0.692
428.51	0.694
428.71	0.693
428.92	0.694
429.12	0.691
429.33	0.692
429.53	0.696
429.74	0.700
429.94	0.701
430.15	0.700
430.35	0.700
430.56	0.697
430.76	0.696
430.96	0.696
431.17	0.693
431.37	0.691
431.58	0.689
431.78	0.685
431.99	0.678
432.19	0.679
432.40	0.681
432.60	0.682
432.80	0.684
433.01	0.683
433.21	0.683
433.42	0.685
433.62	0.685
433.83	0.685
434.03	0.687
434.23	0.690
434.44	0.689
434.64	0.687
434.85	0.692
435.05	0.692
435.26	0.692
435.46	0.691
435.66	0.690
435.87	0.691
436.07	0.691
436.28	0.687
436.48	0.684
436.69	0.683
436.89	0.684
437.09	0.678
437.30	0.676
437.50	0.677
437.71	0.689
437.91	0.688
438.11	0.689
438.32	0.692
438.52	0.692
438.73	0.691
438.93	0.689
439.13	0.689
439.34	0.692
439.54	0.690
439.75	0.690
439.95	0.680
440.15	0.684
440.36	0.683
440.56	0.680
440.77	0.680
440.97	0.681
441.17	0.680
441.38	0.681
441.58	0.679
441.79	0.679
441.99	0.677
442.19	0.676
442.40	0.673
442.60	0.673
442.81	0.671
443.01	0.672
443.21	0.672
443.42	0.671
443.62	0.670
443.82	0.669
444.03	0.670
444.23	0.670
444.44	0.670
444.64	0.670
444.84	0.670
445.05	0.670
445.25	0.668
445.45	0.669
445.66	0.671
445.86	0.669
446.06	0.671
446.27	0.671
446.47	0.673
446.68	0.672
446.88	0.670
447.08	0.670
447.29	0.671
447.49	0.671
447.69	0.670
447.90	0.669
448.10	0.672
448.30	0.670
448.51	0.671
448.71	0.669
448.91	0.671
449.12	0.670
449.32	0.671
449.52	0.670
449.73	0.673
449.93	0.672
450.14	0.673
450.34	0.671
450.54	0.673
450.75	0.670
450.95	0.670
451.15	0.669
451.36	0.671
451.56	0.668
451.76	0.667
451.97	0.664
452.17	0.665
452.37	0.663
452.58	0.660
452.78	0.659
452.98	0.662
453.19	0.661
453.39	0.662
453.59	0.661
453.79	0.662
454.00	0.662
454.20	0.662
454.40	0.662
454.61	0.664
454.81	0.664
455.01	0.663
455.22	0.664
455.42	0.665
455.62	0.663
455.83	0.663
456.03	0.666
456.23	0.667
456.44	0.667
456.64	0.667
456.84	0.667
457.04	0.667
457.25	0.666
457.45	0.663
457.65	0.662
457.86	0.663
458.06	0.661
458.26	0.657
458.47	0.656
458.67	0.657
458.87	0.656
459.07	0.654
459.28	0.656
459.48	0.658
459.68	0.658
459.89	0.658
460.09	0.657
460.29	0.658
460.49	0.659
460.70	0.658
460.90	0.658
461.10	0.659
461.31	0.659
461.51	0.656
461.71	0.658
461.91	0.659
462.12	0.659
462.32	0.658
462.52	0.659
462.72	0.662
462.93	0.662
463.13	0.661
463.33	0.662
463.53	0.663
463.74	0.663
463.94	0.658
464.14	0.659
464.35	0.660
464.55	0.660
464.75	0.658
464.95	0.656
465.16	0.658
465.36	0.656
465.56	0.655
465.76	0.654
465.97	0.655
466.17	0.655
466.37	0.654
466.57	0.654
466.78	0.655
466.98	0.655
467.18	0.653
467.38	0.651
467.59	0.653
467.79	0.654
467.99	0.653
468.19	0.654
468.39	0.656
468.60	0.656
468.80	0.655
469.00	0.656
469.20	0.657
469.41	0.657
469.61	0.657
469.81	0.657
470.01	0.655
470.22	0.656
470.42	0.654
470.62	0.652
470.82	0.653
471.02	0.652
471.23	0.651
471.43	0.651
471.63	0.654
471.83	0.653
472.04	0.652
472.24	0.651
472.44	0.657
472.64	0.657
472.84	0.656
473.05	0.656
473.25	0.658
473.45	0.658
473.65	0.656
473.85	0.657
474.06	0.658
474.26	0.658
474.46	0.659
474.66	0.655
474.86	0.655
475.07	0.655
475.27	0.654
475.47	0.651
475.67	0.652
475.87	0.654
476.08	0.650
476.28	0.651
476.48	0.652
476.68	0.651
476.88	0.649
477.09	0.650
477.29	0.652
477.49	0.651
477.69	0.651
477.89	0.651
478.09	0.650
478.30	0.653
478.50	0.650
478.70	0.650
478.90	0.650
479.10	0.653
479.31	0.654
479.51	0.652
479.71	0.653
479.91	0.653
480.11	0.652
480.31	0.652
480.52	0.650
480.72	0.650
480.92	0.649
481.12	0.647
481.32	0.645
481.52	0.643
481.72	0.643
481.93	0.646
482.13	0.647
482.33	0.646
482.53	0.645
482.73	0.646
482.93	0.648
483.14	0.647
483.34	0.647
483.54	0.648
483.74	0.647
483.94	0.646
484.14	0.642
484.34	0.642
484.55	0.643
484.75	0.642
484.95	0.640
485.15	0.639
485.35	0.639
485.55	0.638
485.75	0.636
485.96	0.637
486.16	0.638
486.36	0.637
486.56	0.636
486.76	0.636
486.96	0.636
487.16	0.636
487.36	0.634
487.57	0.634
487.77	0.635
487.97	0.636
488.17	0.633
488.37	0.633
488.57	0.633
488.77	0.633
488.97	0.632
489.18	0.632
489.38	0.634
489.58	0.635
489.78	0.634
489.98	0.633
490.18	0.633
490.38	0.634
490.58	0.633
490.78	0.634
490.98	0.635
491.19	0.636
491.39	0.635
491.59	0.634
491.79	0.637
491.99	0.637
492.19	0.637
492.39	0.640
492.59	0.639
492.79	0.641
492.99	0.642
493.20	0.642
493.40	0.642
493.60	0.643
493.80	0.642
494.00	0.639
494.20	0.640
494.40	0.640
494.60	0.637
494.80	0.642
495.00	0.640
495.20	0.639
495.40	0.637
495.61	0.639
495.81	0.639
496.01	0.643
496.21	0.644
496.41	0.643
496.61	0.643
496.81	0.642
497.01	0.637
497.21	0.636
497.41	0.637
497.61	0.637
497.81	0.634
498.01	0.635
498.21	0.633
498.41	0.630
498.61	0.630
498.82	0.631
499.02	0.633
499.22	0.634
499.42	0.634
499.62	0.634
499.82	0.635
500.02	0.636
500.22	0.635
500.42	0.637
500.62	0.637
500.82	0.638
501.02	0.636
501.22	0.636
501.42	0.636
501.62	0.638
501.82	0.638
502.02	0.638
502.22	0.637
502.42	0.639
502.62	0.636
502.82	0.637
503.02	0.637
503.22	0.637
503.42	0.635
503.63	0.635
503.83	0.633
504.03	0.631
504.23	0.630
504.43	0.630
504.63	0.631
504.83	0.630
505.03	0.629
505.23	0.631
505.43	0.633
505.63	0.633
505.83	0.633
506.03	0.635
506.23	0.636
506.43	0.637
506.63	0.636
506.83	0.635
507.03	0.637
507.23	0.638
507.43	0.635
507.63	0.635
507.83	0.635
508.03	0.635
508.23	0.634
508.43	0.633
508.63	0.635
508.83	0.636
509.03	0.636
509.23	0.635
509.43	0.636
509.63	0.637
509.83	0.636
510.03	0.638
510.23	0.640
510.43	0.641
510.63	0.641
510.83	0.641
511.03	0.642
511.23	0.640
511.43	0.639
511.63	0.640
511.83	0.643
512.03	0.643
512.22	0.640
512.42	0.639
512.62	0.640
512.82	0.640
513.02	0.639
513.22	0.640
513.42	0.642
513.62	0.645
513.82	0.643
514.02	0.642
514.22	0.643
514.42	0.643
514.62	0.643
514.82	0.643
515.02	0.645
515.22	0.648
515.42	0.647
515.62	0.649
515.82	0.648
516.02	0.649
516.22	0.650
516.42	0.651
516.62	0.653
516.82	0.654
517.01	0.653
517.21	0.652
517.41	0.655
517.61	0.655
517.81	0.651
518.01	0.650
518.21	0.649
518.41	0.649
518.61	0.648
518.81	0.648
519.01	0.648
519.21	0.648
519.41	0.648
519.61	0.642
519.81	0.645
520.00	0.645
520.20	0.646
520.40	0.650
520.60	0.650
520.80	0.649
521.00	0.649
521.20	0.650
521.40	0.655
521.60	0.655
521.80	0.654
522.00	0.654
522.20	0.656
522.39	0.656
522.59	0.653
522.79	0.654
522.99	0.656
523.19	0.655
523.39	0.653
523.59	0.650
523.79	0.653
523.99	0.655
524.19	0.654
524.38	0.653
524.58	0.654
524.78	0.654
524.98	0.653
525.18	0.655
525.38	0.656
525.58	0.656
525.78	0.655
525.98	0.653
526.18	0.653
526.37	0.652
526.57	0.653
526.77	0.653
526.97	0.654
527.17	0.654
527.37	0.651
527.57	0.653
527.77	0.655
527.96	0.655
528.16	0.654
528.36	0.656
528.56	0.658
528.76	0.656
528.96	0.656
529.16	0.657
529.36	0.659
529.55	0.659
529.75	0.656
529.95	0.656
530.15	0.657
530.35	0.659
530.55	0.656
530.75	0.657
530.94	0.658
531.14	0.658
531.34	0.657
531.54	0.655
531.74	0.658
531.94	0.661
532.13	0.660
532.33	0.662
532.53	0.660
532.73	0.659
532.93	0.658
533.13	0.659
533.33	0.659
533.52	0.660
533.72	0.663
533.92	0.661
534.12	0.659
534.32	0.659
534.52	0.658
534.71	0.660
534.91	0.663
535.11	0.664
535.31	0.662
535.51	0.664
535.71	0.665
535.90	0.663
536.10	0.664
536.30	0.665
536.50	0.666
536.70	0.666
536.89	0.664
537.09	0.664
537.29	0.665
537.49	0.666
537.69	0.663
537.89	0.664
538.08	0.663
538.28	0.662
538.48	0.662
538.68	0.664
538.88	0.666
539.07	0.666
539.27	0.664
539.47	0.663
539.67	0.664
539.87	0.665
540.06	0.662
540.26	0.663
540.46	0.665
540.66	0.662
540.86	0.660
541.05	0.660
541.25	0.661
541.45	0.662
541.65	0.660
541.84	0.662
542.04	0.662
542.24	0.664
542.44	0.663
542.64	0.664
542.83	0.667
543.03	0.667
543.23	0.665
543.43	0.665
543.62	0.667
543.82	0.667
544.02	0.666
544.22	0.666
544.42	0.669
544.61	0.670
544.81	0.667
545.01	0.666
545.21	0.668
545.40	0.668
545.60	0.667
545.80	0.670
546.00	0.670
546.19	0.669
546.39	0.668
546.59	0.666
546.79	0.667
546.98	0.667
547.18	0.667
547.38	0.668
547.58	0.670
547.77	0.670
547.97	0.667
548.17	0.668
548.37	0.668
548.56	0.668
548.76	0.667
548.96	0.668
549.16	0.670
549.35	0.670
549.55	0.668
549.75	0.668
549.95	0.671
550.14	0.671
550.34	0.670
550.54	0.676
550.73	0.679
550.93	0.681
551.13	0.678
551.33	0.678
551.52	0.678
551.72	0.678
551.92	0.676
552.12	0.677
552.31	0.678
552.51	0.677
552.71	0.672
552.90	0.673
553.10	0.673
553.30	0.673
553.50	0.672
553.69	0.674
553.89	0.674
554.09	0.675
554.28	0.672
554.48	0.674
554.68	0.676
554.87	0.675
555.07	0.672
555.27	0.672
555.47	0.673
555.66	0.674
555.86	0.672
556.06	0.675
556.25	0.675
556.45	0.682
556.65	0.681
556.84	0.684
557.04	0.687
557.24	0.689
557.43	0.689
557.63	0.692
557.83	0.694
558.02	0.694
558.22	0.698
558.42	0.699
558.61	0.691
558.81	0.692
559.01	0.689
559.21	0.688
559.40	0.688
559.60	0.688
559.80	0.684
559.99	0.685
560.19	0.687
560.39	0.681
560.58	0.680
560.78	0.680
560.97	0.683
561.17	0.682
561.37	0.680
561.56	0.680
561.76	0.682
561.96	0.682
562.15	0.679
562.35	0.681
562.55	0.682
562.74	0.682
562.94	0.680
563.14	0.678
563.33	0.678
563.53	0.678
563.73	0.676
563.92	0.677
564.12	0.680
564.31	0.682
564.51	0.680
564.71	0.682
564.90	0.684
565.10	0.685
565.30	0.687
565.49	0.690
565.69	0.692
565.89	0.692
566.08	0.689
566.28	0.691
566.47	0.692
566.67	0.691
566.87	0.689
567.06	0.691
567.26	0.697
567.46	0.693
567.65	0.692
567.85	0.693
568.04	0.696
568.24	0.696
568.44	0.693
568.63	0.692
568.83	0.693
569.02	0.692
569.22	0.688
569.42	0.684
569.61	0.687
569.81	0.686
570.00	0.684
570.20	0.685
570.40	0.686
570.59	0.685
570.79	0.683
570.98	0.681
571.18	0.683
571.38	0.683
571.57	0.680
571.77	0.678
571.96	0.681
572.16	0.679
572.35	0.673
572.55	0.675
572.75	0.672
572.94	0.672
573.14	0.671
573.33	0.670
573.53	0.671
573.73	0.670
573.92	0.668
574.12	0.667
574.31	0.669
574.51	0.670
574.70	0.667
574.90	0.669
575.09	0.672
575.29	0.672
575.49	0.670
575.68	0.670
575.88	0.672
576.07	0.672
576.27	0.670
576.46	0.669
576.66	0.669
576.86	0.668
577.05	0.666
577.25	0.664
577.44	0.666
577.64	0.665
577.83	0.664
578.03	0.665
578.22	0.664
578.42	0.664
578.61	0.663
578.81	0.663
579.00	0.662
579.20	0.662
579.40	0.661
579.59	0.660
579.79	0.660
579.98	0.660
580.18	0.659
580.37	0.659
580.57	0.661
580.76	0.665
580.96	0.664
581.15	0.665
581.35	0.667
581.54	0.667
581.74	0.667
581.93	0.668
582.13	0.669
582.32	0.666
582.52	0.664
582.71	0.663
582.91	0.658
583.10	0.658
583.30	0.656
583.49	0.655
583.69	0.659
583.88	0.660
584.08	0.659
584.27	0.662
584.47	0.665
584.66	0.666
584.86	0.665
585.05	0.668
585.25	0.670
585.44	0.670
585.64	0.668
585.83	0.665
586.03	0.665
586.22	0.663
586.42	0.659
586.61	0.660
586.81	0.662
587.00	0.662
587.20	0.660
587.39	0.660
587.59	0.661
587.78	0.662
587.98	0.663
588.17	0.664
588.37	0.666
588.56	0.668
588.76	0.664
588.95	0.664
589.15	0.668
589.34	0.670
589.54	0.670
589.73	0.671
589.92	0.675
590.12	0.674
590.31	0.672
590.51	0.678
590.70	0.680
590.90	0.681
591.09	0.680
591.29	0.678
591.48	0.678
591.68	0.679
591.87	0.677
592.06	0.676
592.26	0.678
592.45	0.678
592.65	0.671
592.84	0.671
593.04	0.673
593.23	0.675
593.43	0.673
593.62	0.672
593.81	0.672
594.01	0.671
594.20	0.669
594.40	0.668
594.59	0.670
594.79	0.671
594.98	0.669
595.17	0.668
595.37	0.669
595.56	0.670
595.76	0.670
595.95	0.672
596.14	0.675
596.34	0.677
596.53	0.676
596.73	0.678
596.92	0.679
597.12	0.683
597.31	0.683
597.50	0.682
597.70	0.684
597.89	0.684
598.09	0.680
598.28	0.681
598.47	0.683
598.67	0.681
598.86	0.677
599.06	0.678
599.25	0.678
599.44	0.676
599.64	0.674
599.83	0.671
600.03	0.673
600.22	0.674
600.41	0.674
600.61	0.672
600.80	0.674
601.00	0.675
601.19	0.670
601.38	0.668
601.58	0.670
601.77	0.672
601.96	0.674
602.16	0.674
602.35	0.682
602.55	0.680
602.74	0.681
602.93	0.683
603.13	0.688
603.32	0.690
603.51	0.690
603.71	0.694
603.90	0.695
604.09	0.696
604.29	0.694
604.48	0.689
604.68	0.689
604.87	0.688
605.06	0.684
605.26	0.681
605.45	0.682
605.64	0.681
605.84	0.676
606.03	0.675
606.22	0.673
606.42	0.673
606.61	0.669
606.80	0.669
607.00	0.670
607.19	0.671
607.38	0.669
607.58	0.670
607.77	0.673
607.96	0.673
608.16	0.671
608.35	0.676
608.54	0.679
608.74	0.681
608.93	0.686
609.12	0.689
609.32	0.692
609.51	0.695
609.70	0.693
609.90	0.695
610.09	0.699
610.28	0.704
610.48	0.698
610.67	0.700
610.86	0.701
611.06	0.696
611.25	0.694
611.44	0.695
611.64	0.694
611.83	0.697
612.02	0.694
612.21	0.693
612.41	0.692
612.60	0.691
612.79	0.687
612.99	0.688
613.18	0.689
613.37	0.687
613.57	0.684
613.76	0.686
613.95	0.683
614.14	0.683
614.34	0.680
614.53	0.681
614.72	0.683
614.92	0.684
615.11	0.681
615.30	0.677
615.49	0.679
615.69	0.681
615.88	0.678
616.07	0.678
616.26	0.680
616.46	0.681
616.65	0.678
616.84	0.677
617.04	0.678
617.23	0.682
617.42	0.683
617.61	0.686
617.81	0.686
618.00	0.688
618.19	0.687
618.38	0.691
618.58	0.694
618.77	0.695
618.96	0.694
619.15	0.696
619.35	0.698
619.54	0.698
619.73	0.694
619.92	0.696
620.12	0.700
620.31	0.700
620.50	0.696
620.69	0.696
620.89	0.699
621.08	0.700
621.27	0.700
621.46	0.699
621.66	0.703
621.85	0.702
622.04	0.699
622.23	0.700
622.43	0.701
622.62	0.700
622.81	0.700
623.00	0.699
623.19	0.703
623.39	0.701
623.58	0.699
623.77	0.698
623.96	0.701
624.16	0.700
624.35	0.695
624.54	0.698
624.73	0.701
624.92	0.698
625.12	0.695
625.31	0.695
625.50	0.697
625.69	0.698
625.88	0.694
626.08	0.694
626.27	0.695
626.46	0.695
626.65	0.692
626.84	0.693
627.04	0.698
627.23	0.699
627.42	0.695
627.61	0.697
627.80	0.701
628.00	0.702
628.19	0.700
628.38	0.704
628.57	0.706
628.76	0.706
628.96	0.703
629.15	0.704
629.34	0.707
629.53	0.707
629.72	0.701
629.91	0.701
630.11	0.705
630.30	0.706
630.49	0.707
630.68	0.707
630.87	0.711
631.06	0.713
631.26	0.708
631.45	0.709
631.64	0.718
631.83	0.720
632.02	0.717
632.21	0.715
632.41	0.722
632.60	0.717
632.79	0.716
632.98	0.717
633.17	0.718
633.36	0.720
633.55	0.717
633.75	0.712
633.94	0.714
634.13	0.714
634.32	0.711
634.51	0.706
634.70	0.708
634.89	0.707
635.09	0.703
635.28	0.703
635.47	0.703
635.66	0.706
635.85	0.702
636.04	0.703
636.23	0.707
636.43	0.709
636.62	0.707
636.81	0.706
637.00	0.709
637.19	0.712
637.38	0.709
637.57	0.709
637.76	0.711
637.95	0.712
638.15	0.709
638.34	0.706
638.53	0.709
638.72	0.711
638.91	0.709
639.10	0.707
639.29	0.707
639.48	0.707
639.67	0.708
639.87	0.707
640.06	0.712
640.25	0.712
640.44	0.713
640.63	0.714
640.82	0.716
641.01	0.716
641.20	0.716
641.39	0.717
641.58	0.720
641.78	0.719
641.97	0.715
642.16	0.728
642.35	0.728
642.54	0.727
642.73	0.721
642.92	0.719
643.11	0.721
643.30	0.720
643.49	0.715
643.68	0.717
643.87	0.718
644.06	0.718
644.25	0.698
644.45	0.700
644.64	0.701
644.83	0.702
645.02	0.699
645.21	0.698
645.40	0.699
645.59	0.700
645.78	0.695
645.97	0.697
646.16	0.698
646.35	0.699
646.54	0.697
646.73	0.699
646.92	0.700
647.11	0.700
647.30	0.697
647.49	0.699
647.68	0.698
647.88	0.697
648.07	0.690
648.26	0.693
648.45	0.695
648.64	0.692
648.83	0.689
649.02	0.691
649.21	0.701
649.40	0.700
649.59	0.695
649.78	0.696
649.97	0.710
650.16	0.709
650.35	0.703
650.54	0.706
650.73	0.714
650.92	0.710
651.11	0.704
651.30	0.701
651.49	0.705
651.68	0.705
651.87	0.702
652.06	0.692
652.25	0.696
652.44	0.700
652.63	0.698
652.82	0.699
653.01	0.700
653.20	0.699
653.39	0.689
653.58	0.687
653.77	0.686
653.96	0.682
654.15	0.674
654.34	0.672
654.53	0.667
654.72	0.660
654.91	0.650
655.10	0.646
655.29	0.644
655.48	0.642
655.67	0.636
655.86	0.634
656.05	0.632
656.24	0.632
656.43	0.626
656.62	0.625
656.81	0.625
657.00	0.621
657.19	0.618
657.38	0.617
657.57	0.615
657.76	0.616
657.95	0.613
658.14	0.616
658.33	0.618
658.51	0.623
658.70	0.623
658.89	0.625
659.08	0.635
659.27	0.643
659.46	0.644
659.65	0.652
659.84	0.655
660.03	0.658
660.22	0.659
660.41	0.663
660.60	0.661
660.79	0.663
660.98	0.668
661.17	0.666
661.36	0.666
661.55	0.667
661.74	0.665
661.92	0.669
662.11	0.672
662.30	0.671
662.49	0.663
662.68	0.663
662.87	0.666
663.06	0.660
663.25	0.662
663.44	0.662
663.63	0.662
663.82	0.661
664.01	0.656
664.20	0.655
664.38	0.656
664.57	0.657
664.76	0.657
664.95	0.657
665.14	0.662
665.33	0.657
665.52	0.664
665.71	0.668
665.90	0.667
666.09	0.668
666.28	0.666
666.46	0.665
666.65	0.665
666.84	0.663
667.03	0.658
667.22	0.656
667.41	0.659
667.60	0.649
667.79	0.642
667.98	0.644
668.16	0.644
668.35	0.644
668.54	0.641
668.73	0.641
668.92	0.642
669.11	0.642
669.30	0.637
669.49	0.633
669.67	0.635
669.86	0.638
670.05	0.636
670.24	0.634
670.43	0.631
670.62	0.630
670.81	0.625
671.00	0.626
671.18	0.626
671.37	0.625
671.56	0.623
671.75	0.621
671.94	0.618
672.13	0.616
672.32	0.612
672.50	0.611
672.69	0.611
672.88	0.612
673.07	0.608
673.26	0.610
673.45	0.610
673.63	0.610
673.82	0.607
674.01	0.609
674.20	0.609
674.39	0.608
674.58	0.608
674.76	0.608
674.95	0.607
675.14	0.606
675.33	0.602
675.52	0.601
675.71	0.600
675.89	0.600
676.08	0.596
676.27	0.595
676.46	0.595
676.65	0.594
676.84	0.594
677.02	0.596
677.21	0.597
677.40	0.597
677.59	0.595
677.78	0.596
677.96	0.599
678.15	0.598
678.34	0.596
678.53	0.597
678.72	0.597
678.90	0.595
679.09	0.591
679.28	0.587
679.47	0.587
679.66	0.586
679.84	0.583
680.03	0.580
680.22	0.579
680.41	0.580
680.60	0.576
680.78	0.575
680.97	0.577
681.16	0.576
681.35	0.576
681.53	0.575
681.72	0.576
681.91	0.578
682.10	0.577
682.29	0.580
682.47	0.578
682.66	0.576
682.85	0.574
683.04	0.572
683.22	0.572
683.41	0.573
683.60	0.572
683.79	0.573
683.97	0.572
684.16	0.571
684.35	0.566
684.54	0.568
684.72	0.570
684.91	0.571
685.10	0.569
685.29	0.571
685.47	0.568
685.66	0.567
685.85	0.564
686.04	0.563
686.22	0.566
686.41	0.569
686.60	0.566
686.79	0.568
686.97	0.569
687.16	0.570
687.35	0.568
687.54	0.571
687.72	0.575
687.91	0.575
688.10	0.577
688.29	0.576
688.47	0.573
688.66	0.572
688.85	0.569
689.03	0.567
689.22	0.571
689.41	0.571
689.60	0.567
689.78	0.565
689.97	0.565
690.16	0.562
690.34	0.559
690.53	0.559
690.72	0.560
690.91	0.558
691.09	0.556
691.28	0.551
691.47	0.549
691.65	0.548
691.84	0.545
692.03	0.544
692.21	0.542
692.40	0.541
692.59	0.539
692.77	0.538
692.96	0.539
693.15	0.539
693.34	0.537
693.52	0.537
693.71	0.537
693.90	0.538
694.08	0.539
694.27	0.540
694.46	0.549
694.64	0.549
694.83	0.549
695.02	0.548
695.20	0.548
695.39	0.548
695.58	0.549
695.76	0.549
695.95	0.547
696.14	0.547
696.32	0.544
696.51	0.535
696.70	0.535
696.88	0.536
697.07	0.535
697.26	0.536
697.44	0.537
697.63	0.535
697.81	0.533
698.00	0.533
698.19	0.532
698.37	0.532
698.56	0.531
698.75	0.531
698.93	0.530
699.12	0.529
699.31	0.529
699.49	0.529
699.68	0.529
699.87	0.532
700.05	0.532
700.24	0.531
700.42	0.533
700.61	0.534
700.80	0.531
700.98	0.532
701.17	0.534
701.36	0.533
701.54	0.533
701.73	0.535
701.91	0.532
702.10	0.532
702.29	0.530
702.47	0.529
702.66	0.530
702.84	0.531
703.03	0.528
703.22	0.529
703.40	0.528
703.59	0.530
703.77	0.529
703.96	0.528
704.15	0.528
704.33	0.529
704.52	0.529
704.70	0.528
704.89	0.528
705.08	0.526
705.26	0.523
705.45	0.523
705.63	0.523
705.82	0.520
706.00	0.519
706.19	0.519
706.38	0.518
706.56	0.518
706.75	0.516
706.93	0.515
707.12	0.517
707.30	0.517
707.49	0.515
707.68	0.513
707.86	0.512
708.05	0.512
708.23	0.508
708.42	0.509
708.60	0.510
708.79	0.510
708.98	0.509
709.16	0.508
709.35	0.510
709.53	0.514
709.72	0.513
709.90	0.515
710.09	0.517
710.27	0.520
710.46	0.523
710.64	0.522
710.83	0.524
711.02	0.526
711.20	0.525
711.39	0.523
711.57	0.521
711.76	0.522
711.94	0.520
712.13	0.521
712.31	0.520
712.50	0.515
712.68	0.513
712.87	0.514
713.05	0.514
713.24	0.514
713.42	0.514
713.61	0.514
713.79	0.515
713.98	0.515
714.16	0.516
714.35	0.516
714.54	0.517
714.72	0.517
714.91	0.515
715.09	0.521
715.28	0.524
715.46	0.523
715.65	0.522
715.83	0.521
716.02	0.523
716.20	0.521
716.39	0.520
716.57	0.521
716.76	0.524
716.94	0.524
717.12	0.517
717.31	0.517
717.49	0.521
717.68	0.522
717.86	0.521
718.05	0.523
718.23	0.525
718.42	0.526
718.60	0.527
718.79	0.535
718.97	0.537
719.16	0.538
719.34	0.535
719.53	0.534
719.71	0.534
719.90	0.535
720.08	0.532
720.27	0.532
720.45	0.532
720.63	0.531
720.82	0.526
721.00	0.528
721.19	0.531
721.37	0.531
721.56	0.532
721.74	0.535
721.93	0.543
722.11	0.549
722.30	0.549
722.48	0.553
722.66	0.554
722.85	0.553
723.03	0.554
723.22	0.553
723.40	0.555
723.59	0.555
723.77	0.558
723.95	0.552
724.14	0.555
724.32	0.555
724.51	0.554
724.69	0.556
724.88	0.556
725.06	0.553
725.24	0.554
725.43	0.556
725.61	0.558
725.80	0.552
725.98	0.551
726.16	0.547
726.35	0.554
726.53	0.553
726.72	0.553
726.90	0.563
727.09	0.565
727.27	0.570
727.45	0.568
727.64	0.577
727.82	0.584
728.01	0.589
728.19	0.586
728.37	0.590
728.56	0.595
728.74	0.600
728.92	0.589
729.11	0.591
729.29	0.588
729.48	0.591
729.66	0.582
729.84	0.582
730.03	0.584
730.21	0.587
730.40	0.578
730.58	0.578
730.76	0.577
730.95	0.581
731.13	0.581
731.31	0.593
731.50	0.600
731.68	0.604
731.86	0.601
732.05	0.614
732.23	0.617
732.42	0.620
732.60	0.625
732.78	0.630
732.97	0.643
733.15	0.650
733.33	0.640
733.52	0.648
733.70	0.657
733.88	0.665
734.07	0.653
734.25	0.674
734.43	0.683
734.62	0.685
734.80	0.682
734.98	0.675
735.17	0.680
735.35	0.687
735.53	0.674
735.72	0.678
735.90	0.697
736.08	0.715
736.27	0.697
736.45	0.706
736.63	0.716
736.82	0.725
737.00	0.726
737.18	0.737
737.37	0.764
737.55	0.789
737.73	0.782
737.92	0.784
738.10	0.777
738.28	0.793
738.46	0.781
738.65	0.792
738.83	0.811
739.01	0.862
739.20	0.852
739.38	0.835
739.56	0.824
739.75	0.831
739.93	0.799
740.11	0.825
740.29	0.825
740.48	0.830
740.66	0.810
740.84	0.802
741.03	0.763
741.21	0.775
741.39	0.758
741.57	0.770
741.76	0.783
741.94	0.790
742.12	0.759
742.31	0.766
742.49	0.780
742.67	0.804
742.85	0.820
743.04	0.825
743.22	0.828
743.40	0.881
743.58	0.865
743.77	0.877
743.95	0.906
744.13	0.949
744.31	0.932
744.50	0.929
744.68	0.924
744.86	0.898
745.04	0.917
745.23	0.981
745.41	0.963
745.59	0.969
745.77	0.941
745.96	0.930
746.14	0.939
746.32	0.933
746.50	0.926
746.69	0.911
746.87	0.920
747.05	0.905
747.23	0.833
747.42	0.816
747.60	0.838
747.78	0.839
747.96	0.864
748.14	0.827
748.33	0.849
748.51	0.843
748.69	0.839
748.87	0.861
749.06	0.855
749.24	0.857
749.42	0.846
749.60	0.826
749.78	0.835
749.97	0.796
750.15	0.789
750.33	0.795
750.51	0.819
750.69	0.826
750.88	0.835
751.06	0.845
751.24	0.864
751.42	0.854
751.60	0.856
751.79	0.919
751.97	0.960
752.15	0.957
752.33	0.926
752.51	0.985
752.69	0.993
752.88	0.957
753.06	0.997
753.24	0.981
753.42	1.011
753.60	1.147
753.78	1.033
753.97	1.047
754.15	1.066
754.33	1.094
754.51	0.985
754.69	0.973
754.87	0.999
755.06	0.937
755.24	0.939
755.42	0.949
755.60	0.858
755.78	0.863
755.96	0.816
756.15	0.816
756.33	0.816
756.51	0.835
756.69	0.825
756.87	0.797
757.05	0.814
757.23	0.799
757.42	0.770
757.60	0.768
757.78	0.757
757.96	0.758
758.14	0.744
758.32	0.731
758.50	0.738
758.69	0.736
758.87	0.730
759.05	0.730
759.23	0.733
759.41	0.733
759.59	0.728
759.77	0.747
759.95	0.768
760.13	0.809
760.32	0.810
760.50	0.810
760.68	0.828
760.86	0.827
761.04	0.807
761.22	0.816
761.40	0.860
761.58	0.863
761.76	0.839
761.95	0.823
762.13	0.781
762.31	0.784
762.49	0.753
762.67	0.772
762.85	0.781
763.03	0.776
763.21	0.760
763.39	0.742
763.57	0.741
763.75	0.738
763.94	0.725
764.12	0.727
764.30	0.745
764.48	0.750
764.66	0.716
764.84	0.716
765.02	0.747
765.20	0.755
765.38	0.738
765.56	0.743
765.74	0.776
765.92	0.779
766.10	0.785
766.28	0.778
766.46	0.803
766.65	0.803
766.83	0.790
767.01	0.777
767.19	0.781
767.37	0.781
767.55	0.771
767.73	0.755
767.91	0.753
768.09	0.744
768.27	0.737
768.45	0.727
768.63	0.732
768.81	0.735
768.99	0.712
769.17	0.733
769.35	0.743
769.53	0.740
769.71	0.724
769.89	0.732
770.07	0.736
770.25	0.718
770.43	0.700
770.61	0.721
770.79	0.727
770.97	0.738
771.15	0.712
771.33	0.714
771.51	0.718
771.69	0.726
771.87	0.733
772.05	0.736
772.24	0.742
772.42	0.750
772.60	0.732
772.78	0.784
772.96	0.804
773.14	0.802
773.32	0.786
773.49	0.790
773.67	0.790
773.85	0.773
774.03	0.765
774.21	0.794
774.39	0.800
774.57	0.822
774.75	0.759
774.93	0.757
775.11	0.775
775.29	0.780
775.47	0.787
775.65	0.797
775.83	0.809
776.01	0.831
776.19	0.790
776.37	0.791
776.55	0.789
776.73	0.784
776.91	0.779
777.09	0.763
777.27	0.763
777.45	0.748
777.63	0.725
777.81	0.721
777.99	0.709
778.17	0.708
778.35	0.691
778.53	0.679
778.71	0.684
778.89	0.673
779.07	0.664
779.24	0.667
779.42	0.670
779.60	0.688
779.78	0.684
779.96	0.687
780.14	0.694
780.32	0.711
780.50	0.698
780.68	0.697
780.86	0.690
781.04	0.706
781.22	0.712
781.40	0.721
781.58	0.711
781.75	0.706
781.93	0.692
782.11	0.691
782.29	0.681
782.47	0.680
782.65	0.670
782.83	0.696
783.01	0.687
783.19	0.681
783.37	0.671
783.55	0.672
783.72	0.688
783.90	0.699
784.08	0.693
784.26	0.701
784.44	0.721
784.62	0.725
784.80	0.695
784.98	0.702
785.16	0.704
785.33	0.714
785.51	0.706
785.69	0.691
785.87	0.690
786.05	0.699
786.23	0.698
786.41	0.694
786.59	0.698
786.77	0.699
786.94	0.687
787.12	0.689
787.30	0.688
787.48	0.685
787.66	0.679
787.84	0.679
788.02	0.670
788.19	0.667
788.37	0.655
788.55	0.655
788.73	0.655
788.91	0.648
789.09	0.635
789.27	0.626
789.44	0.635
789.62	0.640
789.80	0.648
789.98	0.670
790.16	0.656
790.34	0.654
790.51	0.645
790.69	0.662
790.87	0.667
791.05	0.666
791.23	0.660
791.41	0.662
791.58	0.666
791.76	0.647
791.94	0.620
792.12	0.628
792.30	0.628
792.48	0.628
792.65	0.623
792.83	0.629
793.01	0.636
793.19	0.635
793.37	0.622
793.54	0.619
793.72	0.631
793.90	0.631
794.08	0.621
794.26	0.621
794.43	0.626
794.61	0.609
794.79	0.601
794.97	0.597
795.15	0.601
795.32	0.605
795.50	0.596
795.68	0.589
795.86	0.592
796.04	0.595
796.21	0.589
796.39	0.589
796.57	0.602
796.75	0.609
796.92	0.612
797.10	0.617
797.28	0.620
797.46	0.626
797.64	0.628
797.81	0.635
797.99	0.639
798.17	0.644
798.35	0.638
798.52	0.642
798.70	0.638
798.88	0.646
799.06	0.645
799.23	0.647
799.41	0.652
799.59	0.647
799.77	0.637
799.94	0.643
800.12	0.651
800.30	0.669
800.48	0.668
800.65	0.666
800.83	0.655
801.01	0.646
801.19	0.646
801.36	0.640
801.54	0.643
801.72	0.651
801.90	0.640
802.07	0.637
802.25	0.622
802.43	0.606
802.60	0.604
802.78	0.611
802.96	0.616
803.14	0.610
803.31	0.610
803.49	0.610
803.67	0.607
803.84	0.612
804.02	0.603
804.20	0.607
804.38	0.611
804.55	0.610
804.73	0.599
804.91	0.599
805.08	0.611
805.26	0.608
805.44	0.669
805.61	0.670
805.79	0.668
805.97	0.669
806.15	0.661
806.32	0.658
806.50	0.662
806.68	0.662
806.85	0.655
807.03	0.645
807.21	0.661
807.38	0.599
807.56	0.590
807.74	0.599
807.91	0.602
808.09	0.604
808.27	0.621
808.44	0.646
808.62	0.652
808.80	0.653
808.97	0.648
809.15	0.642
809.33	0.656
809.50	0.663
809.68	0.651
809.86	0.660
810.03	0.688
810.21	0.669
810.39	0.652
810.56	0.657
810.74	0.677
810.91	0.744
811.09	0.734
811.27	0.753
811.44	0.756
811.62	0.758
811.80	0.746
811.97	0.718
812.15	0.718
812.33	0.715
812.50	0.703
812.68	0.694
812.85	0.640
813.03	0.643
813.21	0.615
813.38	0.612
813.56	0.613
813.74	0.621
813.91	0.631
814.09	0.656
814.26	0.650
814.44	0.654
814.62	0.643
814.79	0.647
814.97	0.652
815.14	0.653
815.32	0.655
815.50	0.671
815.67	0.670
815.85	0.661
816.02	0.653
816.20	0.659
816.38	0.670
816.55	0.677
816.73	0.675
816.90	0.682
817.08	0.710
817.26	0.717
817.43	0.699
817.61	0.723
817.78	0.739
817.96	0.721
818.13	0.711
818.31	0.709
818.49	0.719
818.66	0.714
818.84	0.703
819.01	0.684
819.19	0.688
819.36	0.690
819.54	0.663
819.71	0.702
819.89	0.712
820.07	0.727
820.24	0.724
820.42	0.722
820.59	0.739
820.77	0.761
820.94	0.753
821.12	0.770
821.29	0.782
821.47	0.784
821.64	0.727
821.82	0.739
822.00	0.735
822.17	0.734
822.35	0.731
822.52	0.731
822.70	0.718
822.87	0.726
823.05	0.710
823.22	0.719
823.40	0.741
823.57	0.763
823.75	0.745
823.92	0.763
824.10	0.776
824.27	0.809
824.45	0.800
824.62	0.852
824.80	0.866
824.97	0.879
825.15	0.872
825.32	0.883
825.50	0.877
825.67	0.894
825.85	0.879
826.02	0.897
826.20	0.914
826.37	1.027
826.55	0.960
826.72	1.120
826.90	1.178
827.07	1.217
827.25	1.166
827.42	1.297
827.60	1.387
827.77	1.506
827.95	1.503
828.12	1.607
828.30	1.332
828.47	1.434
828.65	1.150
828.82	1.188
829.00	1.240
829.17	1.330
829.34	1.342
829.52	1.390
829.69	-0.000
829.87	-0.000
830.04	-0.000
830.22	-0.000
830.39	-0.000
830.57	-0.000
830.74	-0.000
830.92	-0.000
831.09	-0.000
831.26	-0.000
831.44	-0.000
831.61	-0.000
831.79	-0.000
831.96	-0.000
832.14	-0.000
832.31	-0.000
832.49	-0.000
832.66	-0.000
832.83	-0.000
833.01	-0.000
833.18	-0.000
833.36	-0.000
833.53	-0.000
833.70	-0.000
833.88	-0.000
834.05	-0.000
834.23	-0.000
834.40	-0.000
834.58	-0.000
834.75	-0.000
834.92	-0.000
835.10	-0.000
835.27	-0.000
835.45	-0.000
835.62	-0.000
835.79	-0.000
835.97	-0.000
836.14	-0.000
836.32	-0.000
836.49	-0.000
836.66	-0.000
836.84	-0.000
837.01	-0.000
837.18	-0.000
837.36	-0.000
837.53	-0.000
837.71	-0.000
837.88	-0.000
838.05	-0.000
838.23	-0.000
838.40	-0.000
838.58	-0.000
838.75	-0.000
838.92	-0.000
839.10	-0.000
839.27	-0.000
839.44	-0.000
839.62	-0.000
839.79	-0.000
839.96	-0.000
840.14	-0.000
840.31	-0.000
840.48	-0.000
840.66	-0.000
840.83	-0.000
841.01	-0.000
841.18	-0.000
841.35	-0.000
841.53	-0.000
841.70	-0.000
841.87	-0.000
842.05	-0.000
842.22	-0.000
842.39	-0.000
842.57	-0.000
842.74	-0.000
842.91	-0.000
843.09	-0.000
843.26	-0.000
843.43	-0.000
843.60	-0.000
843.78	-0.000
843.95	-0.000
844.12	-0.000
844.30	-0.000
844.47	-0.000
844.64	-0.000
844.82	-0.000
844.99	-0.000
845.16	-0.000
845.34	-0.000
845.51	-0.000
845.68	-0.000
845.85	-0.000
846.03	-0.000
846.20	-0.000
846.37	-0.000
846.55	-0.000
846.72	-0.000
846.89	-0.000
847.06	-0.000
847.24	-0.000
847.41	-0.000
847.58	-0.000
847.76	-0.000
847.93	-0.000
848.10	-0.000
848.27	-0.000
848.45	-0.000
848.62	-0.000
848.79	-0.000
848.97	-0.000
849.14	-0.000
849.31	-0.000
849.48	-0.000
849.66	-0.000
849.83	-0.000
850.00	-0.000
850.17	-0.000
850.35	-0.000
850.52	-0.000
850.69	-0.000
850.86	-0.000
851.04	-0.000
851.21	-0.000
851.38	-0.000
851.55	-0.000
851.72	-0.000
851.90	-0.000
852.07	-0.000
852.24	-0.000
852.41	-0.000
852.59	-0.000
852.76	-0.000
852.93	-0.000
853.10	-0.000
853.28	-0.000
853.45	-0.000
853.62	-0.000
853.79	-0.000
853.96	-0.000
854.14	-0.000
854.31	-0.000
854.48	-0.000
854.65	-0.000
854.82	-0.000
855.00	-0.000
855.17	-0.000
855.34	-0.000
855.51	-0.000
855.68	-0.000
855.86	-0.000
856.03	-0.000
856.20	-0.000
856.37	-0.000
856.54	-0.000
856.72	-0.000
856.89	-0.000
857.06	-0.000
857.23	-0.000
857.40	-0.000
857.57	-0.000
857.75	-0.000
857.92	-0.000
858.09	-0.000
858.26	-0.000
858.43	-0.000
858.60	-0.000
858.78	-0.000
858.95	-0.000
859.12	-0.000
859.29	-0.000
859.46	-0.000
859.63	-0.000
859.81	-0.000
859.98	-0.000
860.15	-0.000
860.32	-0.000
860.49	-0.000
860.66	-0.000
860.83	-0.000
861.01	-0.000
861.18	-0.000
861.35	-0.000
861.52	-0.000
861.69	-0.000
861.86	-0.000
862.03	-0.000
862.21	-0.000
862.38	-0.000
862.55	-0.000
862.72	-0.000
862.89	-0.000
863.06	-0.000
863.23	-0.000
863.40	-0.000
863.58	-0.000
863.75	-0.000
863.92	-0.000
864.09	-0.000
864.26	-0.000
864.43	-0.000
864.60	-0.000
864.77	-0.000
864.94	-0.000
865.11	-0.000
865.29	-0.000
865.46	-0.000
865.63	-0.000
865.80	-0.000
865.97	-0.000
866.14	-0.000
866.31	-0.000
866.48	-0.000
866.65	-0.000
866.82	-0.000
866.99	-0.000
867.16	-0.000
867.34	-0.000
867.51	-0.000
867.68	-0.000
867.85	-0.000
868.02	-0.000
868.19	-0.000
868.36	-0.000
868.53	-0.000
868.70	-0.000
868.87	-0.000
869.04	-0.000
869.21	-0.000
869.38	-0.000
869.55	-0.000
869.72	-0.000
869.89	-0.000
870.06	-0.000
870.24	-0.000
870.41	-0.000
870.58	-0.000
870.75	-0.000
870.92	-0.000
871.09	-0.000
871.26	-0.000
871.43	-0.000
871.60	-0.000
871.77	-0.000
871.94	-0.000
872.11	-0.000
872.28	-0.000
872.45	-0.000
872.62	-0.000
872.79	-0.000
872.96	-0.000
873.13	-0.000
873.30	-0.000
873.47	-0.000
873.64	-0.000
873.81	-0.000
873.98	-0.000
874.15	-0.000
874.32	-0.000
874.49	-0.000
874.66	-0.000
874.83	-0.000
875.00	-0.000
875.17	-0.000
875.34	-0.000
875.51	-0.000
875.68	-0.000
875.85	-0.000
876.02	-0.000
876.19	-0.000
876.36	-0.000
876.53	-0.000
876.70	-0.000
876.87	-0.000
877.04	-0.000
877.21	-0.000
877.38	-0.000
877.55	-0.000
877.72	-0.000
877.89	-0.000
878.06	-0.000
878.23	-0.000
878.39	-0.000
878.56	-0.000
878.73	-0.000
878.90	-0.000
879.07	-0.000
879.24	-0.000
879.41	-0.000
879.58	-0.000
879.75	-0.000
879.92	-0.000
880.09	-0.000
880.26	-0.000
880.43	-0.000
880.60	-0.000
880.77	-0.000
880.94	-0.000
881.11	-0.000
881.27	-0.000
881.44	-0.000
881.61	-0.000
881.78	-0.000
881.95	-0.000
882.12	-0.000
882.29	-0.000
882.46	-0.000
882.63	-0.000
882.80	-0.000
882.97	-0.000
883.14	-0.000
883.30	-0.000
883.47	-0.000
883.64	-0.000
883.81	-0.000
883.98	-0.000
884.15	-0.000
884.32	-0.000
884.49	-0.000
884.66	-0.000
884.82	-0.000
884.99	-0.000
885.16	-0.000
885.33	-0.000
885.50	-0.000
885.67	-0.000
885.84	-0.000
886.01	-0.000
886.17	-0.000
886.34	-0.000
886.51	-0.000
886.68	-0.000
886.85	-0.000
887.02	-0.000
887.19	-0.000
887.36	-0.000
887.52	-0.000
887.69	-0.000
887.86	-0.000
888.03	-0.000
888.20	-0.000
888.37	-0.000
888.54	-0.000
888.70	-0.000
888.87	-0.000
889.04	-0.000
889.21	-0.000
889.38	-0.000
889.55	-0.000
889.71	-0.000
889.88	-0.000
890.05	-0.000
890.22	-0.000
890.39	-0.000
>>>>>End Processed Spectral Data<<<<<
