SpectraSuite Data File
++++++++++++++++++++++++++++++++++++
Date: Fri Jun 19 15:35:01 CEST 2015
User: introlabs
Dark Spectrum Present: Yes
Reference Spectrum Present: Yes
Number of Sampled Component Spectra: 1
Spectrometers: USB4H08886
Integration Time (usec): 745692 (USB4H08886)
Spectra Averaged: 5 (USB4H08886)
Boxcar Smoothing: 5 (USB4H08886)
Correct for Electrical Dark: Yes (USB4H08886)
Strobe/Lamp Enabled: No (USB4H08886)
Correct for Detector Non-linearity: Yes (USB4H08886)
Correct for Stray Light: Yes (USB4H08886)
Number of Pixels in Processed Spectrum: 3648
>>>>>Begin Processed Spectral Data<<<<<
178.14	-0.000
178.36	-0.000
178.57	-0.000
178.79	-0.000
179.01	-0.000
179.22	-0.000
179.44	-0.000
179.65	-0.000
179.87	-0.000
180.08	-0.000
180.30	-0.000
180.52	-0.000
180.73	-0.000
180.95	-0.000
181.16	-0.000
181.38	-0.000
181.59	-0.000
181.81	-0.000
182.03	-0.000
182.24	-0.000
182.46	-0.000
182.67	-0.000
182.89	-0.000
183.10	-0.000
183.32	-0.000
183.54	-0.000
183.75	-0.000
183.97	-0.000
184.18	-0.000
184.40	-0.000
184.61	-0.000
184.83	-0.000
185.04	-0.000
185.26	-0.000
185.48	-0.000
185.69	-0.000
185.91	-0.000
186.12	-0.000
186.34	-0.000
186.55	-0.000
186.77	-0.000
186.98	-0.000
187.20	-0.000
187.42	-0.000
187.63	-0.000
187.85	-0.000
188.06	-0.000
188.28	-0.000
188.49	-0.000
188.71	-0.000
188.92	-0.000
189.14	-0.000
189.36	-0.000
189.57	-0.000
189.79	-0.000
190.00	-0.000
190.22	-0.000
190.43	-0.000
190.65	-0.000
190.86	-0.000
191.08	-0.000
191.29	-0.000
191.51	-0.000
191.72	-0.000
191.94	-0.000
192.16	-0.000
192.37	-0.000
192.59	-0.000
192.80	-0.000
193.02	-0.000
193.23	-0.000
193.45	-0.000
193.66	-0.000
193.88	-0.000
194.09	-0.000
194.31	-0.000
194.52	-0.000
194.74	-0.000
194.95	-0.000
195.17	-0.000
195.38	-0.000
195.60	-0.000
195.81	-0.000
196.03	-0.000
196.25	-0.000
196.46	-0.000
196.68	-0.000
196.89	-0.000
197.11	-0.000
197.32	-0.000
197.54	-0.000
197.75	-0.000
197.97	-0.000
198.18	-0.000
198.40	-0.000
198.61	-0.000
198.83	-0.000
199.04	-0.000
199.26	-0.000
199.47	-0.000
199.69	-0.000
199.90	-0.000
200.12	-0.000
200.33	-0.000
200.55	-0.000
200.76	-0.000
200.98	-0.000
201.19	-0.000
201.41	-0.000
201.62	-0.000
201.84	-0.000
202.05	-0.000
202.27	-0.000
202.48	-0.000
202.70	-0.000
202.91	-0.000
203.13	-0.000
203.34	-0.000
203.56	-0.000
203.77	-0.000
203.99	-0.000
204.20	-0.000
204.42	-0.000
204.63	-0.000
204.85	-0.000
205.06	-0.000
205.28	-0.000
205.49	-0.000
205.71	-0.000
205.92	-0.000
206.14	-0.000
206.35	-0.000
206.56	-0.000
206.78	-0.000
206.99	-0.000
207.21	-0.000
207.42	-0.000
207.64	-0.000
207.85	-0.000
208.07	-0.000
208.28	-0.000
208.50	-0.000
208.71	-0.000
208.93	-0.000
209.14	-0.000
209.36	-0.000
209.57	-0.000
209.79	-0.000
210.00	-0.000
210.22	-0.000
210.43	-0.000
210.64	-0.000
210.86	-0.000
211.07	-0.000
211.29	-0.000
211.50	-0.000
211.72	-0.000
211.93	-0.000
212.15	-0.000
212.36	-0.000
212.58	-0.000
212.79	-0.000
213.01	-0.000
213.22	-0.000
213.43	-0.000
213.65	-0.000
213.86	-0.000
214.08	-0.000
214.29	-0.000
214.51	-0.000
214.72	-0.000
214.94	-0.000
215.15	-0.000
215.36	-0.000
215.58	-0.000
215.79	-0.000
216.01	-0.000
216.22	-0.000
216.44	-0.000
216.65	-0.000
216.87	-0.000
217.08	-0.000
217.29	-0.000
217.51	-0.000
217.72	-0.000
217.94	-0.000
218.15	-0.000
218.37	-0.000
218.58	-0.000
218.80	-0.000
219.01	-0.000
219.22	-0.000
219.44	-0.000
219.65	-0.000
219.87	-0.000
220.08	-0.000
220.30	-0.000
220.51	-0.000
220.72	-0.000
220.94	-0.000
221.15	-0.000
221.37	-0.000
221.58	-0.000
221.79	-0.000
222.01	-0.000
222.22	-0.000
222.44	-0.000
222.65	-0.000
222.87	-0.000
223.08	-0.000
223.29	-0.000
223.51	-0.000
223.72	-0.000
223.94	-0.000
224.15	-0.000
224.36	-0.000
224.58	-0.000
224.79	-0.000
225.01	-0.000
225.22	-0.000
225.44	-0.000
225.65	-0.000
225.86	-0.000
226.08	-0.000
226.29	-0.000
226.51	-0.000
226.72	-0.000
226.93	-0.000
227.15	-0.000
227.36	-0.000
227.58	-0.000
227.79	-0.000
228.00	-0.000
228.22	-0.000
228.43	-0.000
228.65	-0.000
228.86	-0.000
229.07	-0.000
229.29	-0.000
229.50	-0.000
229.72	-0.000
229.93	-0.000
230.14	-0.000
230.36	-0.000
230.57	-0.000
230.78	-0.000
231.00	-0.000
231.21	-0.000
231.43	-0.000
231.64	-0.000
231.85	-0.000
232.07	-0.000
232.28	-0.000
232.50	-0.000
232.71	-0.000
232.92	-0.000
233.14	-0.000
233.35	-0.000
233.56	-0.000
233.78	-0.000
233.99	-0.000
234.21	-0.000
234.42	-0.000
234.63	-0.000
234.85	-0.000
235.06	-0.000
235.27	-0.000
235.49	-0.000
235.70	-0.000
235.91	-0.000
236.13	-0.000
236.34	-0.000
236.56	-0.000
236.77	-0.000
236.98	-0.000
237.20	-0.000
237.41	-0.000
237.62	-0.000
237.84	-0.000
238.05	-0.000
238.26	-0.000
238.48	-0.000
238.69	-0.000
238.91	-0.000
239.12	-0.000
239.33	-0.000
239.55	-0.000
239.76	-0.000
239.97	-0.000
240.19	-0.000
240.40	-0.000
240.61	-0.000
240.83	-0.000
241.04	-0.000
241.25	-0.000
241.47	-0.000
241.68	-0.000
241.89	-0.000
242.11	-0.000
242.32	-0.000
242.53	-0.000
242.75	-0.000
242.96	-0.000
243.17	-0.000
243.39	-0.000
243.60	-0.000
243.81	-0.000
244.03	-0.000
244.24	-0.000
244.45	-0.000
244.67	-0.000
244.88	-0.000
245.09	-0.000
245.31	-0.000
245.52	-0.000
245.73	-0.000
245.95	-0.000
246.16	-0.000
246.37	-0.000
246.59	-0.000
246.80	-0.000
247.01	-0.000
247.23	-0.000
247.44	-0.000
247.65	-0.000
247.87	-0.000
248.08	-0.000
248.29	-0.000
248.51	-0.000
248.72	-0.000
248.93	-0.000
249.15	-0.000
249.36	-0.000
249.57	-0.000
249.78	-0.000
250.00	-0.000
250.21	-0.000
250.42	-0.000
250.64	-0.000
250.85	-0.000
251.06	-0.000
251.28	-0.000
251.49	-0.000
251.70	-0.000
251.92	-0.000
252.13	-0.000
252.34	-0.000
252.55	-0.000
252.77	-0.000
252.98	-0.000
253.19	-0.000
253.41	-0.000
253.62	-0.000
253.83	-0.000
254.05	-0.000
254.26	-0.000
254.47	-0.000
254.68	-0.000
254.90	-0.000
255.11	-0.000
255.32	-0.000
255.54	-0.000
255.75	-0.000
255.96	-0.000
256.17	-0.000
256.39	-0.000
256.60	-0.000
256.81	-0.000
257.03	-0.000
257.24	-0.000
257.45	-0.000
257.66	-0.000
257.88	-0.000
258.09	-0.000
258.30	-0.000
258.51	-0.000
258.73	-0.000
258.94	-0.000
259.15	-0.000
259.37	-0.000
259.58	-0.000
259.79	-0.000
260.00	-0.000
260.22	-0.000
260.43	-0.000
260.64	-0.000
260.85	-0.000
261.07	-0.000
261.28	-0.000
261.49	-0.000
261.71	-0.000
261.92	-0.000
262.13	-0.000
262.34	-0.000
262.56	-0.000
262.77	-0.000
262.98	-0.000
263.19	-0.000
263.41	-0.000
263.62	-0.000
263.83	-0.000
264.04	-0.000
264.26	-0.000
264.47	-0.000
264.68	-0.000
264.89	-0.000
265.11	-0.000
265.32	-0.000
265.53	-0.000
265.74	-0.000
265.96	-0.000
266.17	-0.000
266.38	-0.000
266.59	-0.000
266.81	-0.000
267.02	-0.000
267.23	-0.000
267.44	-0.000
267.65	-0.000
267.87	-0.000
268.08	-0.000
268.29	-0.000
268.50	-0.000
268.72	-0.000
268.93	-0.000
269.14	-0.000
269.35	-0.000
269.57	-0.000
269.78	-0.000
269.99	-0.000
270.20	-0.000
270.41	-0.000
270.63	-0.000
270.84	-0.000
271.05	-0.000
271.26	-0.000
271.48	-0.000
271.69	-0.000
271.90	-0.000
272.11	-0.000
272.32	-0.000
272.54	-0.000
272.75	-0.000
272.96	-0.000
273.17	-0.000
273.39	-0.000
273.60	-0.000
273.81	-0.000
274.02	-0.000
274.23	-0.000
274.45	-0.000
274.66	-0.000
274.87	-0.000
275.08	-0.000
275.29	-0.000
275.51	-0.000
275.72	-0.000
275.93	-0.000
276.14	-0.000
276.35	-0.000
276.57	-0.000
276.78	-0.000
276.99	-0.000
277.20	-0.000
277.41	-0.000
277.63	-0.000
277.84	-0.000
278.05	-0.000
278.26	-0.000
278.47	-0.000
278.69	-0.000
278.90	-0.000
279.11	-0.000
279.32	-0.000
279.53	-0.000
279.74	-0.000
279.96	-0.000
280.17	-0.000
280.38	-0.000
280.59	-0.000
280.80	-0.000
281.02	-0.000
281.23	-0.000
281.44	-0.000
281.65	-0.000
281.86	-0.000
282.07	-0.000
282.29	-0.000
282.50	-0.000
282.71	-0.000
282.92	-0.000
283.13	-0.000
283.35	-0.000
283.56	-0.000
283.77	-0.000
283.98	-0.000
284.19	-0.000
284.40	-0.000
284.62	-0.000
284.83	-0.000
285.04	-0.000
285.25	-0.000
285.46	-0.000
285.67	-0.000
285.88	-0.000
286.10	-0.000
286.31	-0.000
286.52	-0.000
286.73	-0.000
286.94	-0.000
287.15	-0.000
287.37	-0.000
287.58	-0.000
287.79	-0.000
288.00	-0.000
288.21	-0.000
288.42	-0.000
288.63	-0.000
288.85	-0.000
289.06	-0.000
289.27	-0.000
289.48	-0.000
289.69	-0.000
289.90	-0.000
290.11	-0.000
290.33	-0.000
290.54	-0.000
290.75	-0.000
290.96	-0.000
291.17	-0.000
291.38	-0.000
291.59	-0.000
291.81	-0.000
292.02	-0.000
292.23	-0.000
292.44	-0.000
292.65	-0.000
292.86	-0.000
293.07	-0.000
293.28	-0.000
293.50	-0.000
293.71	-0.000
293.92	-0.000
294.13	-0.000
294.34	-0.000
294.55	-0.000
294.76	-0.000
294.97	-0.000
295.19	-0.000
295.40	-0.000
295.61	-0.000
295.82	-0.000
296.03	3.083
296.24	-0.000
296.45	1.985
296.66	1.713
296.87	1.757
297.09	1.809
297.30	2.002
297.51	1.688
297.72	1.658
297.93	1.735
298.14	1.708
298.35	1.672
298.56	1.649
298.77	1.760
298.99	1.741
299.20	1.716
299.41	1.696
299.62	1.644
299.83	1.634
300.04	1.579
300.25	1.569
300.46	1.600
300.67	1.578
300.88	1.533
301.10	1.542
301.31	1.607
301.52	1.546
301.73	1.500
301.94	1.503
302.15	1.511
302.36	1.471
302.57	1.416
302.78	1.421
302.99	1.452
303.20	1.473
303.41	1.385
303.63	1.369
303.84	1.371
304.05	1.367
304.26	1.313
304.47	1.317
304.68	1.315
304.89	1.304
305.10	1.270
305.31	1.257
305.52	1.295
305.73	1.291
305.94	1.254
306.15	1.245
306.37	1.262
306.58	1.273
306.79	1.249
307.00	1.273
307.21	1.313
307.42	1.308
307.63	1.279
307.84	1.246
308.05	1.279
308.26	1.282
308.47	1.266
308.68	1.263
308.89	1.256
309.10	1.252
309.31	1.216
309.52	1.207
309.73	1.220
309.95	1.213
310.16	1.188
310.37	1.175
310.58	1.189
310.79	1.183
311.00	1.183
311.21	1.187
311.42	1.188
311.63	1.181
311.84	1.163
312.05	1.161
312.26	1.180
312.47	1.189
312.68	1.171
312.89	1.154
313.10	1.160
313.31	1.134
313.52	1.139
313.73	1.139
313.94	1.141
314.15	1.127
314.36	1.107
314.57	1.102
314.78	1.092
314.99	1.084
315.21	1.074
315.42	1.080
315.63	1.090
315.84	1.066
316.05	1.053
316.26	1.061
316.47	1.075
316.68	1.072
316.89	1.056
317.10	1.072
317.31	1.078
317.52	1.077
317.73	1.059
317.94	1.058
318.15	1.099
318.36	1.097
318.57	1.081
318.78	1.069
318.99	1.100
319.20	1.097
319.41	1.067
319.62	1.070
319.83	1.084
320.04	1.078
320.25	1.067
320.46	1.034
320.67	1.038
320.88	1.034
321.09	1.024
321.30	1.011
321.51	1.023
321.72	1.022
321.93	1.007
322.14	0.999
322.35	1.025
322.56	1.027
322.77	1.016
322.98	1.025
323.19	1.032
323.40	1.038
323.61	1.017
323.82	1.012
324.03	1.017
324.24	1.015
324.45	1.004
324.66	0.985
324.87	0.980
325.08	0.979
325.29	0.964
325.50	0.958
325.71	0.961
325.92	0.969
326.13	0.958
326.34	0.957
326.55	0.963
326.76	0.962
326.97	0.952
327.18	0.949
327.39	0.973
327.60	0.973
327.80	0.974
328.01	0.972
328.22	0.970
328.43	0.973
328.64	0.963
328.85	0.967
329.06	0.967
329.27	0.966
329.48	0.961
329.69	0.942
329.90	0.952
330.11	0.945
330.32	0.941
330.53	0.935
330.74	0.933
330.95	0.932
331.16	0.919
331.37	0.927
331.58	0.927
331.79	0.928
332.00	0.920
332.21	0.913
332.42	0.916
332.63	0.906
332.83	0.903
333.04	0.907
333.25	0.918
333.46	0.917
333.67	0.905
333.88	0.908
334.09	0.916
334.30	0.913
334.51	0.905
334.72	0.901
334.93	0.904
335.14	0.902
335.35	0.895
335.56	0.890
335.77	0.896
335.98	0.895
336.18	0.889
336.39	0.881
336.60	0.885
336.81	0.884
337.02	0.883
337.23	0.887
337.44	0.889
337.65	0.890
337.86	0.880
338.07	0.877
338.28	0.880
338.49	0.878
338.70	0.872
338.91	0.878
339.11	0.885
339.32	0.882
339.53	0.872
339.74	0.869
339.95	0.865
340.16	0.864
340.37	0.857
340.58	0.856
340.79	0.857
341.00	0.858
341.21	0.847
341.41	0.847
341.62	0.847
341.83	0.847
342.04	0.844
342.25	0.855
342.46	0.859
342.67	0.859
342.88	0.852
343.09	0.852
343.30	0.856
343.50	0.860
343.71	0.850
343.92	0.849
344.13	0.853
344.34	0.851
344.55	0.835
344.76	0.835
344.97	0.837
345.18	0.837
345.38	0.835
345.59	0.831
345.80	0.829
346.01	0.829
346.22	0.825
346.43	0.820
346.64	0.827
346.85	0.826
347.06	0.819
347.26	0.819
347.47	0.821
347.68	0.818
347.89	0.815
348.10	0.810
348.31	0.815
348.52	0.815
348.73	0.813
348.93	0.810
349.14	0.811
349.35	0.811
349.56	0.806
349.77	0.802
349.98	0.807
350.19	0.804
350.39	0.801
350.60	0.797
350.81	0.812
351.02	0.811
351.23	0.806
351.44	0.808
351.65	0.811
351.86	0.808
352.06	0.807
352.27	0.807
352.48	0.808
352.69	0.806
352.90	0.801
353.11	0.788
353.31	0.795
353.52	0.793
353.73	0.786
353.94	0.787
354.15	0.793
354.36	0.792
354.57	0.784
354.77	0.786
354.98	0.786
355.19	0.786
355.40	0.787
355.61	0.792
355.82	0.794
356.02	0.793
356.23	0.787
356.44	0.788
356.65	0.790
356.86	0.791
357.07	0.784
357.27	0.786
357.48	0.787
357.69	0.782
357.90	0.767
358.11	0.765
358.32	0.768
358.52	0.771
358.73	0.762
358.94	0.764
359.15	0.769
359.36	0.770
359.56	0.767
359.77	0.764
359.98	0.771
360.19	0.771
360.40	0.769
360.61	0.769
360.81	0.767
361.02	0.767
361.23	0.760
361.44	0.756
361.65	0.756
361.85	0.755
362.06	0.754
362.27	0.755
362.48	0.754
362.69	0.755
362.89	0.750
363.10	0.752
363.31	0.756
363.52	0.759
363.73	0.755
363.93	0.755
364.14	0.757
364.35	0.758
364.56	0.749
364.77	0.751
364.97	0.753
365.18	0.753
365.39	0.749
365.60	0.745
365.81	0.746
366.01	0.746
366.22	0.743
366.43	0.743
366.64	0.744
366.84	0.749
367.05	0.747
367.26	0.746
367.47	0.748
367.68	0.747
367.88	0.745
368.09	0.743
368.30	0.744
368.51	0.744
368.71	0.743
368.92	0.748
369.13	0.746
369.34	0.746
369.55	0.746
369.75	0.746
369.96	0.752
370.17	0.751
370.38	0.748
370.58	0.748
370.79	0.753
371.00	0.751
371.21	0.742
371.41	0.747
371.62	0.750
371.83	0.746
372.04	0.744
372.24	0.737
372.45	0.739
372.66	0.739
372.87	0.737
373.07	0.734
373.28	0.735
373.49	0.738
373.70	0.730
373.90	0.729
374.11	0.738
374.32	0.737
374.53	0.736
374.73	0.736
374.94	0.738
375.15	0.738
375.36	0.735
375.56	0.744
375.77	0.744
375.98	0.743
376.19	0.742
376.39	0.735
376.60	0.737
376.81	0.738
377.02	0.737
377.22	0.736
377.43	0.736
377.64	0.737
377.84	0.728
378.05	0.733
378.26	0.739
378.47	0.738
378.67	0.735
378.88	0.732
379.09	0.731
379.30	0.731
379.50	0.729
379.71	0.730
379.92	0.732
380.12	0.730
380.33	0.723
380.54	0.720
380.75	0.726
380.95	0.726
381.16	0.725
381.37	0.726
381.57	0.727
381.78	0.728
381.99	0.728
382.20	0.729
382.40	0.732
382.61	0.732
382.82	0.729
383.02	0.724
383.23	0.727
383.44	0.727
383.64	0.726
383.85	0.728
384.06	0.732
384.27	0.729
384.47	0.728
384.68	0.728
384.89	0.733
385.09	0.732
385.30	0.731
385.51	0.730
385.71	0.733
385.92	0.733
386.13	0.731
386.33	0.733
386.54	0.733
386.75	0.732
386.95	0.728
387.16	0.724
387.37	0.726
387.58	0.727
387.78	0.725
387.99	0.723
388.20	0.724
388.40	0.723
388.61	0.718
388.82	0.722
389.02	0.724
389.23	0.724
389.44	0.723
389.64	0.723
389.85	0.735
390.06	0.735
390.26	0.735
390.47	0.735
390.68	0.738
390.88	0.737
391.09	0.733
391.30	0.732
391.50	0.732
391.71	0.731
391.92	0.729
392.12	0.721
392.33	0.722
392.53	0.721
392.74	0.722
392.95	0.720
393.15	0.722
393.36	0.724
393.57	0.722
393.77	0.725
393.98	0.727
394.19	0.727
394.39	0.726
394.60	0.727
394.81	0.729
395.01	0.727
395.22	0.725
395.43	0.726
395.63	0.731
395.84	0.733
396.04	0.729
396.25	0.731
396.46	0.732
396.66	0.730
396.87	0.729
397.08	0.726
397.28	0.728
397.49	0.729
397.69	0.726
397.90	0.721
398.11	0.722
398.31	0.723
398.52	0.719
398.73	0.721
398.93	0.721
399.14	0.720
399.34	0.720
399.55	0.721
399.76	0.721
399.96	0.722
400.17	0.721
400.37	0.720
400.58	0.727
400.79	0.728
400.99	0.726
401.20	0.731
401.41	0.733
401.61	0.734
401.82	0.740
402.02	0.739
402.23	0.740
402.44	0.740
402.64	0.740
402.85	0.735
403.05	0.733
403.26	0.732
403.47	0.726
403.67	0.725
403.88	0.725
404.08	0.719
404.29	0.718
404.50	0.718
404.70	0.718
404.91	0.716
405.11	0.714
405.32	0.714
405.52	0.715
405.73	0.715
405.94	0.714
406.14	0.717
406.35	0.719
406.55	0.718
406.76	0.716
406.97	0.717
407.17	0.720
407.38	0.720
407.58	0.719
407.79	0.721
407.99	0.724
408.20	0.724
408.41	0.720
408.61	0.718
408.82	0.719
409.02	0.719
409.23	0.717
409.43	0.715
409.64	0.717
409.84	0.716
410.05	0.713
410.26	0.711
410.46	0.711
410.67	0.710
410.87	0.711
411.08	0.713
411.28	0.714
411.49	0.715
411.69	0.713
411.90	0.715
412.11	0.717
412.31	0.718
412.52	0.717
412.72	0.717
412.93	0.718
413.13	0.718
413.34	0.714
413.54	0.716
413.75	0.718
413.95	0.717
414.16	0.713
414.37	0.715
414.57	0.716
414.78	0.718
414.98	0.716
415.19	0.717
415.39	0.714
415.60	0.716
415.80	0.716
416.01	0.714
416.21	0.716
416.42	0.716
416.62	0.712
416.83	0.711
417.03	0.711
417.24	0.711
417.44	0.709
417.65	0.708
417.86	0.708
418.06	0.706
418.27	0.704
418.47	0.706
418.68	0.706
418.88	0.706
419.09	0.705
419.29	0.706
419.50	0.706
419.70	0.706
419.91	0.706
420.11	0.703
420.32	0.705
420.52	0.705
420.73	0.704
420.93	0.705
421.14	0.707
421.34	0.706
421.55	0.702
421.75	0.702
421.96	0.703
422.16	0.702
422.37	0.702
422.57	0.699
422.78	0.700
422.98	0.697
423.19	0.694
423.39	0.692
423.60	0.695
423.80	0.697
424.01	0.695
424.21	0.698
424.42	0.698
424.62	0.699
424.83	0.697
425.03	0.698
425.23	0.700
425.44	0.700
425.64	0.701
425.85	0.701
426.05	0.702
426.26	0.702
426.46	0.699
426.67	0.698
426.87	0.702
427.08	0.703
427.28	0.701
427.49	0.701
427.69	0.701
427.90	0.701
428.10	0.697
428.31	0.697
428.51	0.698
428.71	0.697
428.92	0.698
429.12	0.696
429.33	0.696
429.53	0.700
429.74	0.704
429.94	0.705
430.15	0.704
430.35	0.704
430.56	0.701
430.76	0.700
430.96	0.701
431.17	0.698
431.37	0.695
431.58	0.693
431.78	0.690
431.99	0.683
432.19	0.685
432.40	0.687
432.60	0.687
432.80	0.689
433.01	0.688
433.21	0.688
433.42	0.690
433.62	0.690
433.83	0.690
434.03	0.693
434.23	0.696
434.44	0.694
434.64	0.692
434.85	0.697
435.05	0.698
435.26	0.698
435.46	0.697
435.66	0.696
435.87	0.696
436.07	0.696
436.28	0.691
436.48	0.688
436.69	0.688
436.89	0.688
437.09	0.682
437.30	0.681
437.50	0.681
437.71	0.693
437.91	0.693
438.11	0.694
438.32	0.697
438.52	0.698
438.73	0.697
438.93	0.695
439.13	0.694
439.34	0.697
439.54	0.695
439.75	0.695
439.95	0.685
440.15	0.689
440.36	0.687
440.56	0.685
440.77	0.686
440.97	0.686
441.17	0.685
441.38	0.687
441.58	0.684
441.79	0.684
441.99	0.682
442.19	0.681
442.40	0.679
442.60	0.678
442.81	0.676
443.01	0.676
443.21	0.677
443.42	0.676
443.62	0.675
443.82	0.674
444.03	0.676
444.23	0.675
444.44	0.676
444.64	0.675
444.84	0.676
445.05	0.676
445.25	0.673
445.45	0.673
445.66	0.675
445.86	0.674
446.06	0.675
446.27	0.675
446.47	0.678
446.68	0.675
446.88	0.674
447.08	0.673
447.29	0.675
447.49	0.674
447.69	0.674
447.90	0.673
448.10	0.677
448.30	0.674
448.51	0.676
448.71	0.673
448.91	0.675
449.12	0.674
449.32	0.676
449.52	0.674
449.73	0.678
449.93	0.677
450.14	0.678
450.34	0.677
450.54	0.679
450.75	0.676
450.95	0.675
451.15	0.674
451.36	0.676
451.56	0.673
451.76	0.672
451.97	0.669
452.17	0.669
452.37	0.667
452.58	0.664
452.78	0.663
452.98	0.665
453.19	0.664
453.39	0.665
453.59	0.664
453.79	0.665
454.00	0.665
454.20	0.664
454.40	0.666
454.61	0.668
454.81	0.669
455.01	0.667
455.22	0.668
455.42	0.670
455.62	0.668
455.83	0.667
456.03	0.670
456.23	0.672
456.44	0.672
456.64	0.671
456.84	0.671
457.04	0.671
457.25	0.671
457.45	0.668
457.65	0.667
457.86	0.668
458.06	0.667
458.26	0.663
458.47	0.662
458.67	0.663
458.87	0.663
459.07	0.661
459.28	0.663
459.48	0.665
459.68	0.665
459.89	0.664
460.09	0.663
460.29	0.664
460.49	0.664
460.70	0.663
460.90	0.662
461.10	0.663
461.31	0.663
461.51	0.661
461.71	0.662
461.91	0.664
462.12	0.663
462.32	0.662
462.52	0.663
462.72	0.666
462.93	0.667
463.13	0.666
463.33	0.667
463.53	0.667
463.74	0.667
463.94	0.662
464.14	0.663
464.35	0.664
464.55	0.665
464.75	0.663
464.95	0.660
465.16	0.662
465.36	0.661
465.56	0.659
465.76	0.659
465.97	0.659
466.17	0.660
466.37	0.658
466.57	0.658
466.78	0.659
466.98	0.658
467.18	0.656
467.38	0.655
467.59	0.655
467.79	0.657
467.99	0.656
468.19	0.657
468.39	0.659
468.60	0.659
468.80	0.657
469.00	0.659
469.20	0.661
469.41	0.661
469.61	0.661
469.81	0.661
470.01	0.661
470.22	0.661
470.42	0.659
470.62	0.657
470.82	0.658
471.02	0.658
471.23	0.656
471.43	0.656
471.63	0.659
471.83	0.658
472.04	0.657
472.24	0.656
472.44	0.661
472.64	0.661
472.84	0.659
473.05	0.659
473.25	0.662
473.45	0.661
473.65	0.659
473.85	0.660
474.06	0.661
474.26	0.661
474.46	0.662
474.66	0.658
474.86	0.658
475.07	0.659
475.27	0.657
475.47	0.654
475.67	0.655
475.87	0.656
476.08	0.654
476.28	0.655
476.48	0.656
476.68	0.654
476.88	0.652
477.09	0.654
477.29	0.655
477.49	0.655
477.69	0.654
477.89	0.655
478.09	0.654
478.30	0.656
478.50	0.653
478.70	0.653
478.90	0.653
479.10	0.656
479.31	0.656
479.51	0.655
479.71	0.656
479.91	0.656
480.11	0.655
480.31	0.655
480.52	0.653
480.72	0.653
480.92	0.652
481.12	0.650
481.32	0.647
481.52	0.646
481.72	0.646
481.93	0.649
482.13	0.650
482.33	0.649
482.53	0.647
482.73	0.648
482.93	0.649
483.14	0.649
483.34	0.649
483.54	0.649
483.74	0.648
483.94	0.647
484.14	0.644
484.34	0.644
484.55	0.645
484.75	0.645
484.95	0.643
485.15	0.643
485.35	0.643
485.55	0.642
485.75	0.641
485.96	0.641
486.16	0.643
486.36	0.642
486.56	0.640
486.76	0.640
486.96	0.640
487.16	0.639
487.36	0.637
487.57	0.637
487.77	0.638
487.97	0.638
488.17	0.636
488.37	0.634
488.57	0.635
488.77	0.635
488.97	0.633
489.18	0.633
489.38	0.635
489.58	0.636
489.78	0.636
489.98	0.636
490.18	0.635
490.38	0.636
490.58	0.635
490.78	0.636
490.98	0.638
491.19	0.638
491.39	0.638
491.59	0.637
491.79	0.640
491.99	0.640
492.19	0.640
492.39	0.643
492.59	0.642
492.79	0.644
492.99	0.644
493.20	0.644
493.40	0.644
493.60	0.646
493.80	0.644
494.00	0.641
494.20	0.642
494.40	0.641
494.60	0.639
494.80	0.643
495.00	0.642
495.20	0.641
495.40	0.639
495.61	0.641
495.81	0.641
496.01	0.644
496.21	0.645
496.41	0.644
496.61	0.645
496.81	0.644
497.01	0.639
497.21	0.638
497.41	0.639
497.61	0.638
497.81	0.636
498.01	0.636
498.21	0.634
498.41	0.633
498.61	0.633
498.82	0.634
499.02	0.636
499.22	0.637
499.42	0.637
499.62	0.638
499.82	0.639
500.02	0.640
500.22	0.639
500.42	0.641
500.62	0.641
500.82	0.641
501.02	0.639
501.22	0.639
501.42	0.639
501.62	0.641
501.82	0.641
502.02	0.640
502.22	0.639
502.42	0.641
502.62	0.638
502.82	0.639
503.02	0.639
503.22	0.639
503.42	0.637
503.63	0.637
503.83	0.634
504.03	0.634
504.23	0.632
504.43	0.633
504.63	0.634
504.83	0.633
505.03	0.633
505.23	0.634
505.43	0.636
505.63	0.636
505.83	0.636
506.03	0.638
506.23	0.640
506.43	0.640
506.63	0.639
506.83	0.638
507.03	0.640
507.23	0.640
507.43	0.638
507.63	0.638
507.83	0.639
508.03	0.638
508.23	0.638
508.43	0.636
508.63	0.638
508.83	0.639
509.03	0.640
509.23	0.639
509.43	0.640
509.63	0.639
509.83	0.638
510.03	0.641
510.23	0.642
510.43	0.642
510.63	0.643
510.83	0.643
511.03	0.644
511.23	0.642
511.43	0.641
511.63	0.643
511.83	0.645
512.03	0.645
512.22	0.642
512.42	0.642
512.62	0.643
512.82	0.643
513.02	0.643
513.22	0.643
513.42	0.644
513.62	0.647
513.82	0.646
514.02	0.645
514.22	0.646
514.42	0.646
514.62	0.646
514.82	0.646
515.02	0.648
515.22	0.651
515.42	0.650
515.62	0.652
515.82	0.650
516.02	0.651
516.22	0.651
516.42	0.652
516.62	0.653
516.82	0.654
517.01	0.653
517.21	0.652
517.41	0.656
517.61	0.656
517.81	0.652
518.01	0.652
518.21	0.652
518.41	0.651
518.61	0.650
518.81	0.651
519.01	0.651
519.21	0.652
519.41	0.651
519.61	0.646
519.81	0.648
520.00	0.649
520.20	0.650
520.40	0.652
520.60	0.653
520.80	0.652
521.00	0.652
521.20	0.653
521.40	0.658
521.60	0.658
521.80	0.657
522.00	0.657
522.20	0.659
522.39	0.658
522.59	0.655
522.79	0.657
522.99	0.659
523.19	0.657
523.39	0.656
523.59	0.653
523.79	0.656
523.99	0.659
524.19	0.658
524.38	0.656
524.58	0.658
524.78	0.658
524.98	0.657
525.18	0.658
525.38	0.659
525.58	0.660
525.78	0.658
525.98	0.656
526.18	0.656
526.37	0.655
526.57	0.657
526.77	0.656
526.97	0.658
527.17	0.658
527.37	0.655
527.57	0.656
527.77	0.658
527.96	0.658
528.16	0.657
528.36	0.657
528.56	0.659
528.76	0.657
528.96	0.656
529.16	0.657
529.36	0.660
529.55	0.660
529.75	0.657
529.95	0.657
530.15	0.657
530.35	0.660
530.55	0.657
530.75	0.658
530.94	0.659
531.14	0.660
531.34	0.658
531.54	0.656
531.74	0.660
531.94	0.662
532.13	0.661
532.33	0.664
532.53	0.663
532.73	0.663
532.93	0.661
533.13	0.663
533.33	0.663
533.52	0.663
533.72	0.667
533.92	0.665
534.12	0.663
534.32	0.663
534.52	0.661
534.71	0.662
534.91	0.664
535.11	0.665
535.31	0.664
535.51	0.666
535.71	0.667
535.90	0.664
536.10	0.666
536.30	0.667
536.50	0.668
536.70	0.668
536.89	0.666
537.09	0.666
537.29	0.668
537.49	0.668
537.69	0.666
537.89	0.666
538.08	0.666
538.28	0.664
538.48	0.665
538.68	0.667
538.88	0.668
539.07	0.669
539.27	0.667
539.47	0.666
539.67	0.666
539.87	0.667
540.06	0.665
540.26	0.666
540.46	0.668
540.66	0.665
540.86	0.663
541.05	0.663
541.25	0.664
541.45	0.664
541.65	0.663
541.84	0.665
542.04	0.666
542.24	0.666
542.44	0.666
542.64	0.666
542.83	0.669
543.03	0.670
543.23	0.667
543.43	0.669
543.62	0.670
543.82	0.670
544.02	0.669
544.22	0.669
544.42	0.672
544.61	0.672
544.81	0.669
545.01	0.668
545.21	0.670
545.40	0.671
545.60	0.668
545.80	0.672
546.00	0.672
546.19	0.671
546.39	0.670
546.59	0.668
546.79	0.669
546.98	0.669
547.18	0.669
547.38	0.669
547.58	0.671
547.77	0.672
547.97	0.668
548.17	0.670
548.37	0.670
548.56	0.670
548.76	0.670
548.96	0.672
549.16	0.674
549.35	0.674
549.55	0.672
549.75	0.673
549.95	0.676
550.14	0.675
550.34	0.674
550.54	0.679
550.73	0.681
550.93	0.682
551.13	0.679
551.33	0.678
551.52	0.679
551.72	0.680
551.92	0.678
552.12	0.678
552.31	0.679
552.51	0.679
552.71	0.675
552.90	0.675
553.10	0.677
553.30	0.677
553.50	0.676
553.69	0.677
553.89	0.677
554.09	0.678
554.28	0.675
554.48	0.677
554.68	0.678
554.87	0.678
555.07	0.674
555.27	0.673
555.47	0.675
555.66	0.676
555.86	0.674
556.06	0.676
556.25	0.677
556.45	0.685
556.65	0.683
556.84	0.686
557.04	0.690
557.24	0.692
557.43	0.692
557.63	0.694
557.83	0.696
558.02	0.696
558.22	0.701
558.42	0.701
558.61	0.694
558.81	0.694
559.01	0.690
559.21	0.689
559.40	0.690
559.60	0.690
559.80	0.687
559.99	0.687
560.19	0.689
560.39	0.683
560.58	0.681
560.78	0.681
560.97	0.685
561.17	0.684
561.37	0.682
561.56	0.682
561.76	0.684
561.96	0.684
562.15	0.681
562.35	0.683
562.55	0.684
562.74	0.684
562.94	0.683
563.14	0.682
563.33	0.683
563.53	0.682
563.73	0.680
563.92	0.682
564.12	0.684
564.31	0.686
564.51	0.684
564.71	0.686
564.90	0.688
565.10	0.689
565.30	0.691
565.49	0.693
565.69	0.694
565.89	0.695
566.08	0.693
566.28	0.695
566.47	0.697
566.67	0.695
566.87	0.692
567.06	0.694
567.26	0.701
567.46	0.697
567.65	0.696
567.85	0.698
568.04	0.701
568.24	0.700
568.44	0.696
568.63	0.694
568.83	0.695
569.02	0.694
569.22	0.690
569.42	0.686
569.61	0.687
569.81	0.686
570.00	0.684
570.20	0.685
570.40	0.687
570.59	0.687
570.79	0.685
570.98	0.684
571.18	0.685
571.38	0.685
571.57	0.682
571.77	0.680
571.96	0.684
572.16	0.681
572.35	0.676
572.55	0.677
572.75	0.674
572.94	0.674
573.14	0.673
573.33	0.673
573.53	0.673
573.73	0.673
573.92	0.671
574.12	0.669
574.31	0.672
574.51	0.672
574.70	0.669
574.90	0.671
575.09	0.673
575.29	0.673
575.49	0.670
575.68	0.671
575.88	0.672
576.07	0.673
576.27	0.672
576.46	0.670
576.66	0.669
576.86	0.669
577.05	0.666
577.25	0.665
577.44	0.666
577.64	0.666
577.83	0.665
578.03	0.665
578.22	0.665
578.42	0.664
578.61	0.663
578.81	0.663
579.00	0.664
579.20	0.663
579.40	0.662
579.59	0.660
579.79	0.660
579.98	0.660
580.18	0.659
580.37	0.659
580.57	0.661
580.76	0.665
580.96	0.664
581.15	0.665
581.35	0.667
581.54	0.667
581.74	0.667
581.93	0.668
582.13	0.669
582.32	0.667
582.52	0.665
582.71	0.664
582.91	0.660
583.10	0.659
583.30	0.658
583.49	0.657
583.69	0.661
583.88	0.662
584.08	0.660
584.27	0.663
584.47	0.666
584.66	0.668
584.86	0.667
585.05	0.670
585.25	0.673
585.44	0.672
585.64	0.671
585.83	0.667
586.03	0.667
586.22	0.666
586.42	0.662
586.61	0.663
586.81	0.665
587.00	0.664
587.20	0.661
587.39	0.662
587.59	0.663
587.78	0.664
587.98	0.665
588.17	0.666
588.37	0.669
588.56	0.670
588.76	0.666
588.95	0.666
589.15	0.671
589.34	0.673
589.54	0.672
589.73	0.673
589.92	0.676
590.12	0.676
590.31	0.674
590.51	0.680
590.70	0.681
590.90	0.682
591.09	0.681
591.29	0.680
591.48	0.679
591.68	0.680
591.87	0.679
592.06	0.678
592.26	0.680
592.45	0.680
592.65	0.673
592.84	0.673
593.04	0.674
593.23	0.676
593.43	0.674
593.62	0.674
593.81	0.674
594.01	0.673
594.20	0.671
594.40	0.670
594.59	0.671
594.79	0.672
594.98	0.670
595.17	0.670
595.37	0.670
595.56	0.672
595.76	0.672
595.95	0.674
596.14	0.677
596.34	0.679
596.53	0.677
596.73	0.679
596.92	0.680
597.12	0.684
597.31	0.684
597.50	0.683
597.70	0.685
597.89	0.684
598.09	0.681
598.28	0.682
598.47	0.684
598.67	0.682
598.86	0.678
599.06	0.680
599.25	0.680
599.44	0.678
599.64	0.675
599.83	0.672
600.03	0.675
600.22	0.675
600.41	0.675
600.61	0.673
600.80	0.675
601.00	0.676
601.19	0.672
601.38	0.671
601.58	0.673
601.77	0.674
601.96	0.677
602.16	0.676
602.35	0.685
602.55	0.683
602.74	0.684
602.93	0.686
603.13	0.691
603.32	0.692
603.51	0.692
603.71	0.696
603.90	0.697
604.09	0.698
604.29	0.695
604.48	0.690
604.68	0.691
604.87	0.690
605.06	0.687
605.26	0.683
605.45	0.684
605.64	0.683
605.84	0.678
606.03	0.678
606.22	0.676
606.42	0.676
606.61	0.673
606.80	0.672
607.00	0.673
607.19	0.673
607.38	0.672
607.58	0.673
607.77	0.674
607.96	0.674
608.16	0.672
608.35	0.676
608.54	0.678
608.74	0.680
608.93	0.686
609.12	0.689
609.32	0.691
609.51	0.694
609.70	0.693
609.90	0.695
610.09	0.700
610.28	0.705
610.48	0.700
610.67	0.702
610.86	0.704
611.06	0.698
611.25	0.696
611.44	0.698
611.64	0.698
611.83	0.701
612.02	0.697
612.21	0.696
612.41	0.693
612.60	0.693
612.79	0.689
612.99	0.689
613.18	0.690
613.37	0.688
613.57	0.685
613.76	0.687
613.95	0.683
614.14	0.683
614.34	0.680
614.53	0.681
614.72	0.684
614.92	0.684
615.11	0.681
615.30	0.678
615.49	0.679
615.69	0.682
615.88	0.678
616.07	0.680
616.26	0.682
616.46	0.683
616.65	0.681
616.84	0.680
617.04	0.680
617.23	0.683
617.42	0.683
617.61	0.686
617.81	0.687
618.00	0.688
618.19	0.687
618.38	0.690
618.58	0.694
618.77	0.695
618.96	0.694
619.15	0.697
619.35	0.698
619.54	0.699
619.73	0.695
619.92	0.698
620.12	0.702
620.31	0.703
620.50	0.699
620.69	0.698
620.89	0.702
621.08	0.702
621.27	0.702
621.46	0.701
621.66	0.705
621.85	0.705
622.04	0.701
622.23	0.703
622.43	0.702
622.62	0.702
622.81	0.702
623.00	0.701
623.19	0.704
623.39	0.703
623.58	0.700
623.77	0.698
623.96	0.701
624.16	0.701
624.35	0.695
624.54	0.698
624.73	0.701
624.92	0.698
625.12	0.695
625.31	0.696
625.50	0.699
625.69	0.700
625.88	0.697
626.08	0.696
626.27	0.697
626.46	0.698
626.65	0.695
626.84	0.695
627.04	0.701
627.23	0.701
627.42	0.697
627.61	0.699
627.80	0.700
628.00	0.700
628.19	0.699
628.38	0.702
628.57	0.704
628.76	0.704
628.96	0.701
629.15	0.701
629.34	0.704
629.53	0.704
629.72	0.699
629.91	0.700
630.11	0.704
630.30	0.704
630.49	0.707
630.68	0.708
630.87	0.711
631.06	0.713
631.26	0.709
631.45	0.711
631.64	0.718
631.83	0.719
632.02	0.718
632.21	0.716
632.41	0.722
632.60	0.716
632.79	0.716
632.98	0.717
633.17	0.717
633.36	0.720
633.55	0.715
633.75	0.711
633.94	0.712
634.13	0.713
634.32	0.711
634.51	0.706
634.70	0.708
634.89	0.707
635.09	0.703
635.28	0.704
635.47	0.704
635.66	0.708
635.85	0.705
636.04	0.706
636.23	0.710
636.43	0.711
636.62	0.710
636.81	0.709
637.00	0.711
637.19	0.715
637.38	0.712
637.57	0.711
637.76	0.712
637.95	0.713
638.15	0.710
638.34	0.706
638.53	0.708
638.72	0.710
638.91	0.707
639.10	0.705
639.29	0.704
639.48	0.705
639.67	0.707
639.87	0.706
640.06	0.711
640.25	0.711
640.44	0.713
640.63	0.714
640.82	0.715
641.01	0.716
641.20	0.716
641.39	0.718
641.58	0.719
641.78	0.716
641.97	0.713
642.16	0.728
642.35	0.727
642.54	0.725
642.73	0.720
642.92	0.719
643.11	0.721
643.30	0.721
643.49	0.716
643.68	0.719
643.87	0.720
644.06	0.718
644.25	0.699
644.45	0.702
644.64	0.702
644.83	0.704
645.02	0.702
645.21	0.702
645.40	0.703
645.59	0.704
645.78	0.699
645.97	0.701
646.16	0.702
646.35	0.701
646.54	0.699
646.73	0.702
646.92	0.702
647.11	0.701
647.30	0.697
647.49	0.698
647.68	0.698
647.88	0.696
648.07	0.690
648.26	0.694
648.45	0.695
648.64	0.692
648.83	0.688
649.02	0.691
649.21	0.701
649.40	0.700
649.59	0.695
649.78	0.696
649.97	0.709
650.16	0.708
650.35	0.701
650.54	0.704
650.73	0.712
650.92	0.709
651.11	0.703
651.30	0.701
651.49	0.704
651.68	0.706
651.87	0.703
652.06	0.694
652.25	0.697
652.44	0.702
652.63	0.701
652.82	0.703
653.01	0.703
653.20	0.702
653.39	0.691
653.58	0.689
653.77	0.688
653.96	0.684
654.15	0.676
654.34	0.674
654.53	0.669
654.72	0.662
654.91	0.653
655.10	0.648
655.29	0.646
655.48	0.643
655.67	0.638
655.86	0.635
656.05	0.633
656.24	0.633
656.43	0.628
656.62	0.626
656.81	0.625
657.00	0.622
657.19	0.619
657.38	0.618
657.57	0.617
657.76	0.618
657.95	0.616
658.14	0.618
658.33	0.620
658.51	0.624
658.70	0.624
658.89	0.627
659.08	0.636
659.27	0.644
659.46	0.645
659.65	0.652
659.84	0.655
660.03	0.658
660.22	0.659
660.41	0.663
660.60	0.663
660.79	0.665
660.98	0.671
661.17	0.670
661.36	0.669
661.55	0.670
661.74	0.668
661.92	0.671
662.11	0.674
662.30	0.673
662.49	0.667
662.68	0.666
662.87	0.669
663.06	0.663
663.25	0.664
663.44	0.665
663.63	0.666
663.82	0.664
664.01	0.659
664.20	0.658
664.38	0.659
664.57	0.659
664.76	0.659
664.95	0.658
665.14	0.662
665.33	0.658
665.52	0.665
665.71	0.669
665.90	0.669
666.09	0.671
666.28	0.668
666.46	0.668
666.65	0.669
666.84	0.668
667.03	0.662
667.22	0.661
667.41	0.663
667.60	0.652
667.79	0.646
667.98	0.647
668.16	0.647
668.35	0.647
668.54	0.642
668.73	0.643
668.92	0.643
669.11	0.643
669.30	0.638
669.49	0.634
669.67	0.637
669.86	0.639
670.05	0.637
670.24	0.634
670.43	0.632
670.62	0.631
670.81	0.627
671.00	0.628
671.18	0.627
671.37	0.626
671.56	0.624
671.75	0.622
671.94	0.618
672.13	0.616
672.32	0.612
672.50	0.612
672.69	0.612
672.88	0.612
673.07	0.608
673.26	0.610
673.45	0.611
673.63	0.611
673.82	0.608
674.01	0.610
674.20	0.609
674.39	0.609
674.58	0.608
674.76	0.609
674.95	0.607
675.14	0.607
675.33	0.603
675.52	0.601
675.71	0.601
675.89	0.601
676.08	0.597
676.27	0.598
676.46	0.598
676.65	0.598
676.84	0.597
677.02	0.599
677.21	0.601
677.40	0.600
677.59	0.597
677.78	0.598
677.96	0.600
678.15	0.599
678.34	0.597
678.53	0.598
678.72	0.597
678.90	0.594
679.09	0.590
679.28	0.586
679.47	0.586
679.66	0.585
679.84	0.582
680.03	0.579
680.22	0.578
680.41	0.579
680.60	0.575
680.78	0.575
680.97	0.577
681.16	0.578
681.35	0.577
681.53	0.577
681.72	0.578
681.91	0.580
682.10	0.579
682.29	0.582
682.47	0.580
682.66	0.578
682.85	0.576
683.04	0.574
683.22	0.575
683.41	0.576
683.60	0.575
683.79	0.576
683.97	0.575
684.16	0.573
684.35	0.570
684.54	0.571
684.72	0.571
684.91	0.572
685.10	0.570
685.29	0.571
685.47	0.568
685.66	0.567
685.85	0.564
686.04	0.562
686.22	0.564
686.41	0.567
686.60	0.564
686.79	0.567
686.97	0.567
687.16	0.569
687.35	0.567
687.54	0.570
687.72	0.574
687.91	0.574
688.10	0.576
688.29	0.576
688.47	0.574
688.66	0.575
688.85	0.572
689.03	0.570
689.22	0.574
689.41	0.574
689.60	0.570
689.78	0.567
689.97	0.568
690.16	0.565
690.34	0.561
690.53	0.561
690.72	0.561
690.91	0.559
691.09	0.557
691.28	0.552
691.47	0.550
691.65	0.549
691.84	0.547
692.03	0.546
692.21	0.544
692.40	0.544
692.59	0.541
692.77	0.540
692.96	0.541
693.15	0.542
693.34	0.539
693.52	0.539
693.71	0.539
693.90	0.540
694.08	0.541
694.27	0.541
694.46	0.550
694.64	0.551
694.83	0.551
695.02	0.550
695.20	0.548
695.39	0.548
695.58	0.549
695.76	0.549
695.95	0.548
696.14	0.546
696.32	0.544
696.51	0.535
696.70	0.535
696.88	0.536
697.07	0.535
697.26	0.537
697.44	0.538
697.63	0.537
697.81	0.535
698.00	0.535
698.19	0.535
698.37	0.535
698.56	0.534
698.75	0.534
698.93	0.534
699.12	0.533
699.31	0.533
699.49	0.532
699.68	0.532
699.87	0.534
700.05	0.534
700.24	0.533
700.42	0.535
700.61	0.535
700.80	0.533
700.98	0.533
701.17	0.534
701.36	0.533
701.54	0.532
701.73	0.534
701.91	0.532
702.10	0.532
702.29	0.530
702.47	0.528
702.66	0.529
702.84	0.531
703.03	0.529
703.22	0.531
703.40	0.530
703.59	0.532
703.77	0.531
703.96	0.531
704.15	0.531
704.33	0.531
704.52	0.531
704.70	0.531
704.89	0.530
705.08	0.529
705.26	0.525
705.45	0.525
705.63	0.524
705.82	0.521
706.00	0.521
706.19	0.520
706.38	0.519
706.56	0.518
706.75	0.517
706.93	0.516
707.12	0.517
707.30	0.517
707.49	0.515
707.68	0.513
707.86	0.513
708.05	0.512
708.23	0.510
708.42	0.511
708.60	0.513
708.79	0.513
708.98	0.512
709.16	0.511
709.35	0.513
709.53	0.516
709.72	0.515
709.90	0.517
710.09	0.519
710.27	0.520
710.46	0.524
710.64	0.522
710.83	0.524
711.02	0.525
711.20	0.524
711.39	0.523
711.57	0.520
711.76	0.520
711.94	0.518
712.13	0.520
712.31	0.520
712.50	0.515
712.68	0.513
712.87	0.515
713.05	0.516
713.24	0.516
713.42	0.515
713.61	0.516
713.79	0.517
713.98	0.517
714.16	0.518
714.35	0.518
714.54	0.519
714.72	0.519
714.91	0.517
715.09	0.522
715.28	0.525
715.46	0.525
715.65	0.523
715.83	0.523
716.02	0.525
716.20	0.521
716.39	0.520
716.57	0.521
716.76	0.523
716.94	0.523
717.12	0.517
717.31	0.518
717.49	0.521
717.68	0.523
717.86	0.523
718.05	0.525
718.23	0.527
718.42	0.529
718.60	0.530
718.79	0.537
718.97	0.539
719.16	0.539
719.34	0.536
719.53	0.536
719.71	0.535
719.90	0.537
720.08	0.534
720.27	0.534
720.45	0.534
720.63	0.533
720.82	0.528
721.00	0.530
721.19	0.533
721.37	0.532
721.56	0.533
721.74	0.536
721.93	0.544
722.11	0.550
722.30	0.549
722.48	0.554
722.66	0.556
722.85	0.555
723.03	0.555
723.22	0.554
723.40	0.557
723.59	0.557
723.77	0.562
723.95	0.555
724.14	0.557
724.32	0.559
724.51	0.558
724.69	0.559
724.88	0.559
725.06	0.557
725.24	0.558
725.43	0.559
725.61	0.561
725.80	0.554
725.98	0.553
726.16	0.550
726.35	0.555
726.53	0.554
726.72	0.552
726.90	0.562
727.09	0.563
727.27	0.568
727.45	0.566
727.64	0.574
727.82	0.583
728.01	0.587
728.19	0.585
728.37	0.590
728.56	0.595
728.74	0.602
728.92	0.591
729.11	0.593
729.29	0.591
729.48	0.595
729.66	0.586
729.84	0.584
730.03	0.586
730.21	0.588
730.40	0.580
730.58	0.580
730.76	0.580
730.95	0.583
731.13	0.582
731.31	0.597
731.50	0.604
731.68	0.608
731.86	0.606
732.05	0.619
732.23	0.620
732.42	0.623
732.60	0.627
732.78	0.631
732.97	0.648
733.15	0.654
733.33	0.641
733.52	0.647
733.70	0.656
733.88	0.665
734.07	0.653
734.25	0.678
734.43	0.684
734.62	0.684
734.80	0.681
734.98	0.671
735.17	0.677
735.35	0.684
735.53	0.674
735.72	0.675
735.90	0.694
736.08	0.712
736.27	0.691
736.45	0.700
736.63	0.711
736.82	0.721
737.00	0.723
737.18	0.734
737.37	0.762
737.55	0.785
737.73	0.781
737.92	0.781
738.10	0.777
738.28	0.794
738.46	0.783
738.65	0.794
738.83	0.811
739.01	0.860
739.20	0.848
739.38	0.830
739.56	0.818
739.75	0.826
739.93	0.798
740.11	0.821
740.29	0.821
740.48	0.831
740.66	0.810
740.84	0.804
741.03	0.768
741.21	0.780
741.39	0.769
741.57	0.781
741.76	0.791
741.94	0.798
742.12	0.767
742.31	0.772
742.49	0.787
742.67	0.811
742.85	0.826
743.04	0.832
743.22	0.839
743.40	0.883
743.58	0.872
743.77	0.893
743.95	0.917
744.13	0.965
744.31	0.947
744.50	0.943
744.68	0.940
744.86	0.921
745.04	0.933
745.23	0.991
745.41	0.969
745.59	0.971
745.77	0.938
745.96	0.928
746.14	0.932
746.32	0.933
746.50	0.921
746.69	0.906
746.87	0.908
747.05	0.891
747.23	0.828
747.42	0.816
747.60	0.832
747.78	0.831
747.96	0.856
748.14	0.815
748.33	0.836
748.51	0.834
748.69	0.831
748.87	0.855
749.06	0.853
749.24	0.850
749.42	0.842
749.60	0.833
749.78	0.845
749.97	0.805
750.15	0.802
750.33	0.802
750.51	0.823
750.69	0.829
750.88	0.834
751.06	0.842
751.24	0.865
751.42	0.857
751.60	0.848
751.79	0.906
751.97	0.944
752.15	0.945
752.33	0.919
752.51	0.975
752.69	0.983
752.88	0.956
753.06	1.000
753.24	0.981
753.42	1.007
753.60	1.155
753.78	1.041
753.97	1.061
754.15	1.070
754.33	1.101
754.51	0.996
754.69	0.981
754.87	1.002
755.06	0.940
755.24	0.941
755.42	0.951
755.60	0.857
755.78	0.864
755.96	0.819
756.15	0.821
756.33	0.826
756.51	0.844
756.69	0.834
756.87	0.803
757.05	0.819
757.23	0.803
757.42	0.770
757.60	0.770
757.78	0.761
757.96	0.759
758.14	0.745
758.32	0.727
758.50	0.736
758.69	0.735
758.87	0.730
759.05	0.732
759.23	0.739
759.41	0.740
759.59	0.733
759.77	0.748
759.95	0.772
760.13	0.817
760.32	0.817
760.50	0.810
760.68	0.827
760.86	0.828
761.04	0.808
761.22	0.811
761.40	0.854
761.58	0.855
761.76	0.834
761.95	0.817
762.13	0.775
762.31	0.778
762.49	0.754
762.67	0.773
762.85	0.783
763.03	0.779
763.21	0.766
763.39	0.749
763.57	0.751
763.75	0.747
763.94	0.736
764.12	0.739
764.30	0.758
764.48	0.763
764.66	0.731
764.84	0.729
765.02	0.761
765.20	0.766
765.38	0.747
765.56	0.752
765.74	0.788
765.92	0.787
766.10	0.794
766.28	0.786
766.46	0.807
766.65	0.805
766.83	0.796
767.01	0.785
767.19	0.791
767.37	0.793
767.55	0.780
767.73	0.760
767.91	0.762
768.09	0.750
768.27	0.744
768.45	0.736
768.63	0.742
768.81	0.743
768.99	0.719
769.17	0.736
769.35	0.747
769.53	0.747
769.71	0.733
769.89	0.738
770.07	0.741
770.25	0.727
770.43	0.707
770.61	0.726
770.79	0.733
770.97	0.740
771.15	0.715
771.33	0.717
771.51	0.720
771.69	0.728
771.87	0.738
772.05	0.742
772.24	0.746
772.42	0.757
772.60	0.739
772.78	0.792
772.96	0.817
773.14	0.814
773.32	0.794
773.49	0.799
773.67	0.797
773.85	0.778
774.03	0.769
774.21	0.797
774.39	0.803
774.57	0.821
774.75	0.755
774.93	0.749
775.11	0.769
775.29	0.774
775.47	0.777
775.65	0.785
775.83	0.799
776.01	0.821
776.19	0.782
776.37	0.783
776.55	0.781
776.73	0.779
776.91	0.777
777.09	0.761
777.27	0.761
777.45	0.749
777.63	0.727
777.81	0.725
777.99	0.711
778.17	0.709
778.35	0.692
778.53	0.680
778.71	0.684
778.89	0.672
779.07	0.663
779.24	0.666
779.42	0.667
779.60	0.687
779.78	0.681
779.96	0.683
780.14	0.690
780.32	0.708
780.50	0.696
780.68	0.695
780.86	0.689
781.04	0.705
781.22	0.711
781.40	0.718
781.58	0.708
781.75	0.705
781.93	0.692
782.11	0.692
782.29	0.679
782.47	0.677
782.65	0.668
782.83	0.692
783.01	0.683
783.19	0.677
783.37	0.668
783.55	0.670
783.72	0.684
783.90	0.694
784.08	0.688
784.26	0.697
784.44	0.717
784.62	0.720
784.80	0.693
784.98	0.702
785.16	0.707
785.33	0.719
785.51	0.706
785.69	0.694
785.87	0.692
786.05	0.702
786.23	0.699
786.41	0.693
786.59	0.698
786.77	0.697
786.94	0.684
787.12	0.687
787.30	0.687
787.48	0.686
787.66	0.678
787.84	0.680
788.02	0.667
788.19	0.665
788.37	0.656
788.55	0.657
788.73	0.658
788.91	0.654
789.09	0.641
789.27	0.631
789.44	0.639
789.62	0.644
789.80	0.652
789.98	0.676
790.16	0.665
790.34	0.660
790.51	0.648
790.69	0.666
790.87	0.671
791.05	0.667
791.23	0.662
791.41	0.664
791.58	0.670
791.76	0.651
791.94	0.627
792.12	0.634
792.30	0.635
792.48	0.636
792.65	0.630
792.83	0.634
793.01	0.640
793.19	0.637
793.37	0.623
793.54	0.621
793.72	0.630
793.90	0.627
794.08	0.619
794.26	0.619
794.43	0.625
794.61	0.609
794.79	0.599
794.97	0.597
795.15	0.603
795.32	0.608
795.50	0.599
795.68	0.593
795.86	0.595
796.04	0.596
796.21	0.592
796.39	0.592
796.57	0.603
796.75	0.612
796.92	0.615
797.10	0.618
797.28	0.619
797.46	0.621
797.64	0.624
797.81	0.631
797.99	0.634
798.17	0.638
798.35	0.633
798.52	0.636
798.70	0.631
798.88	0.637
799.06	0.637
799.23	0.640
799.41	0.644
799.59	0.638
799.77	0.629
799.94	0.636
800.12	0.645
800.30	0.661
800.48	0.662
800.65	0.662
800.83	0.654
801.01	0.646
801.19	0.645
801.36	0.643
801.54	0.644
801.72	0.653
801.90	0.641
802.07	0.637
802.25	0.622
802.43	0.605
802.60	0.604
802.78	0.608
802.96	0.611
803.14	0.608
803.31	0.608
803.49	0.610
803.67	0.607
803.84	0.611
804.02	0.605
804.20	0.609
804.38	0.615
804.55	0.614
804.73	0.604
804.91	0.605
805.08	0.614
805.26	0.611
805.44	0.674
805.61	0.676
805.79	0.675
805.97	0.674
806.15	0.669
806.32	0.663
806.50	0.668
806.68	0.667
806.85	0.662
807.03	0.653
807.21	0.667
807.38	0.602
807.56	0.592
807.74	0.601
807.91	0.605
808.09	0.605
808.27	0.622
808.44	0.645
808.62	0.652
808.80	0.653
808.97	0.650
809.15	0.645
809.33	0.659
809.50	0.667
809.68	0.655
809.86	0.664
810.03	0.693
810.21	0.674
810.39	0.659
810.56	0.663
810.74	0.684
810.91	0.749
811.09	0.739
811.27	0.759
811.44	0.762
811.62	0.762
811.80	0.747
811.97	0.722
812.15	0.721
812.33	0.715
812.50	0.702
812.68	0.691
812.85	0.638
813.03	0.641
813.21	0.614
813.38	0.609
813.56	0.613
813.74	0.622
813.91	0.628
814.09	0.654
814.26	0.649
814.44	0.653
814.62	0.644
814.79	0.647
814.97	0.648
815.14	0.650
815.32	0.652
815.50	0.665
815.67	0.666
815.85	0.658
816.02	0.649
816.20	0.657
816.38	0.669
816.55	0.675
816.73	0.677
816.90	0.685
817.08	0.714
817.26	0.719
817.43	0.702
817.61	0.726
817.78	0.742
817.96	0.722
818.13	0.715
818.31	0.715
818.49	0.726
818.66	0.717
818.84	0.706
819.01	0.687
819.19	0.691
819.36	0.693
819.54	0.665
819.71	0.702
819.89	0.715
820.07	0.725
820.24	0.721
820.42	0.721
820.59	0.738
820.77	0.758
820.94	0.750
821.12	0.765
821.29	0.776
821.47	0.777
821.64	0.722
821.82	0.731
822.00	0.728
822.17	0.726
822.35	0.719
822.52	0.722
822.70	0.711
822.87	0.720
823.05	0.703
823.22	0.713
823.40	0.737
823.57	0.759
823.75	0.745
823.92	0.768
824.10	0.782
824.27	0.820
824.45	0.813
824.62	0.870
824.80	0.884
824.97	0.897
825.15	0.888
825.32	0.898
825.50	0.890
825.67	0.900
825.85	0.878
826.02	0.896
826.20	0.909
826.37	1.015
826.55	0.945
826.72	1.097
826.90	1.151
827.07	1.197
827.25	1.158
827.42	1.295
827.60	1.386
827.77	1.526
827.95	1.493
828.12	1.578
828.30	1.313
828.47	1.429
828.65	1.141
828.82	1.178
829.00	1.208
829.17	1.268
829.34	1.280
829.52	1.300
829.69	-0.000
829.87	-0.000
830.04	-0.000
830.22	-0.000
830.39	-0.000
830.57	-0.000
830.74	-0.000
830.92	-0.000
831.09	-0.000
831.26	-0.000
831.44	-0.000
831.61	-0.000
831.79	-0.000
831.96	-0.000
832.14	-0.000
832.31	-0.000
832.49	-0.000
832.66	-0.000
832.83	-0.000
833.01	-0.000
833.18	-0.000
833.36	-0.000
833.53	-0.000
833.70	-0.000
833.88	-0.000
834.05	-0.000
834.23	-0.000
834.40	-0.000
834.58	-0.000
834.75	-0.000
834.92	-0.000
835.10	-0.000
835.27	-0.000
835.45	-0.000
835.62	-0.000
835.79	-0.000
835.97	-0.000
836.14	-0.000
836.32	-0.000
836.49	-0.000
836.66	-0.000
836.84	-0.000
837.01	-0.000
837.18	-0.000
837.36	-0.000
837.53	-0.000
837.71	-0.000
837.88	-0.000
838.05	-0.000
838.23	-0.000
838.40	-0.000
838.58	-0.000
838.75	-0.000
838.92	-0.000
839.10	-0.000
839.27	-0.000
839.44	-0.000
839.62	-0.000
839.79	-0.000
839.96	-0.000
840.14	-0.000
840.31	-0.000
840.48	-0.000
840.66	-0.000
840.83	-0.000
841.01	-0.000
841.18	-0.000
841.35	-0.000
841.53	-0.000
841.70	-0.000
841.87	-0.000
842.05	-0.000
842.22	-0.000
842.39	-0.000
842.57	-0.000
842.74	-0.000
842.91	-0.000
843.09	-0.000
843.26	-0.000
843.43	-0.000
843.60	-0.000
843.78	-0.000
843.95	-0.000
844.12	-0.000
844.30	-0.000
844.47	-0.000
844.64	-0.000
844.82	-0.000
844.99	-0.000
845.16	-0.000
845.34	-0.000
845.51	-0.000
845.68	-0.000
845.85	-0.000
846.03	-0.000
846.20	-0.000
846.37	-0.000
846.55	-0.000
846.72	-0.000
846.89	-0.000
847.06	-0.000
847.24	-0.000
847.41	-0.000
847.58	-0.000
847.76	-0.000
847.93	-0.000
848.10	-0.000
848.27	-0.000
848.45	-0.000
848.62	-0.000
848.79	-0.000
848.97	-0.000
849.14	-0.000
849.31	-0.000
849.48	-0.000
849.66	-0.000
849.83	-0.000
850.00	-0.000
850.17	-0.000
850.35	-0.000
850.52	-0.000
850.69	-0.000
850.86	-0.000
851.04	-0.000
851.21	-0.000
851.38	-0.000
851.55	-0.000
851.72	-0.000
851.90	-0.000
852.07	-0.000
852.24	-0.000
852.41	-0.000
852.59	-0.000
852.76	-0.000
852.93	-0.000
853.10	-0.000
853.28	-0.000
853.45	-0.000
853.62	-0.000
853.79	-0.000
853.96	-0.000
854.14	-0.000
854.31	-0.000
854.48	-0.000
854.65	-0.000
854.82	-0.000
855.00	-0.000
855.17	-0.000
855.34	-0.000
855.51	-0.000
855.68	-0.000
855.86	-0.000
856.03	-0.000
856.20	-0.000
856.37	-0.000
856.54	-0.000
856.72	-0.000
856.89	-0.000
857.06	-0.000
857.23	-0.000
857.40	-0.000
857.57	-0.000
857.75	-0.000
857.92	-0.000
858.09	-0.000
858.26	-0.000
858.43	-0.000
858.60	-0.000
858.78	-0.000
858.95	-0.000
859.12	-0.000
859.29	-0.000
859.46	-0.000
859.63	-0.000
859.81	-0.000
859.98	-0.000
860.15	-0.000
860.32	-0.000
860.49	-0.000
860.66	-0.000
860.83	-0.000
861.01	-0.000
861.18	-0.000
861.35	-0.000
861.52	-0.000
861.69	-0.000
861.86	-0.000
862.03	-0.000
862.21	-0.000
862.38	-0.000
862.55	-0.000
862.72	-0.000
862.89	-0.000
863.06	-0.000
863.23	-0.000
863.40	-0.000
863.58	-0.000
863.75	-0.000
863.92	-0.000
864.09	-0.000
864.26	-0.000
864.43	-0.000
864.60	-0.000
864.77	-0.000
864.94	-0.000
865.11	-0.000
865.29	-0.000
865.46	-0.000
865.63	-0.000
865.80	-0.000
865.97	-0.000
866.14	-0.000
866.31	-0.000
866.48	-0.000
866.65	-0.000
866.82	-0.000
866.99	-0.000
867.16	-0.000
867.34	-0.000
867.51	-0.000
867.68	-0.000
867.85	-0.000
868.02	-0.000
868.19	-0.000
868.36	-0.000
868.53	-0.000
868.70	-0.000
868.87	-0.000
869.04	-0.000
869.21	-0.000
869.38	-0.000
869.55	-0.000
869.72	-0.000
869.89	-0.000
870.06	-0.000
870.24	-0.000
870.41	-0.000
870.58	-0.000
870.75	-0.000
870.92	-0.000
871.09	-0.000
871.26	-0.000
871.43	-0.000
871.60	-0.000
871.77	-0.000
871.94	-0.000
872.11	-0.000
872.28	-0.000
872.45	-0.000
872.62	-0.000
872.79	-0.000
872.96	-0.000
873.13	-0.000
873.30	-0.000
873.47	-0.000
873.64	-0.000
873.81	-0.000
873.98	-0.000
874.15	-0.000
874.32	-0.000
874.49	-0.000
874.66	-0.000
874.83	-0.000
875.00	-0.000
875.17	-0.000
875.34	-0.000
875.51	-0.000
875.68	-0.000
875.85	-0.000
876.02	-0.000
876.19	-0.000
876.36	-0.000
876.53	-0.000
876.70	-0.000
876.87	-0.000
877.04	-0.000
877.21	-0.000
877.38	-0.000
877.55	-0.000
877.72	-0.000
877.89	-0.000
878.06	-0.000
878.23	-0.000
878.39	-0.000
878.56	-0.000
878.73	-0.000
878.90	-0.000
879.07	-0.000
879.24	-0.000
879.41	-0.000
879.58	-0.000
879.75	-0.000
879.92	-0.000
880.09	-0.000
880.26	-0.000
880.43	-0.000
880.60	-0.000
880.77	-0.000
880.94	-0.000
881.11	-0.000
881.27	-0.000
881.44	-0.000
881.61	-0.000
881.78	-0.000
881.95	-0.000
882.12	-0.000
882.29	-0.000
882.46	-0.000
882.63	-0.000
882.80	-0.000
882.97	-0.000
883.14	-0.000
883.30	-0.000
883.47	-0.000
883.64	-0.000
883.81	-0.000
883.98	-0.000
884.15	-0.000
884.32	-0.000
884.49	-0.000
884.66	-0.000
884.82	-0.000
884.99	-0.000
885.16	-0.000
885.33	-0.000
885.50	-0.000
885.67	-0.000
885.84	-0.000
886.01	-0.000
886.17	-0.000
886.34	-0.000
886.51	-0.000
886.68	-0.000
886.85	-0.000
887.02	-0.000
887.19	-0.000
887.36	-0.000
887.52	-0.000
887.69	-0.000
887.86	-0.000
888.03	-0.000
888.20	-0.000
888.37	-0.000
888.54	-0.000
888.70	-0.000
888.87	-0.000
889.04	-0.000
889.21	-0.000
889.38	-0.000
889.55	-0.000
889.71	-0.000
889.88	-0.000
890.05	-0.000
890.22	-0.000
890.39	-0.000
>>>>>End Processed Spectral Data<<<<<
