SpectraSuite Data File
++++++++++++++++++++++++++++++++++++
Date: Fri Jun 19 15:53:20 CEST 2015
User: introlabs
Dark Spectrum Present: Yes
Reference Spectrum Present: Yes
Number of Sampled Component Spectra: 1
Spectrometers: USB4H08886
Integration Time (usec): 745692 (USB4H08886)
Spectra Averaged: 5 (USB4H08886)
Boxcar Smoothing: 5 (USB4H08886)
Correct for Electrical Dark: Yes (USB4H08886)
Strobe/Lamp Enabled: No (USB4H08886)
Correct for Detector Non-linearity: Yes (USB4H08886)
Correct for Stray Light: Yes (USB4H08886)
Number of Pixels in Processed Spectrum: 3648
>>>>>Begin Processed Spectral Data<<<<<
178.14	-0.000
178.36	-0.000
178.57	-0.000
178.79	-0.000
179.01	-0.000
179.22	-0.000
179.44	-0.000
179.65	-0.000
179.87	-0.000
180.08	-0.000
180.30	-0.000
180.52	-0.000
180.73	-0.000
180.95	-0.000
181.16	-0.000
181.38	-0.000
181.59	-0.000
181.81	-0.000
182.03	-0.000
182.24	-0.000
182.46	-0.000
182.67	-0.000
182.89	-0.000
183.10	-0.000
183.32	-0.000
183.54	-0.000
183.75	-0.000
183.97	-0.000
184.18	-0.000
184.40	-0.000
184.61	-0.000
184.83	-0.000
185.04	-0.000
185.26	-0.000
185.48	-0.000
185.69	-0.000
185.91	-0.000
186.12	-0.000
186.34	-0.000
186.55	-0.000
186.77	-0.000
186.98	-0.000
187.20	-0.000
187.42	-0.000
187.63	-0.000
187.85	-0.000
188.06	-0.000
188.28	-0.000
188.49	-0.000
188.71	-0.000
188.92	-0.000
189.14	-0.000
189.36	-0.000
189.57	-0.000
189.79	-0.000
190.00	-0.000
190.22	-0.000
190.43	-0.000
190.65	-0.000
190.86	-0.000
191.08	-0.000
191.29	-0.000
191.51	-0.000
191.72	-0.000
191.94	-0.000
192.16	-0.000
192.37	-0.000
192.59	-0.000
192.80	-0.000
193.02	-0.000
193.23	-0.000
193.45	-0.000
193.66	-0.000
193.88	-0.000
194.09	-0.000
194.31	-0.000
194.52	-0.000
194.74	-0.000
194.95	-0.000
195.17	-0.000
195.38	-0.000
195.60	-0.000
195.81	-0.000
196.03	-0.000
196.25	-0.000
196.46	-0.000
196.68	-0.000
196.89	-0.000
197.11	-0.000
197.32	-0.000
197.54	-0.000
197.75	-0.000
197.97	-0.000
198.18	-0.000
198.40	-0.000
198.61	-0.000
198.83	-0.000
199.04	-0.000
199.26	-0.000
199.47	-0.000
199.69	-0.000
199.90	-0.000
200.12	-0.000
200.33	-0.000
200.55	-0.000
200.76	-0.000
200.98	-0.000
201.19	-0.000
201.41	-0.000
201.62	-0.000
201.84	-0.000
202.05	-0.000
202.27	-0.000
202.48	-0.000
202.70	-0.000
202.91	-0.000
203.13	-0.000
203.34	-0.000
203.56	-0.000
203.77	-0.000
203.99	-0.000
204.20	-0.000
204.42	-0.000
204.63	-0.000
204.85	-0.000
205.06	-0.000
205.28	-0.000
205.49	-0.000
205.71	-0.000
205.92	-0.000
206.14	-0.000
206.35	-0.000
206.56	-0.000
206.78	-0.000
206.99	-0.000
207.21	-0.000
207.42	-0.000
207.64	-0.000
207.85	-0.000
208.07	-0.000
208.28	-0.000
208.50	-0.000
208.71	-0.000
208.93	-0.000
209.14	-0.000
209.36	-0.000
209.57	-0.000
209.79	-0.000
210.00	-0.000
210.22	-0.000
210.43	-0.000
210.64	-0.000
210.86	-0.000
211.07	-0.000
211.29	-0.000
211.50	-0.000
211.72	-0.000
211.93	-0.000
212.15	-0.000
212.36	-0.000
212.58	-0.000
212.79	-0.000
213.01	-0.000
213.22	-0.000
213.43	-0.000
213.65	-0.000
213.86	-0.000
214.08	-0.000
214.29	-0.000
214.51	-0.000
214.72	-0.000
214.94	-0.000
215.15	-0.000
215.36	-0.000
215.58	-0.000
215.79	-0.000
216.01	-0.000
216.22	-0.000
216.44	-0.000
216.65	-0.000
216.87	-0.000
217.08	-0.000
217.29	-0.000
217.51	-0.000
217.72	-0.000
217.94	-0.000
218.15	-0.000
218.37	-0.000
218.58	-0.000
218.80	-0.000
219.01	-0.000
219.22	-0.000
219.44	-0.000
219.65	-0.000
219.87	-0.000
220.08	-0.000
220.30	-0.000
220.51	-0.000
220.72	-0.000
220.94	-0.000
221.15	-0.000
221.37	-0.000
221.58	-0.000
221.79	-0.000
222.01	-0.000
222.22	-0.000
222.44	-0.000
222.65	-0.000
222.87	-0.000
223.08	-0.000
223.29	-0.000
223.51	-0.000
223.72	-0.000
223.94	-0.000
224.15	-0.000
224.36	-0.000
224.58	-0.000
224.79	-0.000
225.01	-0.000
225.22	-0.000
225.44	-0.000
225.65	-0.000
225.86	-0.000
226.08	-0.000
226.29	-0.000
226.51	-0.000
226.72	-0.000
226.93	-0.000
227.15	-0.000
227.36	-0.000
227.58	-0.000
227.79	-0.000
228.00	-0.000
228.22	-0.000
228.43	-0.000
228.65	-0.000
228.86	-0.000
229.07	-0.000
229.29	-0.000
229.50	-0.000
229.72	-0.000
229.93	-0.000
230.14	-0.000
230.36	-0.000
230.57	-0.000
230.78	-0.000
231.00	-0.000
231.21	-0.000
231.43	-0.000
231.64	-0.000
231.85	-0.000
232.07	-0.000
232.28	-0.000
232.50	-0.000
232.71	-0.000
232.92	-0.000
233.14	-0.000
233.35	-0.000
233.56	-0.000
233.78	-0.000
233.99	-0.000
234.21	-0.000
234.42	-0.000
234.63	-0.000
234.85	-0.000
235.06	-0.000
235.27	-0.000
235.49	-0.000
235.70	-0.000
235.91	-0.000
236.13	-0.000
236.34	-0.000
236.56	-0.000
236.77	-0.000
236.98	-0.000
237.20	-0.000
237.41	-0.000
237.62	-0.000
237.84	-0.000
238.05	-0.000
238.26	-0.000
238.48	-0.000
238.69	-0.000
238.91	-0.000
239.12	-0.000
239.33	-0.000
239.55	-0.000
239.76	-0.000
239.97	-0.000
240.19	-0.000
240.40	-0.000
240.61	-0.000
240.83	-0.000
241.04	-0.000
241.25	-0.000
241.47	-0.000
241.68	-0.000
241.89	-0.000
242.11	-0.000
242.32	-0.000
242.53	-0.000
242.75	-0.000
242.96	-0.000
243.17	-0.000
243.39	-0.000
243.60	-0.000
243.81	-0.000
244.03	-0.000
244.24	-0.000
244.45	-0.000
244.67	-0.000
244.88	-0.000
245.09	-0.000
245.31	-0.000
245.52	-0.000
245.73	-0.000
245.95	-0.000
246.16	-0.000
246.37	-0.000
246.59	-0.000
246.80	-0.000
247.01	-0.000
247.23	-0.000
247.44	-0.000
247.65	-0.000
247.87	-0.000
248.08	-0.000
248.29	-0.000
248.51	-0.000
248.72	-0.000
248.93	-0.000
249.15	-0.000
249.36	-0.000
249.57	-0.000
249.78	-0.000
250.00	-0.000
250.21	-0.000
250.42	-0.000
250.64	-0.000
250.85	-0.000
251.06	-0.000
251.28	-0.000
251.49	-0.000
251.70	-0.000
251.92	-0.000
252.13	-0.000
252.34	-0.000
252.55	-0.000
252.77	-0.000
252.98	-0.000
253.19	-0.000
253.41	-0.000
253.62	-0.000
253.83	-0.000
254.05	-0.000
254.26	-0.000
254.47	-0.000
254.68	-0.000
254.90	-0.000
255.11	-0.000
255.32	-0.000
255.54	-0.000
255.75	-0.000
255.96	-0.000
256.17	-0.000
256.39	-0.000
256.60	-0.000
256.81	-0.000
257.03	-0.000
257.24	-0.000
257.45	-0.000
257.66	-0.000
257.88	-0.000
258.09	-0.000
258.30	-0.000
258.51	-0.000
258.73	-0.000
258.94	-0.000
259.15	-0.000
259.37	-0.000
259.58	-0.000
259.79	-0.000
260.00	-0.000
260.22	-0.000
260.43	-0.000
260.64	-0.000
260.85	-0.000
261.07	-0.000
261.28	-0.000
261.49	-0.000
261.71	-0.000
261.92	-0.000
262.13	-0.000
262.34	-0.000
262.56	-0.000
262.77	-0.000
262.98	-0.000
263.19	-0.000
263.41	-0.000
263.62	-0.000
263.83	-0.000
264.04	-0.000
264.26	-0.000
264.47	-0.000
264.68	-0.000
264.89	-0.000
265.11	-0.000
265.32	-0.000
265.53	-0.000
265.74	-0.000
265.96	-0.000
266.17	-0.000
266.38	-0.000
266.59	-0.000
266.81	-0.000
267.02	-0.000
267.23	-0.000
267.44	-0.000
267.65	-0.000
267.87	-0.000
268.08	-0.000
268.29	-0.000
268.50	-0.000
268.72	-0.000
268.93	-0.000
269.14	-0.000
269.35	-0.000
269.57	-0.000
269.78	-0.000
269.99	-0.000
270.20	-0.000
270.41	-0.000
270.63	-0.000
270.84	-0.000
271.05	-0.000
271.26	-0.000
271.48	-0.000
271.69	-0.000
271.90	-0.000
272.11	-0.000
272.32	-0.000
272.54	-0.000
272.75	-0.000
272.96	-0.000
273.17	-0.000
273.39	-0.000
273.60	-0.000
273.81	-0.000
274.02	-0.000
274.23	-0.000
274.45	-0.000
274.66	-0.000
274.87	-0.000
275.08	-0.000
275.29	-0.000
275.51	-0.000
275.72	-0.000
275.93	-0.000
276.14	-0.000
276.35	-0.000
276.57	-0.000
276.78	-0.000
276.99	-0.000
277.20	-0.000
277.41	-0.000
277.63	-0.000
277.84	-0.000
278.05	-0.000
278.26	-0.000
278.47	-0.000
278.69	-0.000
278.90	-0.000
279.11	-0.000
279.32	-0.000
279.53	-0.000
279.74	-0.000
279.96	-0.000
280.17	-0.000
280.38	-0.000
280.59	-0.000
280.80	-0.000
281.02	-0.000
281.23	-0.000
281.44	-0.000
281.65	-0.000
281.86	-0.000
282.07	-0.000
282.29	-0.000
282.50	-0.000
282.71	-0.000
282.92	-0.000
283.13	-0.000
283.35	-0.000
283.56	-0.000
283.77	-0.000
283.98	-0.000
284.19	-0.000
284.40	-0.000
284.62	-0.000
284.83	-0.000
285.04	-0.000
285.25	-0.000
285.46	-0.000
285.67	-0.000
285.88	-0.000
286.10	-0.000
286.31	-0.000
286.52	-0.000
286.73	-0.000
286.94	-0.000
287.15	-0.000
287.37	-0.000
287.58	-0.000
287.79	-0.000
288.00	-0.000
288.21	-0.000
288.42	-0.000
288.63	-0.000
288.85	-0.000
289.06	-0.000
289.27	-0.000
289.48	-0.000
289.69	-0.000
289.90	-0.000
290.11	-0.000
290.33	-0.000
290.54	-0.000
290.75	-0.000
290.96	-0.000
291.17	-0.000
291.38	-0.000
291.59	-0.000
291.81	-0.000
292.02	-0.000
292.23	-0.000
292.44	-0.000
292.65	-0.000
292.86	-0.000
293.07	-0.000
293.28	-0.000
293.50	-0.000
293.71	-0.000
293.92	-0.000
294.13	-0.000
294.34	-0.000
294.55	-0.000
294.76	-0.000
294.97	-0.000
295.19	-0.000
295.40	-0.000
295.61	-0.000
295.82	-0.000
296.03	-0.000
296.24	-0.000
296.45	2.109
296.66	1.782
296.87	1.809
297.09	1.870
297.30	2.062
297.51	1.727
297.72	1.713
297.93	1.800
298.14	1.766
298.35	1.741
298.56	1.721
298.77	1.849
298.99	1.824
299.20	1.803
299.41	1.764
299.62	1.695
299.83	1.674
300.04	1.615
300.25	1.607
300.46	1.637
300.67	1.609
300.88	1.564
301.10	1.558
301.31	1.619
301.52	1.555
301.73	1.507
301.94	1.516
302.15	1.525
302.36	1.482
302.57	1.421
302.78	1.428
302.99	1.467
303.20	1.488
303.41	1.411
303.63	1.394
303.84	1.400
304.05	1.404
304.26	1.347
304.47	1.358
304.68	1.357
304.89	1.353
305.10	1.320
305.31	1.304
305.52	1.341
305.73	1.334
305.94	1.297
306.15	1.286
306.37	1.303
306.58	1.307
306.79	1.278
307.00	1.300
307.21	1.332
307.42	1.321
307.63	1.291
307.84	1.261
308.05	1.297
308.26	1.299
308.47	1.281
308.68	1.274
308.89	1.271
309.10	1.268
309.31	1.234
309.52	1.225
309.73	1.237
309.95	1.232
310.16	1.203
310.37	1.192
310.58	1.205
310.79	1.204
311.00	1.208
311.21	1.212
311.42	1.213
311.63	1.207
311.84	1.192
312.05	1.191
312.26	1.211
312.47	1.225
312.68	1.202
312.89	1.185
313.10	1.189
313.31	1.163
313.52	1.167
313.73	1.168
313.94	1.168
314.15	1.150
314.36	1.130
314.57	1.121
314.78	1.106
314.99	1.102
315.21	1.092
315.42	1.097
315.63	1.108
315.84	1.085
316.05	1.072
316.26	1.078
316.47	1.094
316.68	1.092
316.89	1.075
317.10	1.096
317.31	1.099
317.52	1.101
317.73	1.084
317.94	1.080
318.15	1.119
318.36	1.120
318.57	1.108
318.78	1.097
318.99	1.127
319.20	1.127
319.41	1.094
319.62	1.097
319.83	1.110
320.04	1.105
320.25	1.093
320.46	1.062
320.67	1.064
320.88	1.058
321.09	1.046
321.30	1.032
321.51	1.046
321.72	1.045
321.93	1.030
322.14	1.021
322.35	1.047
322.56	1.051
322.77	1.039
322.98	1.049
323.19	1.056
323.40	1.062
323.61	1.043
323.82	1.036
324.03	1.041
324.24	1.040
324.45	1.029
324.66	1.008
324.87	1.002
325.08	1.003
325.29	0.985
325.50	0.978
325.71	0.982
325.92	0.991
326.13	0.978
326.34	0.978
326.55	0.983
326.76	0.981
326.97	0.971
327.18	0.966
327.39	0.987
327.60	0.988
327.80	0.989
328.01	0.987
328.22	0.984
328.43	0.987
328.64	0.977
328.85	0.980
329.06	0.982
329.27	0.983
329.48	0.980
329.69	0.961
329.90	0.970
330.11	0.964
330.32	0.959
330.53	0.953
330.74	0.951
330.95	0.950
331.16	0.937
331.37	0.944
331.58	0.944
331.79	0.943
332.00	0.936
332.21	0.929
332.42	0.931
332.63	0.923
332.83	0.920
333.04	0.923
333.25	0.934
333.46	0.933
333.67	0.920
333.88	0.922
334.09	0.933
334.30	0.929
334.51	0.922
334.72	0.919
334.93	0.920
335.14	0.920
335.35	0.912
335.56	0.907
335.77	0.915
335.98	0.914
336.18	0.908
336.39	0.899
336.60	0.903
336.81	0.901
337.02	0.900
337.23	0.905
337.44	0.907
337.65	0.910
337.86	0.900
338.07	0.896
338.28	0.898
338.49	0.897
338.70	0.891
338.91	0.897
339.11	0.904
339.32	0.901
339.53	0.890
339.74	0.888
339.95	0.883
340.16	0.881
340.37	0.874
340.58	0.873
340.79	0.874
341.00	0.875
341.21	0.865
341.41	0.864
341.62	0.865
341.83	0.867
342.04	0.862
342.25	0.874
342.46	0.878
342.67	0.876
342.88	0.870
343.09	0.869
343.30	0.876
343.50	0.880
343.71	0.871
343.92	0.869
344.13	0.873
344.34	0.872
344.55	0.855
344.76	0.854
344.97	0.858
345.18	0.857
345.38	0.856
345.59	0.850
345.80	0.848
346.01	0.847
346.22	0.843
346.43	0.836
346.64	0.843
346.85	0.843
347.06	0.837
347.26	0.837
347.47	0.840
347.68	0.836
347.89	0.832
348.10	0.828
348.31	0.833
348.52	0.832
348.73	0.830
348.93	0.828
349.14	0.829
349.35	0.829
349.56	0.824
349.77	0.820
349.98	0.824
350.19	0.821
350.39	0.817
350.60	0.811
350.81	0.826
351.02	0.826
351.23	0.820
351.44	0.823
351.65	0.826
351.86	0.823
352.06	0.822
352.27	0.822
352.48	0.823
352.69	0.822
352.90	0.817
353.11	0.805
353.31	0.812
353.52	0.808
353.73	0.800
353.94	0.801
354.15	0.807
354.36	0.807
354.57	0.798
354.77	0.801
354.98	0.800
355.19	0.799
355.40	0.800
355.61	0.805
355.82	0.809
356.02	0.808
356.23	0.800
356.44	0.802
356.65	0.804
356.86	0.804
357.07	0.799
357.27	0.803
357.48	0.805
357.69	0.799
357.90	0.785
358.11	0.781
358.32	0.784
358.52	0.787
358.73	0.779
358.94	0.781
359.15	0.786
359.36	0.786
359.56	0.782
359.77	0.779
359.98	0.785
360.19	0.784
360.40	0.783
360.61	0.784
360.81	0.782
361.02	0.782
361.23	0.774
361.44	0.772
361.65	0.772
361.85	0.770
362.06	0.769
362.27	0.771
362.48	0.770
362.69	0.772
362.89	0.766
363.10	0.767
363.31	0.771
363.52	0.774
363.73	0.770
363.93	0.771
364.14	0.773
364.35	0.774
364.56	0.766
364.77	0.768
364.97	0.770
365.18	0.770
365.39	0.765
365.60	0.762
365.81	0.762
366.01	0.762
366.22	0.759
366.43	0.758
366.64	0.759
366.84	0.764
367.05	0.761
367.26	0.760
367.47	0.761
367.68	0.762
367.88	0.759
368.09	0.757
368.30	0.759
368.51	0.758
368.71	0.758
368.92	0.763
369.13	0.759
369.34	0.759
369.55	0.758
369.75	0.758
369.96	0.764
370.17	0.764
370.38	0.762
370.58	0.761
370.79	0.766
371.00	0.765
371.21	0.757
371.41	0.764
371.62	0.767
371.83	0.763
372.04	0.761
372.24	0.754
372.45	0.755
372.66	0.754
372.87	0.752
373.07	0.749
373.28	0.749
373.49	0.752
373.70	0.743
373.90	0.742
374.11	0.751
374.32	0.749
374.53	0.750
374.73	0.750
374.94	0.752
375.15	0.752
375.36	0.750
375.56	0.758
375.77	0.757
375.98	0.758
376.19	0.756
376.39	0.750
376.60	0.753
376.81	0.752
377.02	0.751
377.22	0.750
377.43	0.750
377.64	0.749
377.84	0.741
378.05	0.746
378.26	0.752
378.47	0.750
378.67	0.748
378.88	0.746
379.09	0.747
379.30	0.747
379.50	0.745
379.71	0.747
379.92	0.749
380.12	0.749
380.33	0.741
380.54	0.737
380.75	0.744
380.95	0.744
381.16	0.742
381.37	0.742
381.57	0.744
381.78	0.744
381.99	0.744
382.20	0.745
382.40	0.747
382.61	0.748
382.82	0.745
383.02	0.739
383.23	0.741
383.44	0.742
383.64	0.740
383.85	0.743
384.06	0.745
384.27	0.743
384.47	0.741
384.68	0.741
384.89	0.746
385.09	0.746
385.30	0.745
385.51	0.745
385.71	0.747
385.92	0.748
386.13	0.746
386.33	0.749
386.54	0.749
386.75	0.749
386.95	0.746
387.16	0.742
387.37	0.744
387.58	0.744
387.78	0.743
387.99	0.741
388.20	0.743
388.40	0.740
388.61	0.736
388.82	0.739
389.02	0.741
389.23	0.741
389.44	0.740
389.64	0.740
389.85	0.751
390.06	0.751
390.26	0.752
390.47	0.751
390.68	0.753
390.88	0.752
391.09	0.747
391.30	0.747
391.50	0.746
391.71	0.746
391.92	0.743
392.12	0.735
392.33	0.735
392.53	0.735
392.74	0.735
392.95	0.734
393.15	0.736
393.36	0.739
393.57	0.736
393.77	0.739
393.98	0.741
394.19	0.741
394.39	0.741
394.60	0.742
394.81	0.744
395.01	0.743
395.22	0.742
395.43	0.743
395.63	0.748
395.84	0.749
396.04	0.746
396.25	0.749
396.46	0.750
396.66	0.749
396.87	0.747
397.08	0.744
397.28	0.746
397.49	0.747
397.69	0.744
397.90	0.739
398.11	0.740
398.31	0.741
398.52	0.737
398.73	0.739
398.93	0.738
399.14	0.737
399.34	0.736
399.55	0.736
399.76	0.736
399.96	0.737
400.17	0.736
400.37	0.734
400.58	0.741
400.79	0.742
400.99	0.739
401.20	0.745
401.41	0.746
401.61	0.747
401.82	0.753
402.02	0.753
402.23	0.754
402.44	0.754
402.64	0.754
402.85	0.748
403.05	0.746
403.26	0.745
403.47	0.740
403.67	0.738
403.88	0.739
404.08	0.733
404.29	0.732
404.50	0.731
404.70	0.731
404.91	0.731
405.11	0.729
405.32	0.730
405.52	0.730
405.73	0.729
405.94	0.728
406.14	0.731
406.35	0.733
406.55	0.733
406.76	0.731
406.97	0.732
407.17	0.735
407.38	0.735
407.58	0.734
407.79	0.736
407.99	0.739
408.20	0.739
408.41	0.735
408.61	0.733
408.82	0.734
409.02	0.734
409.23	0.731
409.43	0.730
409.64	0.731
409.84	0.731
410.05	0.728
410.26	0.726
410.46	0.725
410.67	0.726
410.87	0.727
411.08	0.729
411.28	0.730
411.49	0.732
411.69	0.730
411.90	0.732
412.11	0.732
412.31	0.733
412.52	0.732
412.72	0.733
412.93	0.733
413.13	0.732
413.34	0.729
413.54	0.731
413.75	0.732
413.95	0.732
414.16	0.728
414.37	0.730
414.57	0.730
414.78	0.733
414.98	0.732
415.19	0.733
415.39	0.730
415.60	0.732
415.80	0.731
416.01	0.730
416.21	0.731
416.42	0.731
416.62	0.727
416.83	0.727
417.03	0.726
417.24	0.725
417.44	0.724
417.65	0.723
417.86	0.723
418.06	0.721
418.27	0.718
418.47	0.721
418.68	0.721
418.88	0.722
419.09	0.721
419.29	0.722
419.50	0.722
419.70	0.722
419.91	0.721
420.11	0.719
420.32	0.721
420.52	0.721
420.73	0.720
420.93	0.721
421.14	0.722
421.34	0.721
421.55	0.718
421.75	0.717
421.96	0.717
422.16	0.718
422.37	0.716
422.57	0.713
422.78	0.715
422.98	0.712
423.19	0.710
423.39	0.708
423.60	0.711
423.80	0.712
424.01	0.710
424.21	0.713
424.42	0.714
424.62	0.714
424.83	0.713
425.03	0.713
425.23	0.715
425.44	0.715
425.64	0.716
425.85	0.714
426.05	0.715
426.26	0.715
426.46	0.712
426.67	0.711
426.87	0.716
427.08	0.716
427.28	0.715
427.49	0.715
427.69	0.716
427.90	0.715
428.10	0.713
428.31	0.712
428.51	0.715
428.71	0.714
428.92	0.715
429.12	0.712
429.33	0.712
429.53	0.716
429.74	0.720
429.94	0.720
430.15	0.719
430.35	0.719
430.56	0.716
430.76	0.715
430.96	0.715
431.17	0.712
431.37	0.710
431.58	0.708
431.78	0.705
431.99	0.697
432.19	0.700
432.40	0.702
432.60	0.702
432.80	0.704
433.01	0.703
433.21	0.703
433.42	0.705
433.62	0.705
433.83	0.705
434.03	0.707
434.23	0.709
434.44	0.708
434.64	0.705
434.85	0.710
435.05	0.711
435.26	0.711
435.46	0.710
435.66	0.710
435.87	0.710
436.07	0.709
436.28	0.706
436.48	0.703
436.69	0.702
436.89	0.703
437.09	0.697
437.30	0.695
437.50	0.695
437.71	0.706
437.91	0.705
438.11	0.706
438.32	0.710
438.52	0.711
438.73	0.710
438.93	0.708
439.13	0.707
439.34	0.711
439.54	0.709
439.75	0.709
439.95	0.699
440.15	0.703
440.36	0.701
440.56	0.699
440.77	0.700
440.97	0.699
441.17	0.698
441.38	0.699
441.58	0.696
441.79	0.696
441.99	0.694
442.19	0.693
442.40	0.690
442.60	0.690
442.81	0.688
443.01	0.688
443.21	0.688
443.42	0.687
443.62	0.686
443.82	0.685
444.03	0.686
444.23	0.686
444.44	0.687
444.64	0.686
444.84	0.687
445.05	0.687
445.25	0.685
445.45	0.685
445.66	0.687
445.86	0.686
446.06	0.688
446.27	0.687
446.47	0.690
446.68	0.688
446.88	0.686
447.08	0.685
447.29	0.687
447.49	0.687
447.69	0.687
447.90	0.685
448.10	0.689
448.30	0.686
448.51	0.688
448.71	0.685
448.91	0.687
449.12	0.686
449.32	0.687
449.52	0.686
449.73	0.690
449.93	0.689
450.14	0.690
450.34	0.689
450.54	0.691
450.75	0.688
450.95	0.688
451.15	0.688
451.36	0.692
451.56	0.688
451.76	0.688
451.97	0.684
452.17	0.684
452.37	0.682
452.58	0.679
452.78	0.679
452.98	0.681
453.19	0.680
453.39	0.680
453.59	0.678
453.79	0.678
454.00	0.678
454.20	0.677
454.40	0.678
454.61	0.680
454.81	0.680
455.01	0.678
455.22	0.679
455.42	0.680
455.62	0.678
455.83	0.678
456.03	0.681
456.23	0.682
456.44	0.682
456.64	0.682
456.84	0.682
457.04	0.682
457.25	0.682
457.45	0.678
457.65	0.677
457.86	0.678
458.06	0.677
458.26	0.673
458.47	0.672
458.67	0.673
458.87	0.672
459.07	0.670
459.28	0.672
459.48	0.674
459.68	0.674
459.89	0.673
460.09	0.672
460.29	0.672
460.49	0.673
460.70	0.673
460.90	0.673
461.10	0.673
461.31	0.673
461.51	0.670
461.71	0.672
461.91	0.673
462.12	0.673
462.32	0.674
462.52	0.674
462.72	0.677
462.93	0.677
463.13	0.676
463.33	0.677
463.53	0.678
463.74	0.678
463.94	0.674
464.14	0.674
464.35	0.675
464.55	0.675
464.75	0.673
464.95	0.671
465.16	0.672
465.36	0.671
465.56	0.670
465.76	0.670
465.97	0.670
466.17	0.670
466.37	0.668
466.57	0.670
466.78	0.670
466.98	0.670
467.18	0.668
467.38	0.666
467.59	0.667
467.79	0.668
467.99	0.668
468.19	0.668
468.39	0.671
468.60	0.670
468.80	0.668
469.00	0.670
469.20	0.671
469.41	0.672
469.61	0.672
469.81	0.673
470.01	0.672
470.22	0.672
470.42	0.671
470.62	0.669
470.82	0.670
471.02	0.670
471.23	0.668
471.43	0.668
471.63	0.670
471.83	0.670
472.04	0.669
472.24	0.668
472.44	0.673
472.64	0.674
472.84	0.673
473.05	0.672
473.25	0.674
473.45	0.673
473.65	0.672
473.85	0.671
474.06	0.672
474.26	0.671
474.46	0.673
474.66	0.669
474.86	0.669
475.07	0.669
475.27	0.667
475.47	0.665
475.67	0.665
475.87	0.667
476.08	0.664
476.28	0.665
476.48	0.666
476.68	0.664
476.88	0.663
477.09	0.664
477.29	0.666
477.49	0.666
477.69	0.665
477.89	0.666
478.09	0.665
478.30	0.667
478.50	0.664
478.70	0.664
478.90	0.664
479.10	0.667
479.31	0.668
479.51	0.666
479.71	0.666
479.91	0.666
480.11	0.665
480.31	0.665
480.52	0.664
480.72	0.664
480.92	0.663
481.12	0.662
481.32	0.660
481.52	0.658
481.72	0.658
481.93	0.661
482.13	0.662
482.33	0.662
482.53	0.660
482.73	0.661
482.93	0.662
483.14	0.661
483.34	0.661
483.54	0.662
483.74	0.661
483.94	0.660
484.14	0.656
484.34	0.656
484.55	0.656
484.75	0.656
484.95	0.654
485.15	0.653
485.35	0.653
485.55	0.652
485.75	0.650
485.96	0.650
486.16	0.651
486.36	0.650
486.56	0.648
486.76	0.648
486.96	0.648
487.16	0.648
487.36	0.646
487.57	0.646
487.77	0.647
487.97	0.647
488.17	0.645
488.37	0.644
488.57	0.644
488.77	0.645
488.97	0.643
489.18	0.643
489.38	0.645
489.58	0.646
489.78	0.645
489.98	0.644
490.18	0.644
490.38	0.645
490.58	0.644
490.78	0.645
490.98	0.647
491.19	0.647
491.39	0.647
491.59	0.646
491.79	0.649
491.99	0.649
492.19	0.649
492.39	0.652
492.59	0.652
492.79	0.655
492.99	0.655
493.20	0.654
493.40	0.654
493.60	0.656
493.80	0.655
494.00	0.653
494.20	0.653
494.40	0.653
494.60	0.650
494.80	0.654
495.00	0.653
495.20	0.652
495.40	0.651
495.61	0.652
495.81	0.652
496.01	0.655
496.21	0.656
496.41	0.655
496.61	0.656
496.81	0.654
497.01	0.650
497.21	0.649
497.41	0.649
497.61	0.648
497.81	0.646
498.01	0.646
498.21	0.645
498.41	0.642
498.61	0.643
498.82	0.644
499.02	0.646
499.22	0.647
499.42	0.646
499.62	0.647
499.82	0.648
500.02	0.649
500.22	0.648
500.42	0.650
500.62	0.651
500.82	0.651
501.02	0.649
501.22	0.648
501.42	0.648
501.62	0.650
501.82	0.650
502.02	0.650
502.22	0.649
502.42	0.650
502.62	0.648
502.82	0.647
503.02	0.648
503.22	0.648
503.42	0.646
503.63	0.646
503.83	0.644
504.03	0.643
504.23	0.642
504.43	0.642
504.63	0.643
504.83	0.643
505.03	0.642
505.23	0.643
505.43	0.645
505.63	0.645
505.83	0.645
506.03	0.646
506.23	0.648
506.43	0.649
506.63	0.648
506.83	0.647
507.03	0.648
507.23	0.649
507.43	0.646
507.63	0.647
507.83	0.647
508.03	0.648
508.23	0.648
508.43	0.647
508.63	0.648
508.83	0.649
509.03	0.650
509.23	0.649
509.43	0.650
509.63	0.650
509.83	0.649
510.03	0.651
510.23	0.652
510.43	0.653
510.63	0.653
510.83	0.652
511.03	0.654
511.23	0.652
511.43	0.651
511.63	0.653
511.83	0.655
512.03	0.656
512.22	0.652
512.42	0.652
512.62	0.653
512.82	0.653
513.02	0.653
513.22	0.652
513.42	0.654
513.62	0.656
513.82	0.654
514.02	0.653
514.22	0.654
514.42	0.654
514.62	0.654
514.82	0.654
515.02	0.655
515.22	0.659
515.42	0.658
515.62	0.660
515.82	0.659
516.02	0.660
516.22	0.660
516.42	0.662
516.62	0.663
516.82	0.664
517.01	0.663
517.21	0.663
517.41	0.666
517.61	0.666
517.81	0.663
518.01	0.663
518.21	0.662
518.41	0.661
518.61	0.660
518.81	0.660
519.01	0.661
519.21	0.661
519.41	0.660
519.61	0.655
519.81	0.657
520.00	0.658
520.20	0.658
520.40	0.661
520.60	0.661
520.80	0.660
521.00	0.661
521.20	0.662
521.40	0.667
521.60	0.667
521.80	0.665
522.00	0.665
522.20	0.666
522.39	0.666
522.59	0.663
522.79	0.665
522.99	0.667
523.19	0.664
523.39	0.663
523.59	0.661
523.79	0.663
523.99	0.666
524.19	0.665
524.38	0.664
524.58	0.665
524.78	0.666
524.98	0.664
525.18	0.665
525.38	0.666
525.58	0.666
525.78	0.665
525.98	0.664
526.18	0.663
526.37	0.662
526.57	0.664
526.77	0.665
526.97	0.665
527.17	0.666
527.37	0.663
527.57	0.665
527.77	0.666
527.96	0.666
528.16	0.665
528.36	0.667
528.56	0.668
528.76	0.666
528.96	0.665
529.16	0.665
529.36	0.668
529.55	0.667
529.75	0.665
529.95	0.665
530.15	0.666
530.35	0.669
530.55	0.667
530.75	0.667
530.94	0.669
531.14	0.670
531.34	0.668
531.54	0.667
531.74	0.669
531.94	0.672
532.13	0.670
532.33	0.672
532.53	0.670
532.73	0.670
532.93	0.668
533.13	0.670
533.33	0.670
533.52	0.671
533.72	0.674
533.92	0.672
534.12	0.670
534.32	0.670
534.52	0.668
534.71	0.669
534.91	0.671
535.11	0.674
535.31	0.672
535.51	0.673
535.71	0.675
535.90	0.672
536.10	0.673
536.30	0.675
536.50	0.676
536.70	0.676
536.89	0.674
537.09	0.674
537.29	0.675
537.49	0.675
537.69	0.674
537.89	0.674
538.08	0.675
538.28	0.673
538.48	0.673
538.68	0.675
538.88	0.676
539.07	0.676
539.27	0.675
539.47	0.674
539.67	0.674
539.87	0.675
540.06	0.672
540.26	0.673
540.46	0.676
540.66	0.673
540.86	0.671
541.05	0.671
541.25	0.672
541.45	0.672
541.65	0.671
541.84	0.672
542.04	0.672
542.24	0.673
542.44	0.672
542.64	0.674
542.83	0.676
543.03	0.677
543.23	0.675
543.43	0.676
543.62	0.677
543.82	0.678
544.02	0.677
544.22	0.678
544.42	0.681
544.61	0.681
544.81	0.678
545.01	0.677
545.21	0.679
545.40	0.679
545.60	0.677
545.80	0.680
546.00	0.680
546.19	0.678
546.39	0.677
546.59	0.674
546.79	0.675
546.98	0.676
547.18	0.676
547.38	0.676
547.58	0.678
547.77	0.679
547.97	0.676
548.17	0.677
548.37	0.678
548.56	0.679
548.76	0.678
548.96	0.680
549.16	0.681
549.35	0.681
549.55	0.679
549.75	0.679
549.95	0.682
550.14	0.682
550.34	0.682
550.54	0.687
550.73	0.690
550.93	0.690
551.13	0.687
551.33	0.686
551.52	0.687
551.72	0.687
551.92	0.685
552.12	0.686
552.31	0.686
552.51	0.686
552.71	0.682
552.90	0.682
553.10	0.683
553.30	0.683
553.50	0.683
553.69	0.684
553.89	0.684
554.09	0.684
554.28	0.681
554.48	0.682
554.68	0.683
554.87	0.683
555.07	0.680
555.27	0.680
555.47	0.682
555.66	0.682
555.86	0.681
556.06	0.684
556.25	0.685
556.45	0.692
556.65	0.691
556.84	0.694
557.04	0.697
557.24	0.698
557.43	0.698
557.63	0.701
557.83	0.702
558.02	0.703
558.22	0.707
558.42	0.708
558.61	0.701
558.81	0.701
559.01	0.697
559.21	0.696
559.40	0.697
559.60	0.697
559.80	0.694
559.99	0.695
560.19	0.697
560.39	0.691
560.58	0.689
560.78	0.689
560.97	0.693
561.17	0.692
561.37	0.690
561.56	0.690
561.76	0.692
561.96	0.691
562.15	0.689
562.35	0.691
562.55	0.691
562.74	0.691
562.94	0.690
563.14	0.688
563.33	0.688
563.53	0.688
563.73	0.686
563.92	0.686
564.12	0.690
564.31	0.692
564.51	0.691
564.71	0.693
564.90	0.695
565.10	0.697
565.30	0.699
565.49	0.700
565.69	0.703
565.89	0.703
566.08	0.701
566.28	0.702
566.47	0.703
566.67	0.702
566.87	0.699
567.06	0.701
567.26	0.707
567.46	0.703
567.65	0.703
567.85	0.705
568.04	0.708
568.24	0.707
568.44	0.704
568.63	0.703
568.83	0.704
569.02	0.702
569.22	0.697
569.42	0.694
569.61	0.696
569.81	0.695
570.00	0.693
570.20	0.694
570.40	0.695
570.59	0.695
570.79	0.694
570.98	0.692
571.18	0.693
571.38	0.693
571.57	0.690
571.77	0.689
571.96	0.692
572.16	0.689
572.35	0.683
572.55	0.684
572.75	0.682
572.94	0.681
573.14	0.680
573.33	0.680
573.53	0.681
573.73	0.680
573.92	0.678
574.12	0.676
574.31	0.678
574.51	0.679
574.70	0.677
574.90	0.679
575.09	0.681
575.29	0.681
575.49	0.679
575.68	0.680
575.88	0.680
576.07	0.681
576.27	0.680
576.46	0.678
576.66	0.677
576.86	0.676
577.05	0.674
577.25	0.672
577.44	0.673
577.64	0.673
577.83	0.671
578.03	0.672
578.22	0.672
578.42	0.671
578.61	0.670
578.81	0.671
579.00	0.670
579.20	0.670
579.40	0.669
579.59	0.668
579.79	0.668
579.98	0.667
580.18	0.667
580.37	0.667
580.57	0.668
580.76	0.673
580.96	0.672
581.15	0.673
581.35	0.675
581.54	0.674
581.74	0.674
581.93	0.676
582.13	0.676
582.32	0.673
582.52	0.671
582.71	0.670
582.91	0.666
583.10	0.665
583.30	0.664
583.49	0.663
583.69	0.666
583.88	0.667
584.08	0.666
584.27	0.669
584.47	0.672
584.66	0.674
584.86	0.673
585.05	0.675
585.25	0.678
585.44	0.677
585.64	0.677
585.83	0.674
586.03	0.674
586.22	0.671
586.42	0.667
586.61	0.668
586.81	0.670
587.00	0.670
587.20	0.667
587.39	0.668
587.59	0.670
587.78	0.670
587.98	0.671
588.17	0.672
588.37	0.675
588.56	0.676
588.76	0.672
588.95	0.672
589.15	0.676
589.34	0.678
589.54	0.677
589.73	0.679
589.92	0.682
590.12	0.683
590.31	0.681
590.51	0.686
590.70	0.688
590.90	0.688
591.09	0.687
591.29	0.685
591.48	0.685
591.68	0.685
591.87	0.683
592.06	0.683
592.26	0.685
592.45	0.684
592.65	0.678
592.84	0.678
593.04	0.680
593.23	0.683
593.43	0.681
593.62	0.680
593.81	0.680
594.01	0.680
594.20	0.677
594.40	0.674
594.59	0.675
594.79	0.676
594.98	0.674
595.17	0.674
595.37	0.674
595.56	0.677
595.76	0.678
595.95	0.679
596.14	0.682
596.34	0.684
596.53	0.684
596.73	0.687
596.92	0.688
597.12	0.691
597.31	0.692
597.50	0.691
597.70	0.692
597.89	0.692
598.09	0.688
598.28	0.689
598.47	0.691
598.67	0.689
598.86	0.686
599.06	0.687
599.25	0.686
599.44	0.684
599.64	0.681
599.83	0.678
600.03	0.680
600.22	0.681
600.41	0.681
600.61	0.679
600.80	0.680
601.00	0.681
601.19	0.677
601.38	0.676
601.58	0.678
601.77	0.679
601.96	0.682
602.16	0.682
602.35	0.691
602.55	0.689
602.74	0.690
602.93	0.692
603.13	0.697
603.32	0.699
603.51	0.699
603.71	0.703
603.90	0.704
604.09	0.705
604.29	0.703
604.48	0.697
604.68	0.698
604.87	0.696
605.06	0.693
605.26	0.690
605.45	0.690
605.64	0.689
605.84	0.684
606.03	0.684
606.22	0.681
606.42	0.681
606.61	0.678
606.80	0.677
607.00	0.678
607.19	0.679
607.38	0.678
607.58	0.679
607.77	0.680
607.96	0.680
608.16	0.679
608.35	0.683
608.54	0.685
608.74	0.688
608.93	0.693
609.12	0.696
609.32	0.697
609.51	0.700
609.70	0.699
609.90	0.701
610.09	0.705
610.28	0.710
610.48	0.705
610.67	0.707
610.86	0.707
611.06	0.702
611.25	0.700
611.44	0.701
611.64	0.701
611.83	0.703
612.02	0.701
612.21	0.700
612.41	0.699
612.60	0.697
612.79	0.694
612.99	0.694
613.18	0.697
613.37	0.695
613.57	0.691
613.76	0.693
613.95	0.690
614.14	0.690
614.34	0.687
614.53	0.688
614.72	0.690
614.92	0.690
615.11	0.688
615.30	0.684
615.49	0.685
615.69	0.687
615.88	0.684
616.07	0.685
616.26	0.687
616.46	0.687
616.65	0.685
616.84	0.683
617.04	0.684
617.23	0.686
617.42	0.687
617.61	0.690
617.81	0.690
618.00	0.692
618.19	0.691
618.38	0.696
618.58	0.700
618.77	0.701
618.96	0.701
619.15	0.704
619.35	0.705
619.54	0.706
619.73	0.703
619.92	0.705
620.12	0.710
620.31	0.710
620.50	0.706
620.69	0.705
620.89	0.707
621.08	0.707
621.27	0.708
621.46	0.707
621.66	0.711
621.85	0.710
622.04	0.707
622.23	0.708
622.43	0.709
622.62	0.708
622.81	0.708
623.00	0.708
623.19	0.711
623.39	0.709
623.58	0.707
623.77	0.705
623.96	0.708
624.16	0.707
624.35	0.702
624.54	0.705
624.73	0.708
624.92	0.706
625.12	0.704
625.31	0.704
625.50	0.706
625.69	0.706
625.88	0.703
626.08	0.702
626.27	0.703
626.46	0.703
626.65	0.701
626.84	0.700
627.04	0.705
627.23	0.706
627.42	0.702
627.61	0.704
627.80	0.706
628.00	0.707
628.19	0.706
628.38	0.708
628.57	0.710
628.76	0.710
628.96	0.707
629.15	0.707
629.34	0.708
629.53	0.709
629.72	0.704
629.91	0.705
630.11	0.708
630.30	0.708
630.49	0.711
630.68	0.713
630.87	0.716
631.06	0.718
631.26	0.714
631.45	0.716
631.64	0.724
631.83	0.726
632.02	0.723
632.21	0.723
632.41	0.728
632.60	0.722
632.79	0.720
632.98	0.720
633.17	0.721
633.36	0.723
633.55	0.721
633.75	0.717
633.94	0.718
634.13	0.719
634.32	0.717
634.51	0.712
634.70	0.714
634.89	0.714
635.09	0.711
635.28	0.711
635.47	0.711
635.66	0.713
635.85	0.709
636.04	0.709
636.23	0.713
636.43	0.715
636.62	0.713
636.81	0.713
637.00	0.715
637.19	0.717
637.38	0.716
637.57	0.715
637.76	0.716
637.95	0.718
638.15	0.715
638.34	0.712
638.53	0.713
638.72	0.715
638.91	0.713
639.10	0.711
639.29	0.711
639.48	0.710
639.67	0.711
639.87	0.709
640.06	0.714
640.25	0.715
640.44	0.716
640.63	0.717
640.82	0.719
641.01	0.719
641.20	0.720
641.39	0.722
641.58	0.725
641.78	0.724
641.97	0.721
642.16	0.734
642.35	0.734
642.54	0.734
642.73	0.729
642.92	0.728
643.11	0.730
643.30	0.728
643.49	0.723
643.68	0.725
643.87	0.727
644.06	0.726
644.25	0.708
644.45	0.710
644.64	0.710
644.83	0.710
645.02	0.707
645.21	0.706
645.40	0.708
645.59	0.708
645.78	0.703
645.97	0.705
646.16	0.706
646.35	0.705
646.54	0.704
646.73	0.706
646.92	0.706
647.11	0.706
647.30	0.703
647.49	0.705
647.68	0.705
647.88	0.703
648.07	0.697
648.26	0.699
648.45	0.700
648.64	0.697
648.83	0.694
649.02	0.698
649.21	0.706
649.40	0.705
649.59	0.700
649.78	0.700
649.97	0.714
650.16	0.713
650.35	0.708
650.54	0.712
650.73	0.718
650.92	0.715
651.11	0.709
651.30	0.707
651.49	0.711
651.68	0.712
651.87	0.710
652.06	0.699
652.25	0.703
652.44	0.707
652.63	0.706
652.82	0.709
653.01	0.710
653.20	0.710
653.39	0.700
653.58	0.698
653.77	0.696
653.96	0.692
654.15	0.685
654.34	0.682
654.53	0.676
654.72	0.669
654.91	0.659
655.10	0.654
655.29	0.651
655.48	0.649
655.67	0.643
655.86	0.640
656.05	0.638
656.24	0.637
656.43	0.632
656.62	0.631
656.81	0.630
657.00	0.626
657.19	0.622
657.38	0.620
657.57	0.618
657.76	0.620
657.95	0.616
658.14	0.618
658.33	0.621
658.51	0.625
658.70	0.625
658.89	0.627
659.08	0.637
659.27	0.647
659.46	0.649
659.65	0.655
659.84	0.659
660.03	0.663
660.22	0.664
660.41	0.668
660.60	0.667
660.79	0.669
660.98	0.676
661.17	0.674
661.36	0.672
661.55	0.673
661.74	0.673
661.92	0.676
662.11	0.678
662.30	0.677
662.49	0.672
662.68	0.670
662.87	0.673
663.06	0.667
663.25	0.669
663.44	0.670
663.63	0.670
663.82	0.668
664.01	0.663
664.20	0.662
664.38	0.663
664.57	0.663
664.76	0.664
664.95	0.664
665.14	0.669
665.33	0.664
665.52	0.670
665.71	0.673
665.90	0.674
666.09	0.675
666.28	0.674
666.46	0.673
666.65	0.674
666.84	0.672
667.03	0.667
667.22	0.665
667.41	0.668
667.60	0.658
667.79	0.653
667.98	0.653
668.16	0.653
668.35	0.653
668.54	0.650
668.73	0.650
668.92	0.651
669.11	0.651
669.30	0.645
669.49	0.641
669.67	0.643
669.86	0.645
670.05	0.643
670.24	0.640
670.43	0.638
670.62	0.636
670.81	0.632
671.00	0.632
671.18	0.632
671.37	0.632
671.56	0.631
671.75	0.629
671.94	0.625
672.13	0.623
672.32	0.619
672.50	0.619
672.69	0.619
672.88	0.619
673.07	0.615
673.26	0.617
673.45	0.617
673.63	0.616
673.82	0.612
674.01	0.614
674.20	0.613
674.39	0.613
674.58	0.612
674.76	0.612
674.95	0.611
675.14	0.610
675.33	0.607
675.52	0.605
675.71	0.606
675.89	0.606
676.08	0.603
676.27	0.604
676.46	0.603
676.65	0.603
676.84	0.603
677.02	0.604
677.21	0.606
677.40	0.605
677.59	0.603
677.78	0.602
677.96	0.605
678.15	0.604
678.34	0.602
678.53	0.603
678.72	0.603
678.90	0.600
679.09	0.596
679.28	0.593
679.47	0.593
679.66	0.592
679.84	0.589
680.03	0.586
680.22	0.585
680.41	0.586
680.60	0.583
680.78	0.581
680.97	0.583
681.16	0.583
681.35	0.583
681.53	0.582
681.72	0.582
681.91	0.584
682.10	0.583
682.29	0.585
682.47	0.583
682.66	0.581
682.85	0.580
683.04	0.578
683.22	0.579
683.41	0.580
683.60	0.579
683.79	0.581
683.97	0.579
684.16	0.578
684.35	0.574
684.54	0.575
684.72	0.576
684.91	0.577
685.10	0.576
685.29	0.577
685.47	0.574
685.66	0.573
685.85	0.570
686.04	0.570
686.22	0.572
686.41	0.574
686.60	0.572
686.79	0.574
686.97	0.575
687.16	0.576
687.35	0.573
687.54	0.576
687.72	0.579
687.91	0.579
688.10	0.581
688.29	0.581
688.47	0.579
688.66	0.578
688.85	0.576
689.03	0.574
689.22	0.577
689.41	0.578
689.60	0.574
689.78	0.571
689.97	0.571
690.16	0.569
690.34	0.565
690.53	0.566
690.72	0.565
690.91	0.563
691.09	0.561
691.28	0.556
691.47	0.553
691.65	0.553
691.84	0.550
692.03	0.549
692.21	0.547
692.40	0.547
692.59	0.544
692.77	0.543
692.96	0.544
693.15	0.544
693.34	0.542
693.52	0.542
693.71	0.542
693.90	0.543
694.08	0.544
694.27	0.545
694.46	0.554
694.64	0.555
694.83	0.555
695.02	0.554
695.20	0.554
695.39	0.555
695.58	0.555
695.76	0.556
695.95	0.554
696.14	0.553
696.32	0.551
696.51	0.542
696.70	0.541
696.88	0.542
697.07	0.541
697.26	0.542
697.44	0.543
697.63	0.542
697.81	0.540
698.00	0.539
698.19	0.539
698.37	0.538
698.56	0.538
698.75	0.538
698.93	0.538
699.12	0.537
699.31	0.536
699.49	0.535
699.68	0.536
699.87	0.538
700.05	0.538
700.24	0.538
700.42	0.540
700.61	0.539
700.80	0.538
700.98	0.538
701.17	0.539
701.36	0.537
701.54	0.538
701.73	0.539
701.91	0.537
702.10	0.536
702.29	0.534
702.47	0.533
702.66	0.535
702.84	0.535
703.03	0.534
703.22	0.535
703.40	0.535
703.59	0.535
703.77	0.535
703.96	0.536
704.15	0.536
704.33	0.536
704.52	0.536
704.70	0.535
704.89	0.534
705.08	0.533
705.26	0.531
705.45	0.531
705.63	0.531
705.82	0.528
706.00	0.526
706.19	0.526
706.38	0.526
706.56	0.525
706.75	0.523
706.93	0.522
707.12	0.523
707.30	0.523
707.49	0.521
707.68	0.518
707.86	0.517
708.05	0.517
708.23	0.514
708.42	0.514
708.60	0.516
708.79	0.516
708.98	0.515
709.16	0.514
709.35	0.515
709.53	0.519
709.72	0.519
709.90	0.520
710.09	0.522
710.27	0.524
710.46	0.528
710.64	0.526
710.83	0.528
711.02	0.529
711.20	0.528
711.39	0.526
711.57	0.524
711.76	0.525
711.94	0.524
712.13	0.525
712.31	0.524
712.50	0.520
712.68	0.517
712.87	0.518
713.05	0.519
713.24	0.519
713.42	0.519
713.61	0.520
713.79	0.521
713.98	0.520
714.16	0.521
714.35	0.521
714.54	0.522
714.72	0.523
714.91	0.521
715.09	0.527
715.28	0.529
715.46	0.529
715.65	0.527
715.83	0.527
716.02	0.529
716.20	0.526
716.39	0.525
716.57	0.527
716.76	0.528
716.94	0.527
717.12	0.521
717.31	0.522
717.49	0.525
717.68	0.527
717.86	0.527
718.05	0.530
718.23	0.531
718.42	0.533
718.60	0.534
718.79	0.543
718.97	0.545
719.16	0.545
719.34	0.543
719.53	0.542
719.71	0.541
719.90	0.541
720.08	0.539
720.27	0.539
720.45	0.539
720.63	0.538
720.82	0.532
721.00	0.534
721.19	0.537
721.37	0.537
721.56	0.538
721.74	0.540
721.93	0.548
722.11	0.553
722.30	0.553
722.48	0.556
722.66	0.557
722.85	0.556
723.03	0.559
723.22	0.558
723.40	0.560
723.59	0.560
723.77	0.565
723.95	0.559
724.14	0.562
724.32	0.562
724.51	0.562
724.69	0.564
724.88	0.563
725.06	0.560
725.24	0.562
725.43	0.563
725.61	0.564
725.80	0.558
725.98	0.556
726.16	0.553
726.35	0.559
726.53	0.558
726.72	0.557
726.90	0.566
727.09	0.567
727.27	0.572
727.45	0.570
727.64	0.580
727.82	0.589
728.01	0.594
728.19	0.592
728.37	0.596
728.56	0.600
728.74	0.607
728.92	0.598
729.11	0.600
729.29	0.598
729.48	0.599
729.66	0.589
729.84	0.588
730.03	0.591
730.21	0.593
730.40	0.585
730.58	0.586
730.76	0.585
730.95	0.587
731.13	0.588
731.31	0.602
731.50	0.611
731.68	0.615
731.86	0.613
732.05	0.627
732.23	0.630
732.42	0.633
732.60	0.636
732.78	0.643
732.97	0.659
733.15	0.666
733.33	0.655
733.52	0.662
733.70	0.670
733.88	0.679
734.07	0.667
734.25	0.692
734.43	0.699
734.62	0.700
734.80	0.695
734.98	0.687
735.17	0.690
735.35	0.695
735.53	0.684
735.72	0.687
735.90	0.707
736.08	0.726
736.27	0.704
736.45	0.713
736.63	0.726
736.82	0.735
737.00	0.736
737.18	0.745
737.37	0.775
737.55	0.796
737.73	0.791
737.92	0.789
738.10	0.780
738.28	0.797
738.46	0.788
738.65	0.797
738.83	0.813
739.01	0.864
739.20	0.859
739.38	0.839
739.56	0.832
739.75	0.837
739.93	0.813
740.11	0.839
740.29	0.834
740.48	0.839
740.66	0.823
740.84	0.820
741.03	0.779
741.21	0.787
741.39	0.776
741.57	0.785
741.76	0.800
741.94	0.806
742.12	0.778
742.31	0.784
742.49	0.801
742.67	0.822
742.85	0.836
743.04	0.842
743.22	0.850
743.40	0.897
743.58	0.890
743.77	0.903
743.95	0.928
744.13	0.972
744.31	0.958
744.50	0.950
744.68	0.943
744.86	0.918
745.04	0.932
745.23	0.992
745.41	0.973
745.59	0.971
745.77	0.945
745.96	0.934
746.14	0.937
746.32	0.939
746.50	0.937
746.69	0.921
746.87	0.929
747.05	0.916
747.23	0.849
747.42	0.834
747.60	0.851
747.78	0.852
747.96	0.884
748.14	0.846
748.33	0.868
748.51	0.863
748.69	0.860
748.87	0.882
749.06	0.880
749.24	0.880
749.42	0.867
749.60	0.855
749.78	0.859
749.97	0.816
750.15	0.808
750.33	0.809
750.51	0.826
750.69	0.835
750.88	0.841
751.06	0.846
751.24	0.867
751.42	0.863
751.60	0.859
751.79	0.923
751.97	0.961
752.15	0.962
752.33	0.937
752.51	0.998
752.69	1.002
752.88	0.974
753.06	1.019
753.24	0.995
753.42	1.022
753.60	1.166
753.78	1.049
753.97	1.065
754.15	1.080
754.33	1.098
754.51	0.997
754.69	0.984
754.87	1.008
755.06	0.946
755.24	0.951
755.42	0.957
755.60	0.863
755.78	0.872
755.96	0.826
756.15	0.825
756.33	0.826
756.51	0.841
756.69	0.830
756.87	0.799
757.05	0.810
757.23	0.798
757.42	0.774
757.60	0.773
757.78	0.762
757.96	0.762
758.14	0.751
758.32	0.738
758.50	0.746
758.69	0.744
758.87	0.736
759.05	0.741
759.23	0.748
759.41	0.745
759.59	0.740
759.77	0.756
759.95	0.778
760.13	0.820
760.32	0.822
760.50	0.819
760.68	0.840
760.86	0.846
761.04	0.821
761.22	0.820
761.40	0.860
761.58	0.862
761.76	0.840
761.95	0.824
762.13	0.783
762.31	0.782
762.49	0.756
762.67	0.773
762.85	0.779
763.03	0.779
763.21	0.767
763.39	0.748
763.57	0.749
763.75	0.744
763.94	0.731
764.12	0.734
764.30	0.752
764.48	0.756
764.66	0.724
764.84	0.721
765.02	0.750
765.20	0.756
765.38	0.740
765.56	0.745
765.74	0.780
765.92	0.780
766.10	0.786
766.28	0.780
766.46	0.803
766.65	0.806
766.83	0.800
767.01	0.789
767.19	0.796
767.37	0.797
767.55	0.786
767.73	0.765
767.91	0.767
768.09	0.759
768.27	0.749
768.45	0.737
768.63	0.740
768.81	0.743
768.99	0.720
769.17	0.738
769.35	0.750
769.53	0.749
769.71	0.735
769.89	0.742
770.07	0.744
770.25	0.732
770.43	0.716
770.61	0.734
770.79	0.737
770.97	0.747
771.15	0.722
771.33	0.723
771.51	0.722
771.69	0.730
771.87	0.739
772.05	0.743
772.24	0.747
772.42	0.756
772.60	0.735
772.78	0.786
772.96	0.808
773.14	0.806
773.32	0.788
773.49	0.795
773.67	0.795
773.85	0.777
774.03	0.769
774.21	0.795
774.39	0.803
774.57	0.826
774.75	0.764
774.93	0.754
775.11	0.768
775.29	0.775
775.47	0.777
775.65	0.783
775.83	0.794
776.01	0.815
776.19	0.779
776.37	0.782
776.55	0.781
776.73	0.779
776.91	0.779
777.09	0.764
777.27	0.760
777.45	0.750
777.63	0.731
777.81	0.731
777.99	0.715
778.17	0.713
778.35	0.695
778.53	0.682
778.71	0.685
778.89	0.674
779.07	0.667
779.24	0.671
779.42	0.671
779.60	0.688
779.78	0.686
779.96	0.690
780.14	0.696
780.32	0.714
780.50	0.701
780.68	0.699
780.86	0.692
781.04	0.708
781.22	0.714
781.40	0.724
781.58	0.713
781.75	0.706
781.93	0.693
782.11	0.691
782.29	0.676
782.47	0.675
782.65	0.666
782.83	0.689
783.01	0.682
783.19	0.675
783.37	0.664
783.55	0.666
783.72	0.681
783.90	0.690
784.08	0.687
784.26	0.699
784.44	0.716
784.62	0.722
784.80	0.695
784.98	0.700
785.16	0.703
785.33	0.714
785.51	0.704
785.69	0.693
785.87	0.693
786.05	0.702
786.23	0.701
786.41	0.698
786.59	0.702
786.77	0.703
786.94	0.694
787.12	0.699
787.30	0.698
787.48	0.695
787.66	0.684
787.84	0.685
788.02	0.673
788.19	0.671
788.37	0.659
788.55	0.659
788.73	0.657
788.91	0.653
789.09	0.638
789.27	0.628
789.44	0.638
789.62	0.645
789.80	0.651
789.98	0.675
790.16	0.662
790.34	0.659
790.51	0.650
790.69	0.668
790.87	0.668
791.05	0.668
791.23	0.665
791.41	0.665
791.58	0.671
791.76	0.653
791.94	0.625
792.12	0.633
792.30	0.635
792.48	0.634
792.65	0.629
792.83	0.637
793.01	0.641
793.19	0.640
793.37	0.627
793.54	0.622
793.72	0.630
793.90	0.630
794.08	0.620
794.26	0.619
794.43	0.625
794.61	0.611
794.79	0.601
794.97	0.600
795.15	0.602
795.32	0.605
795.50	0.598
795.68	0.592
795.86	0.594
796.04	0.596
796.21	0.593
796.39	0.592
796.57	0.603
796.75	0.611
796.92	0.613
797.10	0.617
797.28	0.618
797.46	0.622
797.64	0.626
797.81	0.632
797.99	0.633
798.17	0.637
798.35	0.632
798.52	0.636
798.70	0.630
798.88	0.637
799.06	0.638
799.23	0.642
799.41	0.647
799.59	0.639
799.77	0.632
799.94	0.639
800.12	0.645
800.30	0.660
800.48	0.660
800.65	0.662
800.83	0.650
801.01	0.643
801.19	0.643
801.36	0.638
801.54	0.640
801.72	0.650
801.90	0.639
802.07	0.636
802.25	0.621
802.43	0.607
802.60	0.604
802.78	0.610
802.96	0.613
803.14	0.609
803.31	0.610
803.49	0.611
803.67	0.605
803.84	0.609
804.02	0.603
804.20	0.606
804.38	0.609
804.55	0.608
804.73	0.598
804.91	0.599
805.08	0.609
805.26	0.606
805.44	0.670
805.61	0.673
805.79	0.670
805.97	0.667
806.15	0.662
806.32	0.659
806.50	0.664
806.68	0.665
806.85	0.659
807.03	0.648
807.21	0.664
807.38	0.599
807.56	0.590
807.74	0.601
807.91	0.606
808.09	0.608
808.27	0.626
808.44	0.650
808.62	0.656
808.80	0.656
808.97	0.654
809.15	0.648
809.33	0.663
809.50	0.670
809.68	0.658
809.86	0.667
810.03	0.692
810.21	0.673
810.39	0.657
810.56	0.664
810.74	0.685
810.91	0.749
811.09	0.744
811.27	0.760
811.44	0.764
811.62	0.765
811.80	0.753
811.97	0.727
812.15	0.726
812.33	0.723
812.50	0.710
812.68	0.699
812.85	0.645
813.03	0.648
813.21	0.622
813.38	0.616
813.56	0.618
813.74	0.627
813.91	0.634
814.09	0.661
814.26	0.651
814.44	0.654
814.62	0.646
814.79	0.649
814.97	0.647
815.14	0.650
815.32	0.652
815.50	0.667
815.67	0.667
815.85	0.659
816.02	0.651
816.20	0.659
816.38	0.671
816.55	0.678
816.73	0.680
816.90	0.691
817.08	0.715
817.26	0.724
817.43	0.709
817.61	0.732
817.78	0.748
817.96	0.731
818.13	0.720
818.31	0.720
818.49	0.727
818.66	0.717
818.84	0.707
819.01	0.688
819.19	0.691
819.36	0.693
819.54	0.666
819.71	0.700
819.89	0.709
820.07	0.720
820.24	0.716
820.42	0.719
820.59	0.734
820.77	0.752
820.94	0.748
821.12	0.764
821.29	0.775
821.47	0.778
821.64	0.728
821.82	0.741
822.00	0.740
822.17	0.739
822.35	0.733
822.52	0.737
822.70	0.729
822.87	0.739
823.05	0.721
823.22	0.731
823.40	0.752
823.57	0.771
823.75	0.759
823.92	0.779
824.10	0.792
824.27	0.827
824.45	0.819
824.62	0.866
824.80	0.875
824.97	0.886
825.15	0.883
825.32	0.894
825.50	0.893
825.67	0.901
825.85	0.889
826.02	0.906
826.20	0.916
826.37	1.024
826.55	0.964
826.72	1.120
826.90	1.163
827.07	1.185
827.25	1.146
827.42	1.260
827.60	1.331
827.77	1.421
827.95	1.409
828.12	1.478
828.30	1.250
828.47	1.346
828.65	1.107
828.82	1.147
829.00	1.197
829.17	1.258
829.34	1.265
829.52	1.308
829.69	-0.000
829.87	-0.000
830.04	-0.000
830.22	-0.000
830.39	-0.000
830.57	-0.000
830.74	-0.000
830.92	-0.000
831.09	-0.000
831.26	-0.000
831.44	-0.000
831.61	-0.000
831.79	-0.000
831.96	-0.000
832.14	-0.000
832.31	-0.000
832.49	-0.000
832.66	-0.000
832.83	-0.000
833.01	-0.000
833.18	-0.000
833.36	-0.000
833.53	-0.000
833.70	-0.000
833.88	-0.000
834.05	-0.000
834.23	-0.000
834.40	-0.000
834.58	-0.000
834.75	-0.000
834.92	-0.000
835.10	-0.000
835.27	-0.000
835.45	-0.000
835.62	-0.000
835.79	-0.000
835.97	-0.000
836.14	-0.000
836.32	-0.000
836.49	-0.000
836.66	-0.000
836.84	-0.000
837.01	-0.000
837.18	-0.000
837.36	-0.000
837.53	-0.000
837.71	-0.000
837.88	-0.000
838.05	-0.000
838.23	-0.000
838.40	-0.000
838.58	-0.000
838.75	-0.000
838.92	-0.000
839.10	-0.000
839.27	-0.000
839.44	-0.000
839.62	-0.000
839.79	-0.000
839.96	-0.000
840.14	-0.000
840.31	-0.000
840.48	-0.000
840.66	-0.000
840.83	-0.000
841.01	-0.000
841.18	-0.000
841.35	-0.000
841.53	-0.000
841.70	-0.000
841.87	-0.000
842.05	-0.000
842.22	-0.000
842.39	-0.000
842.57	-0.000
842.74	-0.000
842.91	-0.000
843.09	-0.000
843.26	-0.000
843.43	-0.000
843.60	-0.000
843.78	-0.000
843.95	-0.000
844.12	-0.000
844.30	-0.000
844.47	-0.000
844.64	-0.000
844.82	-0.000
844.99	-0.000
845.16	-0.000
845.34	-0.000
845.51	-0.000
845.68	-0.000
845.85	-0.000
846.03	-0.000
846.20	-0.000
846.37	-0.000
846.55	-0.000
846.72	-0.000
846.89	-0.000
847.06	-0.000
847.24	-0.000
847.41	-0.000
847.58	-0.000
847.76	-0.000
847.93	-0.000
848.10	-0.000
848.27	-0.000
848.45	-0.000
848.62	-0.000
848.79	-0.000
848.97	-0.000
849.14	-0.000
849.31	-0.000
849.48	-0.000
849.66	-0.000
849.83	-0.000
850.00	-0.000
850.17	-0.000
850.35	-0.000
850.52	-0.000
850.69	-0.000
850.86	-0.000
851.04	-0.000
851.21	-0.000
851.38	-0.000
851.55	-0.000
851.72	-0.000
851.90	-0.000
852.07	-0.000
852.24	-0.000
852.41	-0.000
852.59	-0.000
852.76	-0.000
852.93	-0.000
853.10	-0.000
853.28	-0.000
853.45	-0.000
853.62	-0.000
853.79	-0.000
853.96	-0.000
854.14	-0.000
854.31	-0.000
854.48	-0.000
854.65	-0.000
854.82	-0.000
855.00	-0.000
855.17	-0.000
855.34	-0.000
855.51	-0.000
855.68	-0.000
855.86	-0.000
856.03	-0.000
856.20	-0.000
856.37	-0.000
856.54	-0.000
856.72	-0.000
856.89	-0.000
857.06	-0.000
857.23	-0.000
857.40	-0.000
857.57	-0.000
857.75	-0.000
857.92	-0.000
858.09	-0.000
858.26	-0.000
858.43	-0.000
858.60	-0.000
858.78	-0.000
858.95	-0.000
859.12	-0.000
859.29	-0.000
859.46	-0.000
859.63	-0.000
859.81	-0.000
859.98	-0.000
860.15	-0.000
860.32	-0.000
860.49	-0.000
860.66	-0.000
860.83	-0.000
861.01	-0.000
861.18	-0.000
861.35	-0.000
861.52	-0.000
861.69	-0.000
861.86	-0.000
862.03	-0.000
862.21	-0.000
862.38	-0.000
862.55	-0.000
862.72	-0.000
862.89	-0.000
863.06	-0.000
863.23	-0.000
863.40	-0.000
863.58	-0.000
863.75	-0.000
863.92	-0.000
864.09	-0.000
864.26	-0.000
864.43	-0.000
864.60	-0.000
864.77	-0.000
864.94	-0.000
865.11	-0.000
865.29	-0.000
865.46	-0.000
865.63	-0.000
865.80	-0.000
865.97	-0.000
866.14	-0.000
866.31	-0.000
866.48	-0.000
866.65	-0.000
866.82	-0.000
866.99	-0.000
867.16	-0.000
867.34	-0.000
867.51	-0.000
867.68	-0.000
867.85	-0.000
868.02	-0.000
868.19	-0.000
868.36	-0.000
868.53	-0.000
868.70	-0.000
868.87	-0.000
869.04	-0.000
869.21	-0.000
869.38	-0.000
869.55	-0.000
869.72	-0.000
869.89	-0.000
870.06	-0.000
870.24	-0.000
870.41	-0.000
870.58	-0.000
870.75	-0.000
870.92	-0.000
871.09	-0.000
871.26	-0.000
871.43	-0.000
871.60	-0.000
871.77	-0.000
871.94	-0.000
872.11	-0.000
872.28	-0.000
872.45	-0.000
872.62	-0.000
872.79	-0.000
872.96	-0.000
873.13	-0.000
873.30	-0.000
873.47	-0.000
873.64	-0.000
873.81	-0.000
873.98	-0.000
874.15	-0.000
874.32	-0.000
874.49	-0.000
874.66	-0.000
874.83	-0.000
875.00	-0.000
875.17	-0.000
875.34	-0.000
875.51	-0.000
875.68	-0.000
875.85	-0.000
876.02	-0.000
876.19	-0.000
876.36	-0.000
876.53	-0.000
876.70	-0.000
876.87	-0.000
877.04	-0.000
877.21	-0.000
877.38	-0.000
877.55	-0.000
877.72	-0.000
877.89	-0.000
878.06	-0.000
878.23	-0.000
878.39	-0.000
878.56	-0.000
878.73	-0.000
878.90	-0.000
879.07	-0.000
879.24	-0.000
879.41	-0.000
879.58	-0.000
879.75	-0.000
879.92	-0.000
880.09	-0.000
880.26	-0.000
880.43	-0.000
880.60	-0.000
880.77	-0.000
880.94	-0.000
881.11	-0.000
881.27	-0.000
881.44	-0.000
881.61	-0.000
881.78	-0.000
881.95	-0.000
882.12	-0.000
882.29	-0.000
882.46	-0.000
882.63	-0.000
882.80	-0.000
882.97	-0.000
883.14	-0.000
883.30	-0.000
883.47	-0.000
883.64	-0.000
883.81	-0.000
883.98	-0.000
884.15	-0.000
884.32	-0.000
884.49	-0.000
884.66	-0.000
884.82	-0.000
884.99	-0.000
885.16	-0.000
885.33	-0.000
885.50	-0.000
885.67	-0.000
885.84	-0.000
886.01	-0.000
886.17	-0.000
886.34	-0.000
886.51	-0.000
886.68	-0.000
886.85	-0.000
887.02	-0.000
887.19	-0.000
887.36	-0.000
887.52	-0.000
887.69	-0.000
887.86	-0.000
888.03	-0.000
888.20	-0.000
888.37	-0.000
888.54	-0.000
888.70	-0.000
888.87	-0.000
889.04	-0.000
889.21	-0.000
889.38	-0.000
889.55	-0.000
889.71	-0.000
889.88	-0.000
890.05	-0.000
890.22	-0.000
890.39	-0.000
>>>>>End Processed Spectral Data<<<<<
