SpectraSuite Data File
++++++++++++++++++++++++++++++++++++
Date: Fri Jun 19 12:27:34 CEST 2015
User: introlabs
Dark Spectrum Present: Yes
Reference Spectrum Present: Yes
Number of Sampled Component Spectra: 1
Spectrometers: USB4H08886
Integration Time (usec): 745692 (USB4H08886)
Spectra Averaged: 5 (USB4H08886)
Boxcar Smoothing: 5 (USB4H08886)
Correct for Electrical Dark: Yes (USB4H08886)
Strobe/Lamp Enabled: No (USB4H08886)
Correct for Detector Non-linearity: Yes (USB4H08886)
Correct for Stray Light: Yes (USB4H08886)
Number of Pixels in Processed Spectrum: 3648
>>>>>Begin Processed Spectral Data<<<<<
178.14	-0.000
178.36	-0.000
178.57	-0.000
178.79	-0.000
179.01	-0.000
179.22	-0.000
179.44	-0.000
179.65	-0.000
179.87	-0.000
180.08	-0.000
180.30	-0.000
180.52	-0.000
180.73	-0.000
180.95	-0.000
181.16	-0.000
181.38	-0.000
181.59	-0.000
181.81	-0.000
182.03	-0.000
182.24	-0.000
182.46	-0.000
182.67	-0.000
182.89	-0.000
183.10	-0.000
183.32	-0.000
183.54	-0.000
183.75	-0.000
183.97	-0.000
184.18	-0.000
184.40	-0.000
184.61	-0.000
184.83	-0.000
185.04	-0.000
185.26	-0.000
185.48	-0.000
185.69	-0.000
185.91	-0.000
186.12	-0.000
186.34	-0.000
186.55	-0.000
186.77	-0.000
186.98	-0.000
187.20	-0.000
187.42	-0.000
187.63	-0.000
187.85	-0.000
188.06	-0.000
188.28	-0.000
188.49	-0.000
188.71	-0.000
188.92	-0.000
189.14	-0.000
189.36	-0.000
189.57	-0.000
189.79	-0.000
190.00	-0.000
190.22	-0.000
190.43	-0.000
190.65	-0.000
190.86	-0.000
191.08	-0.000
191.29	-0.000
191.51	-0.000
191.72	-0.000
191.94	-0.000
192.16	-0.000
192.37	-0.000
192.59	-0.000
192.80	-0.000
193.02	-0.000
193.23	-0.000
193.45	-0.000
193.66	-0.000
193.88	-0.000
194.09	-0.000
194.31	-0.000
194.52	-0.000
194.74	-0.000
194.95	-0.000
195.17	-0.000
195.38	-0.000
195.60	-0.000
195.81	-0.000
196.03	-0.000
196.25	-0.000
196.46	-0.000
196.68	-0.000
196.89	-0.000
197.11	-0.000
197.32	-0.000
197.54	-0.000
197.75	-0.000
197.97	-0.000
198.18	-0.000
198.40	-0.000
198.61	-0.000
198.83	-0.000
199.04	-0.000
199.26	-0.000
199.47	-0.000
199.69	-0.000
199.90	-0.000
200.12	-0.000
200.33	-0.000
200.55	-0.000
200.76	-0.000
200.98	-0.000
201.19	-0.000
201.41	-0.000
201.62	-0.000
201.84	-0.000
202.05	-0.000
202.27	-0.000
202.48	-0.000
202.70	-0.000
202.91	-0.000
203.13	-0.000
203.34	-0.000
203.56	-0.000
203.77	-0.000
203.99	-0.000
204.20	-0.000
204.42	-0.000
204.63	-0.000
204.85	-0.000
205.06	-0.000
205.28	-0.000
205.49	-0.000
205.71	-0.000
205.92	-0.000
206.14	-0.000
206.35	-0.000
206.56	-0.000
206.78	-0.000
206.99	-0.000
207.21	-0.000
207.42	-0.000
207.64	-0.000
207.85	-0.000
208.07	-0.000
208.28	-0.000
208.50	-0.000
208.71	-0.000
208.93	-0.000
209.14	-0.000
209.36	-0.000
209.57	-0.000
209.79	-0.000
210.00	-0.000
210.22	-0.000
210.43	-0.000
210.64	-0.000
210.86	-0.000
211.07	-0.000
211.29	-0.000
211.50	-0.000
211.72	-0.000
211.93	-0.000
212.15	-0.000
212.36	-0.000
212.58	-0.000
212.79	-0.000
213.01	-0.000
213.22	-0.000
213.43	-0.000
213.65	-0.000
213.86	-0.000
214.08	-0.000
214.29	-0.000
214.51	-0.000
214.72	-0.000
214.94	-0.000
215.15	-0.000
215.36	-0.000
215.58	-0.000
215.79	-0.000
216.01	-0.000
216.22	-0.000
216.44	-0.000
216.65	-0.000
216.87	-0.000
217.08	-0.000
217.29	-0.000
217.51	-0.000
217.72	-0.000
217.94	-0.000
218.15	-0.000
218.37	-0.000
218.58	-0.000
218.80	-0.000
219.01	-0.000
219.22	-0.000
219.44	-0.000
219.65	-0.000
219.87	-0.000
220.08	-0.000
220.30	-0.000
220.51	-0.000
220.72	-0.000
220.94	-0.000
221.15	-0.000
221.37	-0.000
221.58	-0.000
221.79	-0.000
222.01	-0.000
222.22	-0.000
222.44	-0.000
222.65	-0.000
222.87	-0.000
223.08	-0.000
223.29	-0.000
223.51	-0.000
223.72	-0.000
223.94	-0.000
224.15	-0.000
224.36	-0.000
224.58	-0.000
224.79	-0.000
225.01	-0.000
225.22	-0.000
225.44	-0.000
225.65	-0.000
225.86	-0.000
226.08	-0.000
226.29	-0.000
226.51	-0.000
226.72	-0.000
226.93	-0.000
227.15	-0.000
227.36	-0.000
227.58	-0.000
227.79	-0.000
228.00	-0.000
228.22	-0.000
228.43	-0.000
228.65	-0.000
228.86	-0.000
229.07	-0.000
229.29	-0.000
229.50	-0.000
229.72	-0.000
229.93	-0.000
230.14	-0.000
230.36	-0.000
230.57	-0.000
230.78	-0.000
231.00	-0.000
231.21	-0.000
231.43	-0.000
231.64	-0.000
231.85	-0.000
232.07	-0.000
232.28	-0.000
232.50	-0.000
232.71	-0.000
232.92	-0.000
233.14	-0.000
233.35	-0.000
233.56	-0.000
233.78	-0.000
233.99	-0.000
234.21	-0.000
234.42	-0.000
234.63	-0.000
234.85	-0.000
235.06	-0.000
235.27	-0.000
235.49	-0.000
235.70	-0.000
235.91	-0.000
236.13	-0.000
236.34	-0.000
236.56	-0.000
236.77	-0.000
236.98	-0.000
237.20	-0.000
237.41	-0.000
237.62	-0.000
237.84	-0.000
238.05	-0.000
238.26	-0.000
238.48	-0.000
238.69	-0.000
238.91	-0.000
239.12	-0.000
239.33	-0.000
239.55	-0.000
239.76	-0.000
239.97	-0.000
240.19	-0.000
240.40	-0.000
240.61	-0.000
240.83	-0.000
241.04	-0.000
241.25	-0.000
241.47	-0.000
241.68	-0.000
241.89	-0.000
242.11	-0.000
242.32	-0.000
242.53	-0.000
242.75	-0.000
242.96	-0.000
243.17	-0.000
243.39	-0.000
243.60	-0.000
243.81	-0.000
244.03	-0.000
244.24	-0.000
244.45	-0.000
244.67	-0.000
244.88	-0.000
245.09	-0.000
245.31	-0.000
245.52	-0.000
245.73	-0.000
245.95	-0.000
246.16	-0.000
246.37	-0.000
246.59	-0.000
246.80	-0.000
247.01	-0.000
247.23	-0.000
247.44	-0.000
247.65	-0.000
247.87	-0.000
248.08	-0.000
248.29	-0.000
248.51	-0.000
248.72	-0.000
248.93	-0.000
249.15	-0.000
249.36	-0.000
249.57	-0.000
249.78	-0.000
250.00	-0.000
250.21	-0.000
250.42	-0.000
250.64	-0.000
250.85	-0.000
251.06	-0.000
251.28	-0.000
251.49	-0.000
251.70	-0.000
251.92	-0.000
252.13	-0.000
252.34	-0.000
252.55	-0.000
252.77	-0.000
252.98	-0.000
253.19	-0.000
253.41	-0.000
253.62	-0.000
253.83	-0.000
254.05	-0.000
254.26	-0.000
254.47	-0.000
254.68	-0.000
254.90	-0.000
255.11	-0.000
255.32	-0.000
255.54	-0.000
255.75	-0.000
255.96	-0.000
256.17	-0.000
256.39	-0.000
256.60	-0.000
256.81	-0.000
257.03	-0.000
257.24	-0.000
257.45	-0.000
257.66	-0.000
257.88	-0.000
258.09	-0.000
258.30	-0.000
258.51	-0.000
258.73	-0.000
258.94	-0.000
259.15	-0.000
259.37	-0.000
259.58	-0.000
259.79	-0.000
260.00	-0.000
260.22	-0.000
260.43	-0.000
260.64	-0.000
260.85	-0.000
261.07	-0.000
261.28	-0.000
261.49	-0.000
261.71	-0.000
261.92	-0.000
262.13	-0.000
262.34	-0.000
262.56	-0.000
262.77	-0.000
262.98	-0.000
263.19	-0.000
263.41	-0.000
263.62	-0.000
263.83	-0.000
264.04	-0.000
264.26	-0.000
264.47	-0.000
264.68	-0.000
264.89	-0.000
265.11	-0.000
265.32	-0.000
265.53	-0.000
265.74	-0.000
265.96	-0.000
266.17	-0.000
266.38	-0.000
266.59	-0.000
266.81	-0.000
267.02	-0.000
267.23	-0.000
267.44	-0.000
267.65	-0.000
267.87	-0.000
268.08	-0.000
268.29	-0.000
268.50	-0.000
268.72	-0.000
268.93	-0.000
269.14	-0.000
269.35	-0.000
269.57	-0.000
269.78	-0.000
269.99	-0.000
270.20	-0.000
270.41	-0.000
270.63	-0.000
270.84	-0.000
271.05	-0.000
271.26	-0.000
271.48	-0.000
271.69	-0.000
271.90	-0.000
272.11	-0.000
272.32	-0.000
272.54	-0.000
272.75	-0.000
272.96	-0.000
273.17	-0.000
273.39	-0.000
273.60	-0.000
273.81	-0.000
274.02	-0.000
274.23	-0.000
274.45	-0.000
274.66	-0.000
274.87	-0.000
275.08	-0.000
275.29	-0.000
275.51	-0.000
275.72	-0.000
275.93	-0.000
276.14	-0.000
276.35	-0.000
276.57	-0.000
276.78	-0.000
276.99	-0.000
277.20	-0.000
277.41	-0.000
277.63	-0.000
277.84	-0.000
278.05	-0.000
278.26	-0.000
278.47	-0.000
278.69	-0.000
278.90	-0.000
279.11	-0.000
279.32	-0.000
279.53	-0.000
279.74	-0.000
279.96	-0.000
280.17	-0.000
280.38	-0.000
280.59	-0.000
280.80	-0.000
281.02	-0.000
281.23	-0.000
281.44	-0.000
281.65	-0.000
281.86	-0.000
282.07	-0.000
282.29	-0.000
282.50	-0.000
282.71	-0.000
282.92	-0.000
283.13	-0.000
283.35	-0.000
283.56	-0.000
283.77	-0.000
283.98	-0.000
284.19	-0.000
284.40	-0.000
284.62	-0.000
284.83	-0.000
285.04	-0.000
285.25	-0.000
285.46	-0.000
285.67	-0.000
285.88	-0.000
286.10	-0.000
286.31	-0.000
286.52	-0.000
286.73	-0.000
286.94	-0.000
287.15	-0.000
287.37	-0.000
287.58	-0.000
287.79	-0.000
288.00	-0.000
288.21	-0.000
288.42	-0.000
288.63	-0.000
288.85	-0.000
289.06	-0.000
289.27	-0.000
289.48	-0.000
289.69	-0.000
289.90	-0.000
290.11	-0.000
290.33	-0.000
290.54	-0.000
290.75	-0.000
290.96	-0.000
291.17	-0.000
291.38	-0.000
291.59	-0.000
291.81	-0.000
292.02	-0.000
292.23	-0.000
292.44	2.373
292.65	1.965
292.86	2.408
293.07	2.246
293.28	1.831
293.50	1.907
293.71	2.159
293.92	1.973
294.13	2.030
294.34	2.045
294.55	2.189
294.76	2.104
294.97	1.840
295.19	1.941
295.40	2.491
295.61	2.279
295.82	1.780
296.03	1.659
296.24	1.733
296.45	1.527
296.66	1.385
296.87	1.390
297.09	1.434
297.30	1.502
297.51	1.355
297.72	1.330
297.93	1.381
298.14	1.367
298.35	1.337
298.56	1.321
298.77	1.388
298.99	1.382
299.20	1.358
299.41	1.344
299.62	1.331
299.83	1.327
300.04	1.286
300.25	1.277
300.46	1.304
300.67	1.290
300.88	1.254
301.10	1.255
301.31	1.299
301.52	1.266
301.73	1.230
301.94	1.232
302.15	1.245
302.36	1.219
302.57	1.177
302.78	1.182
302.99	1.213
303.20	1.221
303.41	1.162
303.63	1.147
303.84	1.157
304.05	1.156
304.26	1.113
304.47	1.119
304.68	1.129
304.89	1.123
305.10	1.089
305.31	1.083
305.52	1.115
305.73	1.111
305.94	1.084
306.15	1.080
306.37	1.097
306.58	1.102
306.79	1.078
307.00	1.089
307.21	1.119
307.42	1.115
307.63	1.083
307.84	1.059
308.05	1.086
308.26	1.084
308.47	1.063
308.68	1.062
308.89	1.066
309.10	1.063
309.31	1.031
309.52	1.027
309.73	1.040
309.95	1.038
310.16	1.018
310.37	1.011
310.58	1.026
310.79	1.027
311.00	1.021
311.21	1.021
311.42	1.024
311.63	1.021
311.84	1.005
312.05	1.003
312.26	1.021
312.47	1.027
312.68	1.007
312.89	0.996
313.10	1.003
313.31	0.984
313.52	0.982
313.73	0.983
313.94	0.989
314.15	0.974
314.36	0.956
314.57	0.951
314.78	0.943
314.99	0.939
315.21	0.927
315.42	0.928
315.63	0.940
315.84	0.923
316.05	0.910
316.26	0.915
316.47	0.931
316.68	0.930
316.89	0.913
317.10	0.930
317.31	0.937
317.52	0.938
317.73	0.920
317.94	0.919
318.15	0.954
318.36	0.953
318.57	0.937
318.78	0.928
318.99	0.955
319.20	0.951
319.41	0.923
319.62	0.923
319.83	0.935
320.04	0.932
320.25	0.920
320.46	0.896
320.67	0.901
320.88	0.898
321.09	0.885
321.30	0.873
321.51	0.887
321.72	0.887
321.93	0.873
322.14	0.867
322.35	0.888
322.56	0.888
322.77	0.878
322.98	0.887
323.19	0.895
323.40	0.901
323.61	0.883
323.82	0.879
324.03	0.884
324.24	0.882
324.45	0.871
324.66	0.857
324.87	0.857
325.08	0.854
325.29	0.836
325.50	0.832
325.71	0.839
325.92	0.845
326.13	0.834
326.34	0.835
326.55	0.844
326.76	0.841
326.97	0.832
327.18	0.827
327.39	0.850
327.60	0.853
327.80	0.850
328.01	0.849
328.22	0.851
328.43	0.852
328.64	0.841
328.85	0.844
329.06	0.847
329.27	0.846
329.48	0.841
329.69	0.826
329.90	0.834
330.11	0.828
330.32	0.820
330.53	0.814
330.74	0.817
330.95	0.816
331.16	0.803
331.37	0.809
331.58	0.810
331.79	0.810
332.00	0.801
332.21	0.797
332.42	0.802
332.63	0.794
332.83	0.789
333.04	0.790
333.25	0.802
333.46	0.800
333.67	0.789
333.88	0.792
334.09	0.800
334.30	0.797
334.51	0.788
334.72	0.785
334.93	0.789
335.14	0.788
335.35	0.781
335.56	0.777
335.77	0.784
335.98	0.783
336.18	0.776
336.39	0.771
336.60	0.776
336.81	0.776
337.02	0.774
337.23	0.778
337.44	0.781
337.65	0.782
337.86	0.771
338.07	0.769
338.28	0.774
338.49	0.772
338.70	0.766
338.91	0.772
339.11	0.778
339.32	0.775
339.53	0.763
339.74	0.762
339.95	0.761
340.16	0.760
340.37	0.752
340.58	0.752
340.79	0.756
341.00	0.755
341.21	0.745
341.41	0.746
341.62	0.749
341.83	0.750
342.04	0.745
342.25	0.753
342.46	0.759
342.67	0.758
342.88	0.750
343.09	0.750
343.30	0.757
343.50	0.760
343.71	0.750
343.92	0.748
344.13	0.753
344.34	0.753
344.55	0.739
344.76	0.737
344.97	0.742
345.18	0.741
345.38	0.737
345.59	0.733
345.80	0.733
346.01	0.732
346.22	0.727
346.43	0.723
346.64	0.731
346.85	0.730
347.06	0.723
347.26	0.724
347.47	0.729
347.68	0.724
347.89	0.721
348.10	0.718
348.31	0.725
348.52	0.725
348.73	0.722
348.93	0.719
349.14	0.722
349.35	0.723
349.56	0.717
349.77	0.712
349.98	0.718
350.19	0.715
350.39	0.710
350.60	0.706
350.81	0.721
351.02	0.720
351.23	0.716
351.44	0.719
351.65	0.723
351.86	0.721
352.06	0.720
352.27	0.720
352.48	0.722
352.69	0.721
352.90	0.715
353.11	0.704
353.31	0.711
353.52	0.707
353.73	0.698
353.94	0.699
354.15	0.705
354.36	0.704
354.57	0.696
354.77	0.699
354.98	0.701
355.19	0.701
355.40	0.700
355.61	0.705
355.82	0.710
356.02	0.710
356.23	0.703
356.44	0.705
356.65	0.710
356.86	0.711
357.07	0.706
357.27	0.709
357.48	0.712
357.69	0.708
357.90	0.694
358.11	0.691
358.32	0.696
358.52	0.698
358.73	0.689
358.94	0.691
359.15	0.695
359.36	0.696
359.56	0.691
359.77	0.688
359.98	0.696
360.19	0.696
360.40	0.694
360.61	0.694
360.81	0.695
361.02	0.695
361.23	0.687
361.44	0.686
361.65	0.687
361.85	0.687
362.06	0.684
362.27	0.684
362.48	0.686
362.69	0.688
362.89	0.682
363.10	0.683
363.31	0.687
363.52	0.690
363.73	0.686
363.93	0.686
364.14	0.689
364.35	0.691
364.56	0.682
364.77	0.683
364.97	0.686
365.18	0.688
365.39	0.682
365.60	0.679
365.81	0.681
366.01	0.681
366.22	0.676
366.43	0.676
366.64	0.679
366.84	0.685
367.05	0.681
367.26	0.680
367.47	0.683
367.68	0.683
367.88	0.679
368.09	0.678
368.30	0.680
368.51	0.680
368.71	0.679
368.92	0.682
369.13	0.682
369.34	0.682
369.55	0.680
369.75	0.680
369.96	0.687
370.17	0.688
370.38	0.683
370.58	0.684
370.79	0.690
371.00	0.688
371.21	0.679
371.41	0.684
371.62	0.688
371.83	0.684
372.04	0.682
372.24	0.675
372.45	0.677
372.66	0.678
372.87	0.674
373.07	0.671
373.28	0.673
373.49	0.676
373.70	0.667
373.90	0.666
374.11	0.676
374.32	0.675
374.53	0.674
374.73	0.674
374.94	0.677
375.15	0.676
375.36	0.673
375.56	0.680
375.77	0.681
375.98	0.682
376.19	0.679
376.39	0.673
376.60	0.677
376.81	0.676
377.02	0.674
377.22	0.673
377.43	0.674
377.64	0.674
377.84	0.666
378.05	0.669
378.26	0.675
378.47	0.674
378.67	0.670
378.88	0.668
379.09	0.670
379.30	0.670
379.50	0.667
379.71	0.670
379.92	0.673
380.12	0.672
380.33	0.664
380.54	0.660
380.75	0.668
380.95	0.668
381.16	0.666
381.37	0.666
381.57	0.668
381.78	0.668
381.99	0.667
382.20	0.666
382.40	0.670
382.61	0.670
382.82	0.667
383.02	0.660
383.23	0.663
383.44	0.663
383.64	0.660
383.85	0.662
384.06	0.665
384.27	0.663
384.47	0.660
384.68	0.661
384.89	0.667
385.09	0.667
385.30	0.665
385.51	0.665
385.71	0.668
385.92	0.669
386.13	0.667
386.33	0.668
386.54	0.669
386.75	0.668
386.95	0.664
387.16	0.660
387.37	0.663
387.58	0.663
387.78	0.660
387.99	0.658
388.20	0.660
388.40	0.658
388.61	0.653
388.82	0.656
389.02	0.659
389.23	0.659
389.44	0.657
389.64	0.657
389.85	0.667
390.06	0.667
390.26	0.667
390.47	0.665
390.68	0.667
390.88	0.666
391.09	0.662
391.30	0.661
391.50	0.661
391.71	0.660
391.92	0.658
392.12	0.650
392.33	0.651
392.53	0.651
392.74	0.650
392.95	0.650
393.15	0.652
393.36	0.654
393.57	0.651
393.77	0.654
393.98	0.656
394.19	0.655
394.39	0.653
394.60	0.655
394.81	0.657
395.01	0.655
395.22	0.653
395.43	0.653
395.63	0.658
395.84	0.659
396.04	0.654
396.25	0.656
396.46	0.658
396.66	0.657
396.87	0.654
397.08	0.651
397.28	0.653
397.49	0.654
397.69	0.650
397.90	0.645
398.11	0.647
398.31	0.648
398.52	0.644
398.73	0.644
398.93	0.644
399.14	0.643
399.34	0.642
399.55	0.643
399.76	0.643
399.96	0.644
400.17	0.643
400.37	0.641
400.58	0.647
400.79	0.649
400.99	0.646
401.20	0.651
401.41	0.653
401.61	0.654
401.82	0.657
402.02	0.657
402.23	0.658
402.44	0.658
402.64	0.657
402.85	0.652
403.05	0.651
403.26	0.650
403.47	0.643
403.67	0.642
403.88	0.644
404.08	0.639
404.29	0.637
404.50	0.637
404.70	0.637
404.91	0.636
405.11	0.633
405.32	0.634
405.52	0.635
405.73	0.635
405.94	0.633
406.14	0.635
406.35	0.637
406.55	0.636
406.76	0.634
406.97	0.634
407.17	0.637
407.38	0.637
407.58	0.634
407.79	0.637
407.99	0.639
408.20	0.640
408.41	0.635
408.61	0.633
408.82	0.635
409.02	0.635
409.23	0.632
409.43	0.631
409.64	0.633
409.84	0.633
410.05	0.629
410.26	0.628
410.46	0.627
410.67	0.627
410.87	0.629
411.08	0.630
411.28	0.632
411.49	0.633
411.69	0.630
411.90	0.632
412.11	0.634
412.31	0.635
412.52	0.633
412.72	0.635
412.93	0.636
413.13	0.635
413.34	0.631
413.54	0.631
413.75	0.633
413.95	0.632
414.16	0.629
414.37	0.631
414.57	0.632
414.78	0.633
414.98	0.631
415.19	0.633
415.39	0.631
415.60	0.633
415.80	0.632
416.01	0.631
416.21	0.633
416.42	0.633
416.62	0.629
416.83	0.629
417.03	0.629
417.24	0.630
417.44	0.627
417.65	0.626
417.86	0.627
418.06	0.626
418.27	0.623
418.47	0.624
418.68	0.626
418.88	0.626
419.09	0.624
419.29	0.624
419.50	0.625
419.70	0.624
419.91	0.623
420.11	0.621
420.32	0.623
420.52	0.623
420.73	0.622
420.93	0.623
421.14	0.625
421.34	0.624
421.55	0.621
421.75	0.621
421.96	0.623
422.16	0.623
422.37	0.622
422.57	0.620
422.78	0.622
422.98	0.619
423.19	0.617
423.39	0.616
423.60	0.619
423.80	0.621
424.01	0.619
424.21	0.621
424.42	0.622
424.62	0.622
424.83	0.621
425.03	0.622
425.23	0.624
425.44	0.624
425.64	0.624
425.85	0.623
426.05	0.625
426.26	0.626
426.46	0.622
426.67	0.622
426.87	0.626
427.08	0.627
427.28	0.624
427.49	0.626
427.69	0.627
427.90	0.626
428.10	0.623
428.31	0.623
428.51	0.624
428.71	0.624
428.92	0.624
429.12	0.622
429.33	0.623
429.53	0.627
429.74	0.630
429.94	0.630
430.15	0.630
430.35	0.631
430.56	0.628
430.76	0.628
430.96	0.629
431.17	0.626
431.37	0.624
431.58	0.622
431.78	0.620
431.99	0.614
432.19	0.615
432.40	0.617
432.60	0.618
432.80	0.620
433.01	0.618
433.21	0.618
433.42	0.621
433.62	0.621
433.83	0.620
434.03	0.622
434.23	0.626
434.44	0.625
434.64	0.622
434.85	0.627
435.05	0.627
435.26	0.627
435.46	0.625
435.66	0.625
435.87	0.626
436.07	0.626
436.28	0.622
436.48	0.619
436.69	0.619
436.89	0.620
437.09	0.614
437.30	0.614
437.50	0.615
437.71	0.626
437.91	0.624
438.11	0.626
438.32	0.631
438.52	0.631
438.73	0.630
438.93	0.628
439.13	0.629
439.34	0.633
439.54	0.630
439.75	0.630
439.95	0.622
440.15	0.626
440.36	0.625
440.56	0.623
440.77	0.625
440.97	0.624
441.17	0.623
441.38	0.625
441.58	0.623
441.79	0.622
441.99	0.620
442.19	0.620
442.40	0.618
442.60	0.618
442.81	0.616
443.01	0.616
443.21	0.618
443.42	0.617
443.62	0.615
443.82	0.615
444.03	0.617
444.23	0.617
444.44	0.617
444.64	0.616
444.84	0.617
445.05	0.617
445.25	0.615
445.45	0.615
445.66	0.618
445.86	0.618
446.06	0.619
446.27	0.619
446.47	0.622
446.68	0.620
446.88	0.619
447.08	0.619
447.29	0.621
447.49	0.621
447.69	0.620
447.90	0.619
448.10	0.623
448.30	0.620
448.51	0.621
448.71	0.619
448.91	0.622
449.12	0.621
449.32	0.622
449.52	0.622
449.73	0.626
449.93	0.625
450.14	0.625
450.34	0.625
450.54	0.628
450.75	0.625
450.95	0.624
451.15	0.623
451.36	0.626
451.56	0.623
451.76	0.621
451.97	0.619
452.17	0.619
452.37	0.618
452.58	0.615
452.78	0.614
452.98	0.617
453.19	0.617
453.39	0.618
453.59	0.617
453.79	0.618
454.00	0.619
454.20	0.617
454.40	0.618
454.61	0.620
454.81	0.621
455.01	0.619
455.22	0.619
455.42	0.622
455.62	0.620
455.83	0.619
456.03	0.623
456.23	0.623
456.44	0.625
456.64	0.623
456.84	0.623
457.04	0.624
457.25	0.623
457.45	0.620
457.65	0.619
457.86	0.621
458.06	0.619
458.26	0.614
458.47	0.614
458.67	0.616
458.87	0.616
459.07	0.614
459.28	0.616
459.48	0.619
459.68	0.619
459.89	0.618
460.09	0.617
460.29	0.618
460.49	0.619
460.70	0.618
460.90	0.618
461.10	0.619
461.31	0.619
461.51	0.616
461.71	0.616
461.91	0.619
462.12	0.618
462.32	0.617
462.52	0.618
462.72	0.621
462.93	0.621
463.13	0.619
463.33	0.620
463.53	0.622
463.74	0.622
463.94	0.617
464.14	0.617
464.35	0.619
464.55	0.619
464.75	0.617
464.95	0.614
465.16	0.617
465.36	0.615
465.56	0.614
465.76	0.613
465.97	0.615
466.17	0.616
466.37	0.613
466.57	0.615
466.78	0.616
466.98	0.617
467.18	0.615
467.38	0.614
467.59	0.616
467.79	0.617
467.99	0.616
468.19	0.617
468.39	0.620
468.60	0.621
468.80	0.619
469.00	0.620
469.20	0.621
469.41	0.622
469.61	0.621
469.81	0.621
470.01	0.621
470.22	0.621
470.42	0.619
470.62	0.617
470.82	0.619
471.02	0.618
471.23	0.615
471.43	0.616
471.63	0.618
471.83	0.618
472.04	0.616
472.24	0.614
472.44	0.619
472.64	0.620
472.84	0.618
473.05	0.617
473.25	0.620
473.45	0.620
473.65	0.617
473.85	0.618
474.06	0.620
474.26	0.620
474.46	0.621
474.66	0.618
474.86	0.619
475.07	0.619
475.27	0.617
475.47	0.614
475.67	0.616
475.87	0.618
476.08	0.614
476.28	0.614
476.48	0.616
476.68	0.615
476.88	0.612
477.09	0.614
477.29	0.616
477.49	0.616
477.69	0.615
477.89	0.615
478.09	0.615
478.30	0.617
478.50	0.614
478.70	0.614
478.90	0.614
479.10	0.617
479.31	0.617
479.51	0.615
479.71	0.617
479.91	0.616
480.11	0.615
480.31	0.615
480.52	0.614
480.72	0.614
480.92	0.612
481.12	0.612
481.32	0.610
481.52	0.608
481.72	0.608
481.93	0.611
482.13	0.612
482.33	0.612
482.53	0.610
482.73	0.610
482.93	0.612
483.14	0.612
483.34	0.611
483.54	0.612
483.74	0.612
483.94	0.611
484.14	0.606
484.34	0.607
484.55	0.608
484.75	0.608
484.95	0.606
485.15	0.606
485.35	0.607
485.55	0.606
485.75	0.604
485.96	0.605
486.16	0.606
486.36	0.607
486.56	0.605
486.76	0.605
486.96	0.606
487.16	0.605
487.36	0.603
487.57	0.603
487.77	0.604
487.97	0.605
488.17	0.603
488.37	0.602
488.57	0.603
488.77	0.603
488.97	0.601
489.18	0.600
489.38	0.603
489.58	0.603
489.78	0.602
489.98	0.602
490.18	0.602
490.38	0.603
490.58	0.602
490.78	0.602
490.98	0.604
491.19	0.605
491.39	0.604
491.59	0.603
491.79	0.606
491.99	0.607
492.19	0.606
492.39	0.609
492.59	0.609
492.79	0.610
492.99	0.610
493.20	0.611
493.40	0.611
493.60	0.612
493.80	0.610
494.00	0.608
494.20	0.609
494.40	0.609
494.60	0.606
494.80	0.610
495.00	0.609
495.20	0.607
495.40	0.605
495.61	0.608
495.81	0.608
496.01	0.611
496.21	0.612
496.41	0.611
496.61	0.612
496.81	0.612
497.01	0.606
497.21	0.606
497.41	0.607
497.61	0.607
497.81	0.605
498.01	0.605
498.21	0.603
498.41	0.601
498.61	0.601
498.82	0.602
499.02	0.604
499.22	0.605
499.42	0.604
499.62	0.605
499.82	0.606
500.02	0.608
500.22	0.606
500.42	0.608
500.62	0.609
500.82	0.609
501.02	0.607
501.22	0.608
501.42	0.608
501.62	0.610
501.82	0.609
502.02	0.609
502.22	0.609
502.42	0.611
502.62	0.608
502.82	0.609
503.02	0.610
503.22	0.610
503.42	0.608
503.63	0.608
503.83	0.606
504.03	0.605
504.23	0.603
504.43	0.603
504.63	0.605
504.83	0.604
505.03	0.603
505.23	0.605
505.43	0.607
505.63	0.607
505.83	0.607
506.03	0.609
506.23	0.611
506.43	0.612
506.63	0.611
506.83	0.610
507.03	0.612
507.23	0.612
507.43	0.609
507.63	0.609
507.83	0.610
508.03	0.610
508.23	0.609
508.43	0.607
508.63	0.609
508.83	0.609
509.03	0.610
509.23	0.609
509.43	0.610
509.63	0.611
509.83	0.609
510.03	0.612
510.23	0.614
510.43	0.615
510.63	0.616
510.83	0.615
511.03	0.617
511.23	0.615
511.43	0.614
511.63	0.616
511.83	0.618
512.03	0.618
512.22	0.614
512.42	0.614
512.62	0.615
512.82	0.614
513.02	0.613
513.22	0.612
513.42	0.615
513.62	0.617
513.82	0.615
514.02	0.614
514.22	0.617
514.42	0.617
514.62	0.616
514.82	0.617
515.02	0.620
515.22	0.623
515.42	0.621
515.62	0.623
515.82	0.622
516.02	0.624
516.22	0.623
516.42	0.624
516.62	0.626
516.82	0.627
517.01	0.625
517.21	0.624
517.41	0.628
517.61	0.629
517.81	0.624
518.01	0.624
518.21	0.625
518.41	0.624
518.61	0.623
518.81	0.624
519.01	0.625
519.21	0.625
519.41	0.624
519.61	0.619
519.81	0.621
520.00	0.622
520.20	0.622
520.40	0.625
520.60	0.626
520.80	0.626
521.00	0.625
521.20	0.626
521.40	0.632
521.60	0.632
521.80	0.631
522.00	0.631
522.20	0.634
522.39	0.633
522.59	0.629
522.79	0.631
522.99	0.633
523.19	0.631
523.39	0.628
523.59	0.626
523.79	0.629
523.99	0.632
524.19	0.630
524.38	0.629
524.58	0.631
524.78	0.631
524.98	0.629
525.18	0.631
525.38	0.633
525.58	0.634
525.78	0.631
525.98	0.630
526.18	0.630
526.37	0.629
526.57	0.631
526.77	0.631
526.97	0.632
527.17	0.632
527.37	0.628
527.57	0.630
527.77	0.632
527.96	0.632
528.16	0.630
528.36	0.631
528.56	0.634
528.76	0.631
528.96	0.630
529.16	0.631
529.36	0.635
529.55	0.635
529.75	0.631
529.95	0.632
530.15	0.634
530.35	0.637
530.55	0.634
530.75	0.635
530.94	0.637
531.14	0.637
531.34	0.635
531.54	0.632
531.74	0.637
531.94	0.640
532.13	0.637
532.33	0.638
532.53	0.637
532.73	0.636
532.93	0.634
533.13	0.634
533.33	0.635
533.52	0.635
533.72	0.639
533.92	0.637
534.12	0.635
534.32	0.636
534.52	0.635
534.71	0.636
534.91	0.641
535.11	0.642
535.31	0.640
535.51	0.642
535.71	0.645
535.90	0.642
536.10	0.643
536.30	0.644
536.50	0.646
536.70	0.646
536.89	0.643
537.09	0.642
537.29	0.644
537.49	0.645
537.69	0.642
537.89	0.643
538.08	0.643
538.28	0.641
538.48	0.641
538.68	0.642
538.88	0.644
539.07	0.644
539.27	0.642
539.47	0.641
539.67	0.641
539.87	0.643
540.06	0.640
540.26	0.641
540.46	0.644
540.66	0.641
540.86	0.638
541.05	0.639
541.25	0.641
541.45	0.641
541.65	0.639
541.84	0.641
542.04	0.643
542.24	0.643
542.44	0.642
542.64	0.643
542.83	0.646
543.03	0.647
543.23	0.644
543.43	0.644
543.62	0.646
543.82	0.647
544.02	0.645
544.22	0.645
544.42	0.648
544.61	0.648
544.81	0.645
545.01	0.643
545.21	0.646
545.40	0.647
545.60	0.644
545.80	0.648
546.00	0.649
546.19	0.648
546.39	0.646
546.59	0.644
546.79	0.646
546.98	0.647
547.18	0.647
547.38	0.647
547.58	0.650
547.77	0.651
547.97	0.646
548.17	0.648
548.37	0.649
548.56	0.649
548.76	0.648
548.96	0.650
549.16	0.653
549.35	0.653
549.55	0.650
549.75	0.650
549.95	0.654
550.14	0.655
550.34	0.652
550.54	0.657
550.73	0.661
550.93	0.662
551.13	0.657
551.33	0.655
551.52	0.657
551.72	0.657
551.92	0.655
552.12	0.655
552.31	0.656
552.51	0.656
552.71	0.651
552.90	0.651
553.10	0.653
553.30	0.653
553.50	0.652
553.69	0.653
553.89	0.655
554.09	0.655
554.28	0.652
554.48	0.654
554.68	0.657
554.87	0.657
555.07	0.654
555.27	0.654
555.47	0.656
555.66	0.657
555.86	0.655
556.06	0.658
556.25	0.659
556.45	0.667
556.65	0.665
556.84	0.668
557.04	0.672
557.24	0.673
557.43	0.672
557.63	0.673
557.83	0.675
558.02	0.675
558.22	0.678
558.42	0.679
558.61	0.671
558.81	0.672
559.01	0.667
559.21	0.667
559.40	0.669
559.60	0.668
559.80	0.664
559.99	0.665
560.19	0.667
560.39	0.662
560.58	0.659
560.78	0.660
560.97	0.664
561.17	0.663
561.37	0.660
561.56	0.660
561.76	0.663
561.96	0.663
562.15	0.660
562.35	0.663
562.55	0.665
562.74	0.664
562.94	0.662
563.14	0.660
563.33	0.662
563.53	0.662
563.73	0.660
563.92	0.661
564.12	0.664
564.31	0.666
564.51	0.663
564.71	0.664
564.90	0.668
565.10	0.669
565.30	0.671
565.49	0.672
565.69	0.675
565.89	0.675
566.08	0.672
566.28	0.674
566.47	0.677
566.67	0.674
566.87	0.671
567.06	0.673
567.26	0.679
567.46	0.674
567.65	0.673
567.85	0.674
568.04	0.677
568.24	0.676
568.44	0.672
568.63	0.671
568.83	0.673
569.02	0.672
569.22	0.667
569.42	0.663
569.61	0.666
569.81	0.665
570.00	0.662
570.20	0.664
570.40	0.666
570.59	0.665
570.79	0.662
570.98	0.660
571.18	0.662
571.38	0.662
571.57	0.659
571.77	0.657
571.96	0.661
572.16	0.658
572.35	0.652
572.55	0.654
572.75	0.653
572.94	0.653
573.14	0.651
573.33	0.651
573.53	0.652
573.73	0.652
573.92	0.650
574.12	0.648
574.31	0.651
574.51	0.652
574.70	0.648
574.90	0.649
575.09	0.652
575.29	0.652
575.49	0.649
575.68	0.650
575.88	0.652
576.07	0.653
576.27	0.650
576.46	0.649
576.66	0.649
576.86	0.649
577.05	0.646
577.25	0.644
577.44	0.646
577.64	0.646
577.83	0.644
578.03	0.644
578.22	0.644
578.42	0.643
578.61	0.641
578.81	0.642
579.00	0.643
579.20	0.644
579.40	0.642
579.59	0.640
579.79	0.641
579.98	0.640
580.18	0.640
580.37	0.641
580.57	0.644
580.76	0.648
580.96	0.646
581.15	0.646
581.35	0.649
581.54	0.649
581.74	0.647
581.93	0.649
582.13	0.651
582.32	0.649
582.52	0.647
582.71	0.646
582.91	0.643
583.10	0.642
583.30	0.641
583.49	0.640
583.69	0.645
583.88	0.646
584.08	0.645
584.27	0.647
584.47	0.650
584.66	0.650
584.86	0.649
585.05	0.651
585.25	0.654
585.44	0.653
585.64	0.652
585.83	0.649
586.03	0.650
586.22	0.649
586.42	0.645
586.61	0.647
586.81	0.650
587.00	0.650
587.20	0.648
587.39	0.648
587.59	0.651
587.78	0.652
587.98	0.651
588.17	0.652
588.37	0.655
588.56	0.657
588.76	0.652
588.95	0.653
589.15	0.656
589.34	0.658
589.54	0.656
589.73	0.656
589.92	0.660
590.12	0.659
590.31	0.656
590.51	0.661
590.70	0.662
590.90	0.662
591.09	0.660
591.29	0.659
591.48	0.660
591.68	0.660
591.87	0.658
592.06	0.658
592.26	0.661
592.45	0.662
592.65	0.655
592.84	0.655
593.04	0.658
593.23	0.661
593.43	0.658
593.62	0.658
593.81	0.659
594.01	0.659
594.20	0.656
594.40	0.655
594.59	0.658
594.79	0.658
594.98	0.656
595.17	0.655
595.37	0.655
595.56	0.657
595.76	0.655
595.95	0.656
596.14	0.659
596.34	0.660
596.53	0.657
596.73	0.658
596.92	0.659
597.12	0.662
597.31	0.661
597.50	0.660
597.70	0.663
597.89	0.663
598.09	0.659
598.28	0.660
598.47	0.662
598.67	0.662
598.86	0.658
599.06	0.660
599.25	0.661
599.44	0.659
599.64	0.657
599.83	0.655
600.03	0.658
600.22	0.659
600.41	0.659
600.61	0.657
600.80	0.660
601.00	0.662
601.19	0.658
601.38	0.655
601.58	0.659
601.77	0.660
601.96	0.661
602.16	0.661
602.35	0.670
602.55	0.668
602.74	0.668
602.93	0.669
603.13	0.674
603.32	0.675
603.51	0.674
603.71	0.676
603.90	0.678
604.09	0.678
604.29	0.675
604.48	0.669
604.68	0.671
604.87	0.670
605.06	0.666
605.26	0.663
605.45	0.665
605.64	0.664
605.84	0.659
606.03	0.659
606.22	0.659
606.42	0.659
606.61	0.655
606.80	0.655
607.00	0.657
607.19	0.657
607.38	0.656
607.58	0.657
607.77	0.660
607.96	0.661
608.16	0.659
608.35	0.664
608.54	0.668
608.74	0.671
608.93	0.676
609.12	0.679
609.32	0.682
609.51	0.686
609.70	0.684
609.90	0.685
610.09	0.689
610.28	0.693
610.48	0.685
610.67	0.686
610.86	0.688
611.06	0.682
611.25	0.679
611.44	0.679
611.64	0.679
611.83	0.681
612.02	0.676
612.21	0.675
612.41	0.676
612.60	0.674
612.79	0.670
612.99	0.670
613.18	0.672
613.37	0.670
613.57	0.667
613.76	0.669
613.95	0.668
614.14	0.668
614.34	0.665
614.53	0.666
614.72	0.670
614.92	0.671
615.11	0.667
615.30	0.665
615.49	0.668
615.69	0.671
615.88	0.667
616.07	0.669
616.26	0.672
616.46	0.673
616.65	0.670
616.84	0.669
617.04	0.671
617.23	0.675
617.42	0.675
617.61	0.678
617.81	0.679
618.00	0.680
618.19	0.677
618.38	0.681
618.58	0.684
618.77	0.685
618.96	0.684
619.15	0.686
619.35	0.688
619.54	0.689
619.73	0.683
619.92	0.684
620.12	0.689
620.31	0.690
620.50	0.683
620.69	0.684
620.89	0.689
621.08	0.688
621.27	0.687
621.46	0.686
621.66	0.691
621.85	0.692
622.04	0.687
622.23	0.689
622.43	0.690
622.62	0.691
622.81	0.689
623.00	0.688
623.19	0.693
623.39	0.692
623.58	0.689
623.77	0.688
623.96	0.691
624.16	0.691
624.35	0.686
624.54	0.689
624.73	0.693
624.92	0.691
625.12	0.688
625.31	0.688
625.50	0.692
625.69	0.693
625.88	0.688
626.08	0.689
626.27	0.692
626.46	0.692
626.65	0.688
626.84	0.689
627.04	0.694
627.23	0.695
627.42	0.690
627.61	0.691
627.80	0.695
628.00	0.695
628.19	0.691
628.38	0.695
628.57	0.699
628.76	0.698
628.96	0.694
629.15	0.695
629.34	0.699
629.53	0.699
629.72	0.692
629.91	0.693
630.11	0.700
630.30	0.701
630.49	0.703
630.68	0.702
630.87	0.706
631.06	0.709
631.26	0.703
631.45	0.705
631.64	0.714
631.83	0.717
632.02	0.714
632.21	0.711
632.41	0.719
632.60	0.713
632.79	0.711
632.98	0.712
633.17	0.714
633.36	0.716
633.55	0.712
633.75	0.707
633.94	0.710
634.13	0.710
634.32	0.707
634.51	0.701
634.70	0.705
634.89	0.704
635.09	0.699
635.28	0.701
635.47	0.703
635.66	0.706
635.85	0.701
636.04	0.703
636.23	0.710
636.43	0.711
636.62	0.709
636.81	0.707
637.00	0.711
637.19	0.714
637.38	0.709
637.57	0.709
637.76	0.711
637.95	0.713
638.15	0.707
638.34	0.703
638.53	0.707
638.72	0.710
638.91	0.707
639.10	0.704
639.29	0.706
639.48	0.707
639.67	0.706
639.87	0.705
640.06	0.711
640.25	0.710
640.44	0.710
640.63	0.710
640.82	0.713
641.01	0.713
641.20	0.713
641.39	0.713
641.58	0.718
641.78	0.717
641.97	0.711
642.16	0.725
642.35	0.728
642.54	0.727
642.73	0.720
642.92	0.718
643.11	0.724
643.30	0.723
643.49	0.718
643.68	0.720
643.87	0.723
644.06	0.723
644.25	0.702
644.45	0.704
644.64	0.705
644.83	0.705
645.02	0.702
645.21	0.701
645.40	0.704
645.59	0.702
645.78	0.695
645.97	0.697
646.16	0.700
646.35	0.699
646.54	0.696
646.73	0.698
646.92	0.700
647.11	0.699
647.30	0.693
647.49	0.695
647.68	0.697
647.88	0.694
648.07	0.686
648.26	0.689
648.45	0.692
648.64	0.689
648.83	0.686
649.02	0.689
649.21	0.700
649.40	0.700
649.59	0.694
649.78	0.695
649.97	0.711
650.16	0.710
650.35	0.703
650.54	0.706
650.73	0.715
650.92	0.712
651.11	0.705
651.30	0.703
651.49	0.707
651.68	0.707
651.87	0.703
652.06	0.693
652.25	0.698
652.44	0.699
652.63	0.691
652.82	0.688
653.01	0.687
653.20	0.684
653.39	0.671
653.58	0.669
653.77	0.668
653.96	0.663
654.15	0.655
654.34	0.653
654.53	0.650
654.72	0.646
654.91	0.637
655.10	0.634
655.29	0.632
655.48	0.631
655.67	0.625
655.86	0.623
656.05	0.623
656.24	0.623
656.43	0.617
656.62	0.617
656.81	0.619
657.00	0.619
657.19	0.618
657.38	0.619
657.57	0.620
657.76	0.624
657.95	0.622
658.14	0.626
658.33	0.630
658.51	0.636
658.70	0.636
658.89	0.637
659.08	0.644
659.27	0.650
659.46	0.648
659.65	0.654
659.84	0.657
660.03	0.660
660.22	0.659
660.41	0.664
660.60	0.664
660.79	0.665
660.98	0.670
661.17	0.669
661.36	0.670
661.55	0.670
661.74	0.666
661.92	0.669
662.11	0.672
662.30	0.671
662.49	0.662
662.68	0.662
662.87	0.667
663.06	0.661
663.25	0.661
663.44	0.661
663.63	0.663
663.82	0.662
664.01	0.656
664.20	0.654
664.38	0.656
664.57	0.657
664.76	0.656
664.95	0.656
665.14	0.662
665.33	0.656
665.52	0.663
665.71	0.667
665.90	0.668
666.09	0.669
666.28	0.666
666.46	0.665
666.65	0.668
666.84	0.665
667.03	0.658
667.22	0.656
667.41	0.660
667.60	0.649
667.79	0.642
667.98	0.643
668.16	0.646
668.35	0.645
668.54	0.641
668.73	0.641
668.92	0.642
669.11	0.641
669.30	0.634
669.49	0.630
669.67	0.632
669.86	0.634
670.05	0.631
670.24	0.628
670.43	0.625
670.62	0.625
670.81	0.619
671.00	0.621
671.18	0.622
671.37	0.622
671.56	0.620
671.75	0.619
671.94	0.617
672.13	0.615
672.32	0.610
672.50	0.610
672.69	0.610
672.88	0.611
673.07	0.605
673.26	0.608
673.45	0.609
673.63	0.609
673.82	0.605
674.01	0.606
674.20	0.607
674.39	0.607
674.58	0.605
674.76	0.605
674.95	0.604
675.14	0.604
675.33	0.598
675.52	0.596
675.71	0.596
675.89	0.596
676.08	0.591
676.27	0.590
676.46	0.591
676.65	0.591
676.84	0.590
677.02	0.592
677.21	0.595
677.40	0.594
677.59	0.591
677.78	0.592
677.96	0.595
678.15	0.595
678.34	0.592
678.53	0.592
678.72	0.593
678.90	0.590
679.09	0.584
679.28	0.581
679.47	0.582
679.66	0.582
679.84	0.577
680.03	0.575
680.22	0.574
680.41	0.576
680.60	0.572
680.78	0.572
680.97	0.575
681.16	0.576
681.35	0.574
681.53	0.573
681.72	0.575
681.91	0.576
682.10	0.574
682.29	0.577
682.47	0.575
682.66	0.575
682.85	0.573
683.04	0.571
683.22	0.571
683.41	0.572
683.60	0.571
683.79	0.572
683.97	0.572
684.16	0.571
684.35	0.566
684.54	0.568
684.72	0.568
684.91	0.569
685.10	0.566
685.29	0.568
685.47	0.566
685.66	0.565
685.85	0.561
686.04	0.560
686.22	0.563
686.41	0.566
686.60	0.562
686.79	0.565
686.97	0.567
687.16	0.568
687.35	0.564
687.54	0.568
687.72	0.573
687.91	0.572
688.10	0.573
688.29	0.573
688.47	0.571
688.66	0.570
688.85	0.566
689.03	0.564
689.22	0.569
689.41	0.569
689.60	0.564
689.78	0.562
689.97	0.563
690.16	0.561
690.34	0.557
690.53	0.557
690.72	0.558
690.91	0.557
691.09	0.554
691.28	0.548
691.47	0.547
691.65	0.546
691.84	0.542
692.03	0.542
692.21	0.540
692.40	0.540
692.59	0.537
692.77	0.536
692.96	0.538
693.15	0.539
693.34	0.536
693.52	0.536
693.71	0.537
693.90	0.539
694.08	0.539
694.27	0.541
694.46	0.550
694.64	0.551
694.83	0.550
695.02	0.548
695.20	0.549
695.39	0.548
695.58	0.547
695.76	0.549
695.95	0.548
696.14	0.547
696.32	0.543
696.51	0.534
696.70	0.534
696.88	0.535
697.07	0.533
697.26	0.534
697.44	0.536
697.63	0.534
697.81	0.532
698.00	0.532
698.19	0.532
698.37	0.533
698.56	0.532
698.75	0.532
698.93	0.532
699.12	0.532
699.31	0.531
699.49	0.530
699.68	0.532
699.87	0.534
700.05	0.534
700.24	0.532
700.42	0.534
700.61	0.533
700.80	0.530
700.98	0.530
701.17	0.532
701.36	0.532
701.54	0.531
701.73	0.532
701.91	0.531
702.10	0.530
702.29	0.528
702.47	0.527
702.66	0.530
702.84	0.531
703.03	0.529
703.22	0.531
703.40	0.531
703.59	0.532
703.77	0.531
703.96	0.530
704.15	0.532
704.33	0.532
704.52	0.531
704.70	0.530
704.89	0.530
705.08	0.528
705.26	0.523
705.45	0.523
705.63	0.523
705.82	0.519
706.00	0.517
706.19	0.516
706.38	0.516
706.56	0.516
706.75	0.513
706.93	0.512
707.12	0.514
707.30	0.514
707.49	0.511
707.68	0.509
707.86	0.510
708.05	0.509
708.23	0.506
708.42	0.508
708.60	0.511
708.79	0.511
708.98	0.510
709.16	0.510
709.35	0.513
709.53	0.518
709.72	0.516
709.90	0.518
710.09	0.521
710.27	0.522
710.46	0.525
710.64	0.523
710.83	0.525
711.02	0.526
711.20	0.524
711.39	0.522
711.57	0.520
711.76	0.520
711.94	0.517
712.13	0.517
712.31	0.518
712.50	0.513
712.68	0.509
712.87	0.510
713.05	0.510
713.24	0.511
713.42	0.509
713.61	0.510
713.79	0.511
713.98	0.512
714.16	0.512
714.35	0.512
714.54	0.513
714.72	0.513
714.91	0.511
715.09	0.517
715.28	0.521
715.46	0.521
715.65	0.518
715.83	0.519
716.02	0.522
716.20	0.518
716.39	0.517
716.57	0.518
716.76	0.521
716.94	0.522
717.12	0.513
717.31	0.514
717.49	0.517
717.68	0.519
717.86	0.517
718.05	0.519
718.23	0.522
718.42	0.525
718.60	0.525
718.79	0.533
718.97	0.537
719.16	0.537
719.34	0.534
719.53	0.534
719.71	0.535
719.90	0.537
720.08	0.533
720.27	0.534
720.45	0.534
720.63	0.533
720.82	0.527
721.00	0.529
721.19	0.533
721.37	0.532
721.56	0.532
721.74	0.534
721.93	0.544
722.11	0.549
722.30	0.546
722.48	0.550
722.66	0.553
722.85	0.552
723.03	0.551
723.22	0.548
723.40	0.553
723.59	0.553
723.77	0.556
723.95	0.549
724.14	0.553
724.32	0.556
724.51	0.554
724.69	0.555
724.88	0.558
725.06	0.557
725.24	0.556
725.43	0.557
725.61	0.561
725.80	0.555
725.98	0.551
726.16	0.547
726.35	0.553
726.53	0.551
726.72	0.549
726.90	0.559
727.09	0.560
727.27	0.565
727.45	0.562
727.64	0.571
727.82	0.581
728.01	0.586
728.19	0.582
728.37	0.588
728.56	0.594
728.74	0.600
728.92	0.586
729.11	0.589
729.29	0.589
729.48	0.591
729.66	0.579
729.84	0.578
730.03	0.582
730.21	0.584
730.40	0.572
730.58	0.574
730.76	0.576
730.95	0.579
731.13	0.577
731.31	0.591
731.50	0.602
731.68	0.605
731.86	0.600
732.05	0.614
732.23	0.619
732.42	0.623
732.60	0.624
732.78	0.629
732.97	0.651
733.15	0.658
733.33	0.644
733.52	0.652
733.70	0.665
733.88	0.674
734.07	0.659
734.25	0.685
734.43	0.697
734.62	0.700
734.80	0.693
734.98	0.683
735.17	0.691
735.35	0.699
735.53	0.684
735.72	0.686
735.90	0.714
736.08	0.733
736.27	0.706
736.45	0.715
736.63	0.728
736.82	0.737
737.00	0.732
737.18	0.746
737.37	0.781
737.55	0.806
737.73	0.797
737.92	0.798
738.10	0.797
738.28	0.819
738.46	0.803
738.65	0.818
738.83	0.849
739.01	0.906
739.20	0.890
739.38	0.874
739.56	0.869
739.75	0.874
739.93	0.832
740.11	0.860
740.29	0.867
740.48	0.876
740.66	0.848
740.84	0.838
741.03	0.806
741.21	0.818
741.39	0.791
741.57	0.807
741.76	0.832
741.94	0.840
742.12	0.799
742.31	0.806
742.49	0.827
742.67	0.851
742.85	0.865
743.04	0.869
743.22	0.885
743.40	0.944
743.58	0.914
743.77	0.933
743.95	0.982
744.13	1.039
744.31	1.004
744.50	1.002
744.68	1.018
744.86	0.983
745.04	0.989
745.23	1.059
745.41	1.054
745.59	1.066
745.77	1.014
745.96	0.991
746.14	1.009
746.32	1.009
746.50	0.992
746.69	0.972
746.87	1.004
747.05	0.988
747.23	0.900
747.42	0.879
747.60	0.918
747.78	0.926
747.96	0.954
748.14	0.901
748.33	0.942
748.51	0.940
748.69	0.923
748.87	0.950
749.06	0.957
749.24	0.958
749.42	0.936
749.60	0.908
749.78	0.921
749.97	0.872
750.15	0.865
750.33	0.866
750.51	0.897
750.69	0.898
750.88	0.897
751.06	0.906
751.24	0.938
751.42	0.929
751.60	0.917
751.79	0.993
751.97	1.055
752.15	1.052
752.33	1.006
752.51	1.080
752.69	1.118
752.88	1.071
753.06	1.115
753.24	1.089
753.42	1.138
753.60	1.355
753.78	1.161
753.97	1.176
754.15	1.221
754.33	1.251
754.51	1.077
754.69	1.054
754.87	1.104
755.06	1.020
755.24	1.009
755.42	1.021
755.60	0.922
755.78	0.932
755.96	0.868
756.15	0.865
756.33	0.880
756.51	0.906
756.69	0.886
756.87	0.845
757.05	0.869
757.23	0.851
757.42	0.812
757.60	0.808
757.78	0.801
757.96	0.803
758.14	0.779
758.32	0.762
758.50	0.776
758.69	0.772
758.87	0.761
759.05	0.767
759.23	0.785
759.41	0.783
759.59	0.771
759.77	0.795
759.95	0.828
760.13	0.879
760.32	0.874
760.50	0.875
760.68	0.912
760.86	0.913
761.04	0.877
761.22	0.878
761.40	0.937
761.58	0.940
761.76	0.901
761.95	0.885
762.13	0.842
762.31	0.841
762.49	0.799
762.67	0.817
762.85	0.836
763.03	0.833
763.21	0.809
763.39	0.789
763.57	0.798
763.75	0.794
763.94	0.771
764.12	0.769
764.30	0.800
764.48	0.806
764.66	0.764
764.84	0.762
765.02	0.805
765.20	0.812
765.38	0.787
765.56	0.792
765.74	0.837
765.92	0.839
766.10	0.848
766.28	0.840
766.46	0.875
766.65	0.877
766.83	0.858
767.01	0.841
767.19	0.856
767.37	0.859
767.55	0.840
767.73	0.820
767.91	0.829
768.09	0.814
768.27	0.800
768.45	0.788
768.63	0.798
768.81	0.801
768.99	0.765
769.17	0.792
769.35	0.811
769.53	0.807
769.71	0.780
769.89	0.788
770.07	0.801
770.25	0.781
770.43	0.755
770.61	0.781
770.79	0.793
770.97	0.803
771.15	0.763
771.33	0.768
771.51	0.777
771.69	0.789
771.87	0.792
772.05	0.798
772.24	0.812
772.42	0.819
772.60	0.791
772.78	0.853
772.96	0.896
773.14	0.894
773.32	0.859
773.49	0.862
773.67	0.866
773.85	0.845
774.03	0.824
774.21	0.858
774.39	0.874
774.57	0.899
774.75	0.817
774.93	0.810
775.11	0.838
775.29	0.845
775.47	0.844
775.65	0.859
775.83	0.885
776.01	0.916
776.19	0.858
776.37	0.864
776.55	0.866
776.73	0.866
776.91	0.855
777.09	0.835
777.27	0.842
777.45	0.832
777.63	0.800
777.81	0.794
777.99	0.783
778.17	0.783
778.35	0.756
778.53	0.747
778.71	0.755
778.89	0.740
779.07	0.725
779.24	0.731
779.42	0.735
779.60	0.755
779.78	0.748
779.96	0.754
780.14	0.766
780.32	0.789
780.50	0.765
780.68	0.764
780.86	0.760
781.04	0.781
781.22	0.781
781.40	0.794
781.58	0.784
781.75	0.778
781.93	0.754
782.11	0.755
782.29	0.744
782.47	0.743
782.65	0.728
782.83	0.758
783.01	0.753
783.19	0.745
783.37	0.727
783.55	0.732
783.72	0.750
783.90	0.763
784.08	0.748
784.26	0.760
784.44	0.782
784.62	0.783
784.80	0.743
784.98	0.746
785.16	0.755
785.33	0.770
785.51	0.749
785.69	0.736
785.87	0.737
786.05	0.747
786.23	0.738
786.41	0.736
786.59	0.746
786.77	0.748
786.94	0.733
787.12	0.734
787.30	0.737
787.48	0.735
787.66	0.721
787.84	0.721
788.02	0.716
788.19	0.715
788.37	0.698
788.55	0.699
788.73	0.701
788.91	0.696
789.09	0.676
789.27	0.665
789.44	0.681
789.62	0.687
789.80	0.695
789.98	0.722
790.16	0.707
790.34	0.704
790.51	0.688
790.69	0.709
790.87	0.719
791.05	0.718
791.23	0.709
791.41	0.711
791.58	0.721
791.76	0.695
791.94	0.661
792.12	0.672
792.30	0.675
792.48	0.673
792.65	0.662
792.83	0.668
793.01	0.679
793.19	0.677
793.37	0.659
793.54	0.656
793.72	0.670
793.90	0.668
794.08	0.655
794.26	0.659
794.43	0.672
794.61	0.656
794.79	0.644
794.97	0.641
795.15	0.649
795.32	0.654
795.50	0.641
795.68	0.636
795.86	0.643
796.04	0.646
796.21	0.636
796.39	0.634
796.57	0.652
796.75	0.661
796.92	0.661
797.10	0.666
797.28	0.670
797.46	0.673
797.64	0.672
797.81	0.683
797.99	0.688
798.17	0.693
798.35	0.685
798.52	0.685
798.70	0.681
798.88	0.690
799.06	0.686
799.23	0.690
799.41	0.702
799.59	0.694
799.77	0.677
799.94	0.688
800.12	0.701
800.30	0.719
800.48	0.717
800.65	0.719
800.83	0.710
801.01	0.703
801.19	0.701
801.36	0.695
801.54	0.702
801.72	0.715
801.90	0.695
802.07	0.689
802.25	0.675
802.43	0.657
802.60	0.649
802.78	0.657
802.96	0.664
803.14	0.656
803.31	0.651
803.49	0.652
803.67	0.649
803.84	0.651
804.02	0.640
804.20	0.643
804.38	0.651
804.55	0.649
804.73	0.631
804.91	0.630
805.08	0.647
805.26	0.644
805.44	0.702
805.61	0.705
805.79	0.710
805.97	0.709
806.15	0.697
806.32	0.693
806.50	0.703
806.68	0.705
806.85	0.693
807.03	0.683
807.21	0.703
807.38	0.639
807.56	0.625
807.74	0.634
807.91	0.645
808.09	0.647
808.27	0.663
808.44	0.691
808.62	0.703
808.80	0.704
808.97	0.697
809.15	0.689
809.33	0.709
809.50	0.719
809.68	0.702
809.86	0.708
810.03	0.747
810.21	0.727
810.39	0.702
810.56	0.708
810.74	0.739
810.91	0.815
811.09	0.802
811.27	0.824
811.44	0.833
811.62	0.836
811.80	0.815
811.97	0.782
812.15	0.783
812.33	0.780
812.50	0.759
812.68	0.745
812.85	0.688
813.03	0.691
813.21	0.655
813.38	0.649
813.56	0.653
813.74	0.666
813.91	0.669
814.09	0.703
814.26	0.700
814.44	0.704
814.62	0.692
814.79	0.696
814.97	0.705
815.14	0.712
815.32	0.713
815.50	0.733
815.67	0.739
815.85	0.728
816.02	0.713
816.20	0.723
816.38	0.743
816.55	0.747
816.73	0.745
816.90	0.757
817.08	0.793
817.26	0.801
817.43	0.774
817.61	0.800
817.78	0.828
817.96	0.802
818.13	0.783
818.31	0.785
818.49	0.804
818.66	0.792
818.84	0.772
819.01	0.748
819.19	0.758
819.36	0.759
819.54	0.723
819.71	0.772
819.89	0.792
820.07	0.805
820.24	0.791
820.42	0.792
820.59	0.817
820.77	0.842
820.94	0.828
821.12	0.851
821.29	0.876
821.47	0.877
821.64	0.796
821.82	0.815
822.00	0.815
822.17	0.815
822.35	0.803
822.52	0.803
822.70	0.796
822.87	0.805
823.05	0.775
823.22	0.788
823.40	0.826
823.57	0.853
823.75	0.827
823.92	0.863
824.10	0.891
824.27	0.940
824.45	0.926
824.62	1.002
824.80	1.033
824.97	1.053
825.15	1.026
825.32	1.041
825.50	1.052
825.67	1.063
825.85	1.024
826.02	1.053
826.20	1.102
826.37	1.284
826.55	1.154
826.72	1.474
826.90	1.669
827.07	1.847
827.25	1.642
827.42	2.247
827.60	-0.000
827.77	-0.000
827.95	-0.000
828.12	-0.000
828.30	-0.000
828.47	-0.000
828.65	1.590
828.82	1.815
829.00	2.604
829.17	-0.000
829.34	-0.000
829.52	-0.000
829.69	-0.000
829.87	-0.000
830.04	-0.000
830.22	-0.000
830.39	-0.000
830.57	-0.000
830.74	-0.000
830.92	-0.000
831.09	-0.000
831.26	-0.000
831.44	-0.000
831.61	-0.000
831.79	-0.000
831.96	-0.000
832.14	-0.000
832.31	-0.000
832.49	-0.000
832.66	-0.000
832.83	-0.000
833.01	-0.000
833.18	-0.000
833.36	-0.000
833.53	-0.000
833.70	-0.000
833.88	-0.000
834.05	-0.000
834.23	-0.000
834.40	-0.000
834.58	-0.000
834.75	-0.000
834.92	-0.000
835.10	-0.000
835.27	-0.000
835.45	-0.000
835.62	-0.000
835.79	-0.000
835.97	-0.000
836.14	-0.000
836.32	-0.000
836.49	-0.000
836.66	-0.000
836.84	-0.000
837.01	-0.000
837.18	-0.000
837.36	-0.000
837.53	-0.000
837.71	-0.000
837.88	-0.000
838.05	-0.000
838.23	-0.000
838.40	-0.000
838.58	-0.000
838.75	-0.000
838.92	-0.000
839.10	-0.000
839.27	-0.000
839.44	-0.000
839.62	-0.000
839.79	-0.000
839.96	-0.000
840.14	-0.000
840.31	-0.000
840.48	-0.000
840.66	-0.000
840.83	-0.000
841.01	-0.000
841.18	-0.000
841.35	-0.000
841.53	-0.000
841.70	-0.000
841.87	-0.000
842.05	-0.000
842.22	-0.000
842.39	-0.000
842.57	-0.000
842.74	-0.000
842.91	-0.000
843.09	-0.000
843.26	-0.000
843.43	-0.000
843.60	-0.000
843.78	-0.000
843.95	-0.000
844.12	-0.000
844.30	-0.000
844.47	-0.000
844.64	-0.000
844.82	-0.000
844.99	-0.000
845.16	-0.000
845.34	-0.000
845.51	-0.000
845.68	-0.000
845.85	-0.000
846.03	-0.000
846.20	-0.000
846.37	-0.000
846.55	-0.000
846.72	-0.000
846.89	-0.000
847.06	-0.000
847.24	-0.000
847.41	-0.000
847.58	-0.000
847.76	-0.000
847.93	-0.000
848.10	-0.000
848.27	-0.000
848.45	-0.000
848.62	-0.000
848.79	-0.000
848.97	-0.000
849.14	-0.000
849.31	-0.000
849.48	-0.000
849.66	-0.000
849.83	-0.000
850.00	-0.000
850.17	-0.000
850.35	-0.000
850.52	-0.000
850.69	-0.000
850.86	-0.000
851.04	-0.000
851.21	-0.000
851.38	-0.000
851.55	-0.000
851.72	-0.000
851.90	-0.000
852.07	-0.000
852.24	-0.000
852.41	-0.000
852.59	-0.000
852.76	-0.000
852.93	-0.000
853.10	-0.000
853.28	-0.000
853.45	-0.000
853.62	-0.000
853.79	-0.000
853.96	-0.000
854.14	-0.000
854.31	-0.000
854.48	-0.000
854.65	-0.000
854.82	-0.000
855.00	-0.000
855.17	-0.000
855.34	-0.000
855.51	-0.000
855.68	-0.000
855.86	-0.000
856.03	-0.000
856.20	-0.000
856.37	-0.000
856.54	-0.000
856.72	-0.000
856.89	-0.000
857.06	-0.000
857.23	-0.000
857.40	-0.000
857.57	-0.000
857.75	-0.000
857.92	-0.000
858.09	-0.000
858.26	-0.000
858.43	-0.000
858.60	-0.000
858.78	-0.000
858.95	-0.000
859.12	-0.000
859.29	-0.000
859.46	-0.000
859.63	-0.000
859.81	-0.000
859.98	-0.000
860.15	-0.000
860.32	-0.000
860.49	-0.000
860.66	-0.000
860.83	-0.000
861.01	-0.000
861.18	-0.000
861.35	-0.000
861.52	-0.000
861.69	-0.000
861.86	-0.000
862.03	-0.000
862.21	-0.000
862.38	-0.000
862.55	-0.000
862.72	-0.000
862.89	-0.000
863.06	-0.000
863.23	-0.000
863.40	-0.000
863.58	-0.000
863.75	-0.000
863.92	-0.000
864.09	-0.000
864.26	-0.000
864.43	-0.000
864.60	-0.000
864.77	-0.000
864.94	-0.000
865.11	-0.000
865.29	-0.000
865.46	-0.000
865.63	-0.000
865.80	-0.000
865.97	-0.000
866.14	-0.000
866.31	-0.000
866.48	-0.000
866.65	-0.000
866.82	-0.000
866.99	-0.000
867.16	-0.000
867.34	-0.000
867.51	-0.000
867.68	-0.000
867.85	-0.000
868.02	-0.000
868.19	-0.000
868.36	-0.000
868.53	-0.000
868.70	-0.000
868.87	-0.000
869.04	-0.000
869.21	-0.000
869.38	-0.000
869.55	-0.000
869.72	-0.000
869.89	-0.000
870.06	-0.000
870.24	-0.000
870.41	-0.000
870.58	-0.000
870.75	-0.000
870.92	-0.000
871.09	-0.000
871.26	-0.000
871.43	-0.000
871.60	-0.000
871.77	-0.000
871.94	-0.000
872.11	-0.000
872.28	-0.000
872.45	-0.000
872.62	-0.000
872.79	-0.000
872.96	-0.000
873.13	-0.000
873.30	-0.000
873.47	-0.000
873.64	-0.000
873.81	-0.000
873.98	-0.000
874.15	-0.000
874.32	-0.000
874.49	-0.000
874.66	-0.000
874.83	-0.000
875.00	-0.000
875.17	-0.000
875.34	-0.000
875.51	-0.000
875.68	-0.000
875.85	-0.000
876.02	-0.000
876.19	-0.000
876.36	-0.000
876.53	-0.000
876.70	-0.000
876.87	-0.000
877.04	-0.000
877.21	-0.000
877.38	-0.000
877.55	-0.000
877.72	-0.000
877.89	-0.000
878.06	-0.000
878.23	-0.000
878.39	-0.000
878.56	-0.000
878.73	-0.000
878.90	-0.000
879.07	-0.000
879.24	-0.000
879.41	-0.000
879.58	-0.000
879.75	-0.000
879.92	-0.000
880.09	-0.000
880.26	-0.000
880.43	-0.000
880.60	-0.000
880.77	-0.000
880.94	-0.000
881.11	-0.000
881.27	-0.000
881.44	-0.000
881.61	-0.000
881.78	-0.000
881.95	-0.000
882.12	-0.000
882.29	-0.000
882.46	-0.000
882.63	-0.000
882.80	-0.000
882.97	-0.000
883.14	-0.000
883.30	-0.000
883.47	-0.000
883.64	-0.000
883.81	-0.000
883.98	-0.000
884.15	-0.000
884.32	-0.000
884.49	-0.000
884.66	-0.000
884.82	-0.000
884.99	-0.000
885.16	-0.000
885.33	-0.000
885.50	-0.000
885.67	-0.000
885.84	-0.000
886.01	-0.000
886.17	-0.000
886.34	-0.000
886.51	-0.000
886.68	-0.000
886.85	-0.000
887.02	-0.000
887.19	-0.000
887.36	-0.000
887.52	-0.000
887.69	-0.000
887.86	-0.000
888.03	-0.000
888.20	-0.000
888.37	-0.000
888.54	-0.000
888.70	-0.000
888.87	-0.000
889.04	-0.000
889.21	-0.000
889.38	-0.000
889.55	-0.000
889.71	-0.000
889.88	-0.000
890.05	-0.000
890.22	-0.000
890.39	-0.000
>>>>>End Processed Spectral Data<<<<<
