SpectraSuite Data File
++++++++++++++++++++++++++++++++++++
Date: Fri Jun 19 12:23:16 CEST 2015
User: introlabs
Dark Spectrum Present: Yes
Reference Spectrum Present: Yes
Number of Sampled Component Spectra: 1
Spectrometers: USB4H08886
Integration Time (usec): 745692 (USB4H08886)
Spectra Averaged: 5 (USB4H08886)
Boxcar Smoothing: 5 (USB4H08886)
Correct for Electrical Dark: Yes (USB4H08886)
Strobe/Lamp Enabled: No (USB4H08886)
Correct for Detector Non-linearity: Yes (USB4H08886)
Correct for Stray Light: Yes (USB4H08886)
Number of Pixels in Processed Spectrum: 3648
>>>>>Begin Processed Spectral Data<<<<<
178.14	-0.000
178.36	-0.000
178.57	-0.000
178.79	-0.000
179.01	-0.000
179.22	-0.000
179.44	-0.000
179.65	-0.000
179.87	-0.000
180.08	-0.000
180.30	-0.000
180.52	-0.000
180.73	-0.000
180.95	-0.000
181.16	-0.000
181.38	-0.000
181.59	-0.000
181.81	-0.000
182.03	-0.000
182.24	-0.000
182.46	-0.000
182.67	-0.000
182.89	-0.000
183.10	-0.000
183.32	-0.000
183.54	-0.000
183.75	-0.000
183.97	-0.000
184.18	-0.000
184.40	-0.000
184.61	-0.000
184.83	-0.000
185.04	-0.000
185.26	-0.000
185.48	-0.000
185.69	-0.000
185.91	-0.000
186.12	-0.000
186.34	-0.000
186.55	-0.000
186.77	-0.000
186.98	-0.000
187.20	-0.000
187.42	-0.000
187.63	-0.000
187.85	-0.000
188.06	-0.000
188.28	-0.000
188.49	-0.000
188.71	-0.000
188.92	-0.000
189.14	-0.000
189.36	-0.000
189.57	-0.000
189.79	-0.000
190.00	-0.000
190.22	-0.000
190.43	-0.000
190.65	-0.000
190.86	-0.000
191.08	-0.000
191.29	-0.000
191.51	-0.000
191.72	-0.000
191.94	-0.000
192.16	-0.000
192.37	-0.000
192.59	-0.000
192.80	-0.000
193.02	-0.000
193.23	-0.000
193.45	-0.000
193.66	-0.000
193.88	-0.000
194.09	-0.000
194.31	-0.000
194.52	-0.000
194.74	-0.000
194.95	-0.000
195.17	-0.000
195.38	-0.000
195.60	-0.000
195.81	-0.000
196.03	-0.000
196.25	-0.000
196.46	-0.000
196.68	-0.000
196.89	-0.000
197.11	-0.000
197.32	-0.000
197.54	-0.000
197.75	-0.000
197.97	-0.000
198.18	-0.000
198.40	-0.000
198.61	-0.000
198.83	-0.000
199.04	-0.000
199.26	-0.000
199.47	-0.000
199.69	-0.000
199.90	-0.000
200.12	-0.000
200.33	-0.000
200.55	-0.000
200.76	-0.000
200.98	-0.000
201.19	-0.000
201.41	-0.000
201.62	-0.000
201.84	-0.000
202.05	-0.000
202.27	-0.000
202.48	-0.000
202.70	-0.000
202.91	-0.000
203.13	-0.000
203.34	-0.000
203.56	-0.000
203.77	-0.000
203.99	-0.000
204.20	-0.000
204.42	-0.000
204.63	-0.000
204.85	-0.000
205.06	-0.000
205.28	-0.000
205.49	-0.000
205.71	-0.000
205.92	-0.000
206.14	-0.000
206.35	-0.000
206.56	-0.000
206.78	-0.000
206.99	-0.000
207.21	-0.000
207.42	-0.000
207.64	-0.000
207.85	-0.000
208.07	-0.000
208.28	-0.000
208.50	-0.000
208.71	-0.000
208.93	-0.000
209.14	-0.000
209.36	-0.000
209.57	-0.000
209.79	-0.000
210.00	-0.000
210.22	-0.000
210.43	-0.000
210.64	-0.000
210.86	-0.000
211.07	-0.000
211.29	-0.000
211.50	-0.000
211.72	-0.000
211.93	-0.000
212.15	-0.000
212.36	-0.000
212.58	-0.000
212.79	-0.000
213.01	-0.000
213.22	-0.000
213.43	-0.000
213.65	-0.000
213.86	-0.000
214.08	-0.000
214.29	-0.000
214.51	-0.000
214.72	-0.000
214.94	-0.000
215.15	-0.000
215.36	-0.000
215.58	-0.000
215.79	-0.000
216.01	-0.000
216.22	-0.000
216.44	-0.000
216.65	-0.000
216.87	-0.000
217.08	-0.000
217.29	-0.000
217.51	-0.000
217.72	-0.000
217.94	-0.000
218.15	-0.000
218.37	-0.000
218.58	-0.000
218.80	-0.000
219.01	-0.000
219.22	-0.000
219.44	-0.000
219.65	-0.000
219.87	-0.000
220.08	-0.000
220.30	-0.000
220.51	-0.000
220.72	-0.000
220.94	-0.000
221.15	-0.000
221.37	-0.000
221.58	-0.000
221.79	-0.000
222.01	-0.000
222.22	-0.000
222.44	-0.000
222.65	-0.000
222.87	-0.000
223.08	-0.000
223.29	-0.000
223.51	-0.000
223.72	-0.000
223.94	-0.000
224.15	-0.000
224.36	-0.000
224.58	-0.000
224.79	-0.000
225.01	-0.000
225.22	-0.000
225.44	-0.000
225.65	-0.000
225.86	-0.000
226.08	-0.000
226.29	-0.000
226.51	-0.000
226.72	-0.000
226.93	-0.000
227.15	-0.000
227.36	-0.000
227.58	-0.000
227.79	-0.000
228.00	-0.000
228.22	-0.000
228.43	-0.000
228.65	-0.000
228.86	-0.000
229.07	-0.000
229.29	-0.000
229.50	-0.000
229.72	-0.000
229.93	-0.000
230.14	-0.000
230.36	-0.000
230.57	-0.000
230.78	-0.000
231.00	-0.000
231.21	-0.000
231.43	-0.000
231.64	-0.000
231.85	-0.000
232.07	-0.000
232.28	-0.000
232.50	-0.000
232.71	-0.000
232.92	-0.000
233.14	-0.000
233.35	-0.000
233.56	-0.000
233.78	-0.000
233.99	-0.000
234.21	-0.000
234.42	-0.000
234.63	-0.000
234.85	-0.000
235.06	-0.000
235.27	-0.000
235.49	-0.000
235.70	-0.000
235.91	-0.000
236.13	-0.000
236.34	-0.000
236.56	-0.000
236.77	-0.000
236.98	-0.000
237.20	-0.000
237.41	-0.000
237.62	-0.000
237.84	-0.000
238.05	-0.000
238.26	-0.000
238.48	-0.000
238.69	-0.000
238.91	-0.000
239.12	-0.000
239.33	-0.000
239.55	-0.000
239.76	-0.000
239.97	-0.000
240.19	-0.000
240.40	-0.000
240.61	-0.000
240.83	-0.000
241.04	-0.000
241.25	-0.000
241.47	-0.000
241.68	-0.000
241.89	-0.000
242.11	-0.000
242.32	-0.000
242.53	-0.000
242.75	-0.000
242.96	-0.000
243.17	-0.000
243.39	-0.000
243.60	-0.000
243.81	-0.000
244.03	-0.000
244.24	-0.000
244.45	-0.000
244.67	-0.000
244.88	-0.000
245.09	-0.000
245.31	-0.000
245.52	-0.000
245.73	-0.000
245.95	-0.000
246.16	-0.000
246.37	-0.000
246.59	-0.000
246.80	-0.000
247.01	-0.000
247.23	-0.000
247.44	-0.000
247.65	-0.000
247.87	-0.000
248.08	-0.000
248.29	-0.000
248.51	-0.000
248.72	-0.000
248.93	-0.000
249.15	-0.000
249.36	-0.000
249.57	-0.000
249.78	-0.000
250.00	-0.000
250.21	-0.000
250.42	-0.000
250.64	-0.000
250.85	-0.000
251.06	-0.000
251.28	-0.000
251.49	-0.000
251.70	-0.000
251.92	-0.000
252.13	-0.000
252.34	-0.000
252.55	-0.000
252.77	-0.000
252.98	-0.000
253.19	-0.000
253.41	-0.000
253.62	-0.000
253.83	-0.000
254.05	-0.000
254.26	-0.000
254.47	-0.000
254.68	-0.000
254.90	-0.000
255.11	-0.000
255.32	-0.000
255.54	-0.000
255.75	-0.000
255.96	-0.000
256.17	-0.000
256.39	-0.000
256.60	-0.000
256.81	-0.000
257.03	-0.000
257.24	-0.000
257.45	-0.000
257.66	-0.000
257.88	-0.000
258.09	-0.000
258.30	-0.000
258.51	-0.000
258.73	-0.000
258.94	-0.000
259.15	-0.000
259.37	-0.000
259.58	-0.000
259.79	-0.000
260.00	-0.000
260.22	-0.000
260.43	-0.000
260.64	-0.000
260.85	-0.000
261.07	-0.000
261.28	-0.000
261.49	-0.000
261.71	-0.000
261.92	-0.000
262.13	-0.000
262.34	-0.000
262.56	-0.000
262.77	-0.000
262.98	-0.000
263.19	-0.000
263.41	-0.000
263.62	-0.000
263.83	-0.000
264.04	-0.000
264.26	-0.000
264.47	-0.000
264.68	-0.000
264.89	-0.000
265.11	-0.000
265.32	-0.000
265.53	-0.000
265.74	-0.000
265.96	-0.000
266.17	-0.000
266.38	-0.000
266.59	-0.000
266.81	-0.000
267.02	-0.000
267.23	-0.000
267.44	-0.000
267.65	-0.000
267.87	-0.000
268.08	-0.000
268.29	-0.000
268.50	-0.000
268.72	-0.000
268.93	-0.000
269.14	-0.000
269.35	-0.000
269.57	-0.000
269.78	-0.000
269.99	-0.000
270.20	-0.000
270.41	-0.000
270.63	-0.000
270.84	-0.000
271.05	-0.000
271.26	-0.000
271.48	-0.000
271.69	-0.000
271.90	-0.000
272.11	-0.000
272.32	-0.000
272.54	-0.000
272.75	-0.000
272.96	-0.000
273.17	-0.000
273.39	-0.000
273.60	-0.000
273.81	-0.000
274.02	-0.000
274.23	-0.000
274.45	-0.000
274.66	-0.000
274.87	-0.000
275.08	-0.000
275.29	-0.000
275.51	-0.000
275.72	-0.000
275.93	-0.000
276.14	-0.000
276.35	-0.000
276.57	-0.000
276.78	-0.000
276.99	-0.000
277.20	-0.000
277.41	-0.000
277.63	-0.000
277.84	-0.000
278.05	-0.000
278.26	-0.000
278.47	-0.000
278.69	-0.000
278.90	-0.000
279.11	-0.000
279.32	-0.000
279.53	-0.000
279.74	-0.000
279.96	-0.000
280.17	-0.000
280.38	-0.000
280.59	-0.000
280.80	-0.000
281.02	-0.000
281.23	-0.000
281.44	-0.000
281.65	-0.000
281.86	-0.000
282.07	-0.000
282.29	-0.000
282.50	-0.000
282.71	-0.000
282.92	-0.000
283.13	-0.000
283.35	-0.000
283.56	-0.000
283.77	-0.000
283.98	-0.000
284.19	-0.000
284.40	-0.000
284.62	-0.000
284.83	-0.000
285.04	-0.000
285.25	-0.000
285.46	-0.000
285.67	-0.000
285.88	-0.000
286.10	-0.000
286.31	-0.000
286.52	-0.000
286.73	-0.000
286.94	-0.000
287.15	-0.000
287.37	-0.000
287.58	-0.000
287.79	-0.000
288.00	-0.000
288.21	-0.000
288.42	-0.000
288.63	-0.000
288.85	-0.000
289.06	-0.000
289.27	-0.000
289.48	-0.000
289.69	-0.000
289.90	-0.000
290.11	-0.000
290.33	-0.000
290.54	-0.000
290.75	-0.000
290.96	-0.000
291.17	-0.000
291.38	-0.000
291.59	-0.000
291.81	2.696
292.02	2.442
292.23	2.226
292.44	1.829
292.65	1.689
292.86	1.845
293.07	1.789
293.28	1.600
293.50	1.655
293.71	1.768
293.92	1.695
294.13	1.742
294.34	1.766
294.55	1.852
294.76	1.793
294.97	1.637
295.19	1.712
295.40	1.925
295.61	1.841
295.82	1.592
296.03	1.524
296.24	1.580
296.45	1.427
296.66	1.311
296.87	1.317
297.09	1.356
297.30	1.411
297.51	1.285
297.72	1.266
297.93	1.311
298.14	1.295
298.35	1.270
298.56	1.250
298.77	1.309
298.99	1.295
299.20	1.277
299.41	1.265
299.62	1.254
299.83	1.247
300.04	1.216
300.25	1.206
300.46	1.232
300.67	1.217
300.88	1.189
301.10	1.188
301.31	1.228
301.52	1.198
301.73	1.165
301.94	1.167
302.15	1.182
302.36	1.156
302.57	1.123
302.78	1.129
302.99	1.155
303.20	1.164
303.41	1.112
303.63	1.099
303.84	1.106
304.05	1.105
304.26	1.067
304.47	1.073
304.68	1.081
304.89	1.073
305.10	1.041
305.31	1.035
305.52	1.060
305.73	1.056
305.94	1.031
306.15	1.028
306.37	1.045
306.58	1.051
306.79	1.026
307.00	1.037
307.21	1.061
307.42	1.058
307.63	1.034
307.84	1.014
308.05	1.038
308.26	1.039
308.47	1.021
308.68	1.018
308.89	1.023
309.10	1.021
309.31	0.994
309.52	0.992
309.73	1.003
309.95	0.998
310.16	0.978
310.37	0.972
310.58	0.985
310.79	0.985
311.00	0.979
311.21	0.980
311.42	0.983
311.63	0.980
311.84	0.966
312.05	0.964
312.26	0.982
312.47	0.991
312.68	0.972
312.89	0.961
313.10	0.968
313.31	0.951
313.52	0.946
313.73	0.948
313.94	0.951
314.15	0.938
314.36	0.922
314.57	0.917
314.78	0.910
314.99	0.906
315.21	0.894
315.42	0.896
315.63	0.907
315.84	0.893
316.05	0.880
316.26	0.886
316.47	0.900
316.68	0.897
316.89	0.883
317.10	0.896
317.31	0.902
317.52	0.903
317.73	0.887
317.94	0.887
318.15	0.925
318.36	0.925
318.57	0.909
318.78	0.901
318.99	0.927
319.20	0.925
319.41	0.899
319.62	0.900
319.83	0.910
320.04	0.908
320.25	0.895
320.46	0.867
320.67	0.871
320.88	0.868
321.09	0.857
321.30	0.847
321.51	0.859
321.72	0.858
321.93	0.846
322.14	0.842
322.35	0.864
322.56	0.866
322.77	0.854
322.98	0.862
323.19	0.870
323.40	0.876
323.61	0.859
323.82	0.856
324.03	0.861
324.24	0.857
324.45	0.846
324.66	0.832
324.87	0.831
325.08	0.831
325.29	0.814
325.50	0.812
325.71	0.818
325.92	0.823
326.13	0.812
326.34	0.813
326.55	0.822
326.76	0.820
326.97	0.809
327.18	0.804
327.39	0.826
327.60	0.827
327.80	0.823
328.01	0.821
328.22	0.821
328.43	0.824
328.64	0.813
328.85	0.816
329.06	0.819
329.27	0.819
329.48	0.815
329.69	0.801
329.90	0.810
330.11	0.804
330.32	0.797
330.53	0.793
330.74	0.795
330.95	0.794
331.16	0.783
331.37	0.789
331.58	0.789
331.79	0.788
332.00	0.779
332.21	0.774
332.42	0.779
332.63	0.773
332.83	0.767
333.04	0.767
333.25	0.779
333.46	0.777
333.67	0.765
333.88	0.769
334.09	0.777
334.30	0.775
334.51	0.768
334.72	0.765
334.93	0.767
335.14	0.767
335.35	0.761
335.56	0.756
335.77	0.765
335.98	0.764
336.18	0.757
336.39	0.752
336.60	0.756
336.81	0.755
337.02	0.752
337.23	0.756
337.44	0.760
337.65	0.762
337.86	0.753
338.07	0.749
338.28	0.754
338.49	0.752
338.70	0.745
338.91	0.752
339.11	0.758
339.32	0.755
339.53	0.744
339.74	0.742
339.95	0.741
340.16	0.740
340.37	0.733
340.58	0.732
340.79	0.737
341.00	0.737
341.21	0.726
341.41	0.727
341.62	0.730
341.83	0.731
342.04	0.726
342.25	0.734
342.46	0.739
342.67	0.737
342.88	0.730
343.09	0.730
343.30	0.737
343.50	0.741
343.71	0.732
343.92	0.731
344.13	0.736
344.34	0.737
344.55	0.724
344.76	0.723
344.97	0.728
345.18	0.727
345.38	0.723
345.59	0.718
345.80	0.719
346.01	0.717
346.22	0.713
346.43	0.708
346.64	0.716
346.85	0.715
347.06	0.708
347.26	0.708
347.47	0.713
347.68	0.709
347.89	0.705
348.10	0.701
348.31	0.708
348.52	0.707
348.73	0.704
348.93	0.700
349.14	0.703
349.35	0.704
349.56	0.697
349.77	0.693
349.98	0.699
350.19	0.697
350.39	0.692
350.60	0.689
350.81	0.703
351.02	0.702
351.23	0.698
351.44	0.702
351.65	0.706
351.86	0.704
352.06	0.703
352.27	0.703
352.48	0.705
352.69	0.705
352.90	0.700
353.11	0.689
353.31	0.695
353.52	0.692
353.73	0.684
353.94	0.684
354.15	0.691
354.36	0.690
354.57	0.683
354.77	0.684
354.98	0.685
355.19	0.685
355.40	0.684
355.61	0.690
355.82	0.695
356.02	0.694
356.23	0.688
356.44	0.689
356.65	0.693
356.86	0.694
357.07	0.688
357.27	0.691
357.48	0.695
357.69	0.691
357.90	0.678
358.11	0.676
358.32	0.680
358.52	0.682
358.73	0.673
358.94	0.675
359.15	0.679
359.36	0.680
359.56	0.675
359.77	0.672
359.98	0.680
360.19	0.679
360.40	0.675
360.61	0.675
360.81	0.676
361.02	0.677
361.23	0.668
361.44	0.668
361.65	0.671
361.85	0.670
362.06	0.668
362.27	0.668
362.48	0.670
362.69	0.672
362.89	0.667
363.10	0.668
363.31	0.672
363.52	0.675
363.73	0.671
363.93	0.671
364.14	0.675
364.35	0.677
364.56	0.667
364.77	0.669
364.97	0.671
365.18	0.673
365.39	0.668
365.60	0.665
365.81	0.666
366.01	0.666
366.22	0.662
366.43	0.662
366.64	0.665
366.84	0.670
367.05	0.666
367.26	0.665
367.47	0.667
367.68	0.667
367.88	0.664
368.09	0.663
368.30	0.666
368.51	0.666
368.71	0.664
368.92	0.667
369.13	0.666
369.34	0.666
369.55	0.665
369.75	0.665
369.96	0.672
370.17	0.671
370.38	0.667
370.58	0.667
370.79	0.672
371.00	0.670
371.21	0.663
371.41	0.667
371.62	0.672
371.83	0.668
372.04	0.665
372.24	0.659
372.45	0.661
372.66	0.662
372.87	0.658
373.07	0.656
373.28	0.659
373.49	0.661
373.70	0.653
373.90	0.651
374.11	0.660
374.32	0.660
374.53	0.658
374.73	0.659
374.94	0.662
375.15	0.661
375.36	0.658
375.56	0.665
375.77	0.666
375.98	0.667
376.19	0.664
376.39	0.658
376.60	0.663
376.81	0.664
377.02	0.660
377.22	0.659
377.43	0.660
377.64	0.660
377.84	0.651
378.05	0.655
378.26	0.661
378.47	0.660
378.67	0.657
378.88	0.654
379.09	0.655
379.30	0.655
379.50	0.653
379.71	0.656
379.92	0.659
380.12	0.658
380.33	0.650
380.54	0.647
380.75	0.654
380.95	0.654
381.16	0.651
381.37	0.652
381.57	0.654
381.78	0.654
381.99	0.653
382.20	0.652
382.40	0.655
382.61	0.656
382.82	0.652
383.02	0.646
383.23	0.649
383.44	0.649
383.64	0.647
383.85	0.649
384.06	0.652
384.27	0.649
384.47	0.647
384.68	0.648
384.89	0.653
385.09	0.652
385.30	0.651
385.51	0.650
385.71	0.653
385.92	0.653
386.13	0.651
386.33	0.653
386.54	0.655
386.75	0.653
386.95	0.649
387.16	0.645
387.37	0.648
387.58	0.648
387.78	0.645
387.99	0.643
388.20	0.647
388.40	0.644
388.61	0.640
388.82	0.642
389.02	0.645
389.23	0.645
389.44	0.642
389.64	0.642
389.85	0.652
390.06	0.652
390.26	0.652
390.47	0.650
390.68	0.652
390.88	0.650
391.09	0.647
391.30	0.646
391.50	0.646
391.71	0.646
391.92	0.644
392.12	0.637
392.33	0.639
392.53	0.637
392.74	0.637
392.95	0.636
393.15	0.639
393.36	0.641
393.57	0.638
393.77	0.642
393.98	0.643
394.19	0.643
394.39	0.640
394.60	0.642
394.81	0.644
395.01	0.642
395.22	0.641
395.43	0.641
395.63	0.645
395.84	0.646
396.04	0.641
396.25	0.643
396.46	0.645
396.66	0.644
396.87	0.642
397.08	0.638
397.28	0.640
397.49	0.641
397.69	0.637
397.90	0.633
398.11	0.634
398.31	0.634
398.52	0.630
398.73	0.631
398.93	0.630
399.14	0.629
399.34	0.628
399.55	0.629
399.76	0.628
399.96	0.629
400.17	0.627
400.37	0.625
400.58	0.632
400.79	0.633
400.99	0.630
401.20	0.636
401.41	0.638
401.61	0.639
401.82	0.643
402.02	0.643
402.23	0.643
402.44	0.643
402.64	0.643
402.85	0.637
403.05	0.636
403.26	0.635
403.47	0.629
403.67	0.627
403.88	0.629
404.08	0.623
404.29	0.621
404.50	0.621
404.70	0.622
404.91	0.620
405.11	0.617
405.32	0.617
405.52	0.619
405.73	0.618
405.94	0.616
406.14	0.618
406.35	0.621
406.55	0.621
406.76	0.618
406.97	0.619
407.17	0.622
407.38	0.622
407.58	0.619
407.79	0.622
407.99	0.624
408.20	0.624
408.41	0.620
408.61	0.619
408.82	0.620
409.02	0.620
409.23	0.617
409.43	0.617
409.64	0.619
409.84	0.618
410.05	0.615
410.26	0.614
410.46	0.614
410.67	0.613
410.87	0.613
411.08	0.615
411.28	0.617
411.49	0.619
411.69	0.616
411.90	0.617
412.11	0.619
412.31	0.620
412.52	0.618
412.72	0.619
412.93	0.621
413.13	0.620
413.34	0.616
413.54	0.617
413.75	0.617
413.95	0.617
414.16	0.614
414.37	0.616
414.57	0.616
414.78	0.618
414.98	0.616
415.19	0.617
415.39	0.616
415.60	0.618
415.80	0.618
416.01	0.617
416.21	0.619
416.42	0.619
416.62	0.614
416.83	0.616
417.03	0.616
417.24	0.616
417.44	0.614
417.65	0.613
417.86	0.613
418.06	0.611
418.27	0.608
418.47	0.609
418.68	0.610
418.88	0.611
419.09	0.609
419.29	0.610
419.50	0.611
419.70	0.610
419.91	0.609
420.11	0.608
420.32	0.610
420.52	0.610
420.73	0.609
420.93	0.610
421.14	0.612
421.34	0.610
421.55	0.607
421.75	0.607
421.96	0.608
422.16	0.609
422.37	0.607
422.57	0.605
422.78	0.607
422.98	0.605
423.19	0.602
423.39	0.601
423.60	0.605
423.80	0.606
424.01	0.605
424.21	0.607
424.42	0.608
424.62	0.608
424.83	0.607
425.03	0.607
425.23	0.609
425.44	0.610
425.64	0.610
425.85	0.609
426.05	0.611
426.26	0.611
426.46	0.608
426.67	0.607
426.87	0.612
427.08	0.613
427.28	0.610
427.49	0.611
427.69	0.612
427.90	0.611
428.10	0.608
428.31	0.608
428.51	0.609
428.71	0.609
428.92	0.610
429.12	0.607
429.33	0.608
429.53	0.612
429.74	0.615
429.94	0.616
430.15	0.616
430.35	0.616
430.56	0.613
430.76	0.614
430.96	0.615
431.17	0.612
431.37	0.609
431.58	0.608
431.78	0.606
431.99	0.600
432.19	0.601
432.40	0.603
432.60	0.604
432.80	0.606
433.01	0.604
433.21	0.604
433.42	0.606
433.62	0.606
433.83	0.605
434.03	0.608
434.23	0.611
434.44	0.610
434.64	0.608
434.85	0.612
435.05	0.613
435.26	0.614
435.46	0.612
435.66	0.612
435.87	0.612
436.07	0.613
436.28	0.608
436.48	0.605
436.69	0.606
436.89	0.606
437.09	0.600
437.30	0.599
437.50	0.600
437.71	0.611
437.91	0.609
438.11	0.611
438.32	0.615
438.52	0.616
438.73	0.615
438.93	0.614
439.13	0.615
439.34	0.618
439.54	0.616
439.75	0.616
439.95	0.608
440.15	0.612
440.36	0.611
440.56	0.609
440.77	0.610
440.97	0.610
441.17	0.609
441.38	0.610
441.58	0.608
441.79	0.608
441.99	0.606
442.19	0.605
442.40	0.604
442.60	0.604
442.81	0.601
443.01	0.601
443.21	0.602
443.42	0.602
443.62	0.600
443.82	0.600
444.03	0.602
444.23	0.602
444.44	0.602
444.64	0.601
444.84	0.602
445.05	0.602
445.25	0.600
445.45	0.600
445.66	0.603
445.86	0.603
446.06	0.604
446.27	0.604
446.47	0.607
446.68	0.606
446.88	0.605
447.08	0.604
447.29	0.606
447.49	0.606
447.69	0.606
447.90	0.605
448.10	0.608
448.30	0.606
448.51	0.607
448.71	0.604
448.91	0.607
449.12	0.606
449.32	0.607
449.52	0.607
449.73	0.611
449.93	0.610
450.14	0.610
450.34	0.609
450.54	0.612
450.75	0.609
450.95	0.608
451.15	0.608
451.36	0.610
451.56	0.608
451.76	0.607
451.97	0.605
452.17	0.605
452.37	0.604
452.58	0.600
452.78	0.600
452.98	0.602
453.19	0.602
453.39	0.602
453.59	0.602
453.79	0.603
454.00	0.604
454.20	0.602
454.40	0.603
454.61	0.605
454.81	0.606
455.01	0.605
455.22	0.605
455.42	0.608
455.62	0.605
455.83	0.605
456.03	0.608
456.23	0.609
456.44	0.610
456.64	0.609
456.84	0.609
457.04	0.610
457.25	0.609
457.45	0.606
457.65	0.605
457.86	0.607
458.06	0.605
458.26	0.601
458.47	0.600
458.67	0.602
458.87	0.602
459.07	0.600
459.28	0.603
459.48	0.605
459.68	0.605
459.89	0.603
460.09	0.602
460.29	0.604
460.49	0.606
460.70	0.604
460.90	0.604
461.10	0.605
461.31	0.604
461.51	0.601
461.71	0.602
461.91	0.604
462.12	0.604
462.32	0.603
462.52	0.604
462.72	0.606
462.93	0.607
463.13	0.605
463.33	0.606
463.53	0.608
463.74	0.607
463.94	0.604
464.14	0.604
464.35	0.605
464.55	0.606
464.75	0.603
464.95	0.601
465.16	0.604
465.36	0.603
465.56	0.601
465.76	0.600
465.97	0.601
466.17	0.602
466.37	0.599
466.57	0.600
466.78	0.602
466.98	0.603
467.18	0.601
467.38	0.599
467.59	0.602
467.79	0.603
467.99	0.602
468.19	0.603
468.39	0.607
468.60	0.608
468.80	0.606
469.00	0.607
469.20	0.608
469.41	0.608
469.61	0.607
469.81	0.607
470.01	0.607
470.22	0.607
470.42	0.604
470.62	0.602
470.82	0.603
471.02	0.602
471.23	0.599
471.43	0.600
471.63	0.603
471.83	0.601
472.04	0.600
472.24	0.599
472.44	0.603
472.64	0.604
472.84	0.602
473.05	0.602
473.25	0.605
473.45	0.605
473.65	0.603
473.85	0.604
474.06	0.606
474.26	0.606
474.46	0.607
474.66	0.604
474.86	0.605
475.07	0.605
475.27	0.603
475.47	0.601
475.67	0.603
475.87	0.605
476.08	0.602
476.28	0.602
476.48	0.604
476.68	0.602
476.88	0.600
477.09	0.601
477.29	0.603
477.49	0.603
477.69	0.601
477.89	0.601
478.09	0.600
478.30	0.602
478.50	0.599
478.70	0.599
478.90	0.599
479.10	0.602
479.31	0.603
479.51	0.601
479.71	0.602
479.91	0.602
480.11	0.601
480.31	0.602
480.52	0.601
480.72	0.601
480.92	0.600
481.12	0.599
481.32	0.597
481.52	0.595
481.72	0.595
481.93	0.599
482.13	0.600
482.33	0.600
482.53	0.597
482.73	0.598
482.93	0.599
483.14	0.599
483.34	0.598
483.54	0.599
483.74	0.598
483.94	0.597
484.14	0.593
484.34	0.592
484.55	0.593
484.75	0.594
484.95	0.592
485.15	0.592
485.35	0.593
485.55	0.592
485.75	0.590
485.96	0.591
486.16	0.592
486.36	0.592
486.56	0.590
486.76	0.591
486.96	0.591
487.16	0.591
487.36	0.589
487.57	0.589
487.77	0.590
487.97	0.591
488.17	0.589
488.37	0.588
488.57	0.589
488.77	0.589
488.97	0.588
489.18	0.587
489.38	0.590
489.58	0.590
489.78	0.589
489.98	0.588
490.18	0.588
490.38	0.589
490.58	0.588
490.78	0.588
490.98	0.590
491.19	0.590
491.39	0.589
491.59	0.588
491.79	0.591
491.99	0.592
492.19	0.591
492.39	0.595
492.59	0.595
492.79	0.597
492.99	0.596
493.20	0.597
493.40	0.597
493.60	0.598
493.80	0.596
494.00	0.594
494.20	0.595
494.40	0.595
494.60	0.592
494.80	0.596
495.00	0.595
495.20	0.594
495.40	0.592
495.61	0.594
495.81	0.595
496.01	0.598
496.21	0.599
496.41	0.598
496.61	0.599
496.81	0.598
497.01	0.594
497.21	0.593
497.41	0.594
497.61	0.594
497.81	0.591
498.01	0.592
498.21	0.590
498.41	0.588
498.61	0.588
498.82	0.589
499.02	0.592
499.22	0.592
499.42	0.591
499.62	0.592
499.82	0.593
500.02	0.594
500.22	0.593
500.42	0.595
500.62	0.596
500.82	0.596
501.02	0.595
501.22	0.595
501.42	0.595
501.62	0.597
501.82	0.596
502.02	0.596
502.22	0.596
502.42	0.598
502.62	0.595
502.82	0.595
503.02	0.596
503.22	0.596
503.42	0.593
503.63	0.593
503.83	0.592
504.03	0.591
504.23	0.589
504.43	0.590
504.63	0.591
504.83	0.591
505.03	0.589
505.23	0.591
505.43	0.593
505.63	0.594
505.83	0.593
506.03	0.595
506.23	0.597
506.43	0.598
506.63	0.597
506.83	0.595
507.03	0.598
507.23	0.598
507.43	0.595
507.63	0.596
507.83	0.597
508.03	0.597
508.23	0.596
508.43	0.594
508.63	0.596
508.83	0.596
509.03	0.597
509.23	0.596
509.43	0.597
509.63	0.598
509.83	0.596
510.03	0.598
510.23	0.600
510.43	0.600
510.63	0.600
510.83	0.600
511.03	0.602
511.23	0.599
511.43	0.599
511.63	0.600
511.83	0.603
512.03	0.603
512.22	0.600
512.42	0.600
512.62	0.601
512.82	0.601
513.02	0.600
513.22	0.599
513.42	0.602
513.62	0.605
513.82	0.603
514.02	0.602
514.22	0.604
514.42	0.604
514.62	0.603
514.82	0.604
515.02	0.606
515.22	0.608
515.42	0.607
515.62	0.609
515.82	0.608
516.02	0.609
516.22	0.609
516.42	0.610
516.62	0.612
516.82	0.613
517.01	0.611
517.21	0.611
517.41	0.615
517.61	0.616
517.81	0.612
518.01	0.611
518.21	0.611
518.41	0.610
518.61	0.609
518.81	0.609
519.01	0.610
519.21	0.610
519.41	0.609
519.61	0.603
519.81	0.606
520.00	0.606
520.20	0.607
520.40	0.609
520.60	0.611
520.80	0.610
521.00	0.611
521.20	0.612
521.40	0.617
521.60	0.617
521.80	0.616
522.00	0.616
522.20	0.619
522.39	0.618
522.59	0.615
522.79	0.617
522.99	0.620
523.19	0.618
523.39	0.615
523.59	0.613
523.79	0.617
523.99	0.619
524.19	0.618
524.38	0.617
524.58	0.619
524.78	0.620
524.98	0.617
525.18	0.619
525.38	0.621
525.58	0.622
525.78	0.619
525.98	0.617
526.18	0.618
526.37	0.617
526.57	0.618
526.77	0.618
526.97	0.619
527.17	0.619
527.37	0.615
527.57	0.617
527.77	0.619
527.96	0.620
528.16	0.618
528.36	0.618
528.56	0.621
528.76	0.619
528.96	0.617
529.16	0.619
529.36	0.623
529.55	0.622
529.75	0.619
529.95	0.619
530.15	0.621
530.35	0.623
530.55	0.620
530.75	0.621
530.94	0.623
531.14	0.623
531.34	0.620
531.54	0.618
531.74	0.622
531.94	0.625
532.13	0.622
532.33	0.624
532.53	0.623
532.73	0.623
532.93	0.621
533.13	0.622
533.33	0.622
533.52	0.624
533.72	0.626
533.92	0.624
534.12	0.623
534.32	0.624
534.52	0.622
534.71	0.624
534.91	0.627
535.11	0.629
535.31	0.627
535.51	0.629
535.71	0.631
535.90	0.628
536.10	0.629
536.30	0.630
536.50	0.631
536.70	0.631
536.89	0.629
537.09	0.629
537.29	0.631
537.49	0.631
537.69	0.629
537.89	0.629
538.08	0.629
538.28	0.628
538.48	0.628
538.68	0.630
538.88	0.632
539.07	0.632
539.27	0.630
539.47	0.629
539.67	0.630
539.87	0.631
540.06	0.629
540.26	0.630
540.46	0.633
540.66	0.630
540.86	0.627
541.05	0.627
541.25	0.629
541.45	0.629
541.65	0.627
541.84	0.628
542.04	0.629
542.24	0.630
542.44	0.629
542.64	0.629
542.83	0.633
543.03	0.634
543.23	0.630
543.43	0.632
543.62	0.633
543.82	0.634
544.02	0.632
544.22	0.632
544.42	0.635
544.61	0.635
544.81	0.633
545.01	0.632
545.21	0.634
545.40	0.635
545.60	0.632
545.80	0.636
546.00	0.637
546.19	0.636
546.39	0.635
546.59	0.633
546.79	0.635
546.98	0.635
547.18	0.634
547.38	0.634
547.58	0.637
547.77	0.638
547.97	0.634
548.17	0.636
548.37	0.636
548.56	0.636
548.76	0.635
548.96	0.637
549.16	0.640
549.35	0.640
549.55	0.638
549.75	0.638
549.95	0.642
550.14	0.643
550.34	0.640
550.54	0.645
550.73	0.649
550.93	0.649
551.13	0.645
551.33	0.643
551.52	0.644
551.72	0.644
551.92	0.642
552.12	0.642
552.31	0.643
552.51	0.644
552.71	0.638
552.90	0.639
553.10	0.641
553.30	0.642
553.50	0.641
553.69	0.642
553.89	0.644
554.09	0.644
554.28	0.641
554.48	0.642
554.68	0.644
554.87	0.645
555.07	0.641
555.27	0.641
555.47	0.643
555.66	0.644
555.86	0.641
556.06	0.643
556.25	0.645
556.45	0.653
556.65	0.651
556.84	0.653
557.04	0.657
557.24	0.658
557.43	0.657
557.63	0.660
557.83	0.662
558.02	0.662
558.22	0.665
558.42	0.666
558.61	0.659
558.81	0.660
559.01	0.655
559.21	0.655
559.40	0.657
559.60	0.657
559.80	0.653
559.99	0.654
560.19	0.657
560.39	0.651
560.58	0.648
560.78	0.649
560.97	0.653
561.17	0.651
561.37	0.648
561.56	0.649
561.76	0.651
561.96	0.650
562.15	0.647
562.35	0.650
562.55	0.652
562.74	0.652
562.94	0.651
563.14	0.649
563.33	0.650
563.53	0.650
563.73	0.647
563.92	0.649
564.12	0.653
564.31	0.655
564.51	0.652
564.71	0.654
564.90	0.657
565.10	0.658
565.30	0.661
565.49	0.662
565.69	0.665
565.89	0.665
566.08	0.661
566.28	0.662
566.47	0.664
566.67	0.663
566.87	0.659
567.06	0.660
567.26	0.666
567.46	0.661
567.65	0.659
567.85	0.660
568.04	0.663
568.24	0.663
568.44	0.659
568.63	0.657
568.83	0.659
569.02	0.658
569.22	0.653
569.42	0.649
569.61	0.652
569.81	0.651
570.00	0.649
570.20	0.650
570.40	0.652
570.59	0.652
570.79	0.649
570.98	0.648
571.18	0.650
571.38	0.649
571.57	0.646
571.77	0.643
571.96	0.648
572.16	0.646
572.35	0.640
572.55	0.641
572.75	0.640
572.94	0.640
573.14	0.638
573.33	0.638
573.53	0.640
573.73	0.640
573.92	0.637
574.12	0.636
574.31	0.638
574.51	0.639
574.70	0.636
574.90	0.637
575.09	0.640
575.29	0.640
575.49	0.638
575.68	0.638
575.88	0.640
576.07	0.641
576.27	0.639
576.46	0.638
576.66	0.638
576.86	0.637
577.05	0.635
577.25	0.633
577.44	0.635
577.64	0.634
577.83	0.632
578.03	0.632
578.22	0.632
578.42	0.631
578.61	0.629
578.81	0.630
579.00	0.631
579.20	0.631
579.40	0.630
579.59	0.629
579.79	0.630
579.98	0.629
580.18	0.629
580.37	0.629
580.57	0.632
580.76	0.637
580.96	0.635
581.15	0.635
581.35	0.637
581.54	0.637
581.74	0.636
581.93	0.637
582.13	0.639
582.32	0.636
582.52	0.635
582.71	0.634
582.91	0.631
583.10	0.631
583.30	0.630
583.49	0.629
583.69	0.633
583.88	0.635
584.08	0.633
584.27	0.635
584.47	0.639
584.66	0.639
584.86	0.637
585.05	0.639
585.25	0.641
585.44	0.641
585.64	0.638
585.83	0.636
586.03	0.637
586.22	0.636
586.42	0.632
586.61	0.634
586.81	0.637
587.00	0.638
587.20	0.635
587.39	0.636
587.59	0.639
587.78	0.641
587.98	0.641
588.17	0.641
588.37	0.644
588.56	0.646
588.76	0.641
588.95	0.641
589.15	0.645
589.34	0.647
589.54	0.644
589.73	0.645
589.92	0.648
590.12	0.647
590.31	0.644
590.51	0.649
590.70	0.651
590.90	0.651
591.09	0.648
591.29	0.647
591.48	0.647
591.68	0.648
591.87	0.646
592.06	0.646
592.26	0.649
592.45	0.648
592.65	0.642
592.84	0.642
593.04	0.645
593.23	0.648
593.43	0.645
593.62	0.645
593.81	0.647
594.01	0.647
594.20	0.644
594.40	0.644
594.59	0.647
594.79	0.648
594.98	0.645
595.17	0.645
595.37	0.646
595.56	0.647
595.76	0.646
595.95	0.646
596.14	0.649
596.34	0.650
596.53	0.647
596.73	0.648
596.92	0.649
597.12	0.652
597.31	0.650
597.50	0.649
597.70	0.652
597.89	0.651
598.09	0.647
598.28	0.648
598.47	0.651
598.67	0.649
598.86	0.646
599.06	0.647
599.25	0.648
599.44	0.647
599.64	0.645
599.83	0.643
600.03	0.647
600.22	0.649
600.41	0.649
600.61	0.647
600.80	0.650
601.00	0.651
601.19	0.647
601.38	0.646
601.58	0.649
601.77	0.650
601.96	0.651
602.16	0.651
602.35	0.660
602.55	0.657
602.74	0.657
602.93	0.658
603.13	0.663
603.32	0.664
603.51	0.662
603.71	0.665
603.90	0.667
604.09	0.667
604.29	0.663
604.48	0.658
604.68	0.659
604.87	0.658
605.06	0.654
605.26	0.651
605.45	0.652
605.64	0.651
605.84	0.646
606.03	0.646
606.22	0.645
606.42	0.646
606.61	0.641
606.80	0.642
607.00	0.645
607.19	0.645
607.38	0.643
607.58	0.645
607.77	0.648
607.96	0.648
608.16	0.646
608.35	0.651
608.54	0.655
608.74	0.658
608.93	0.662
609.12	0.665
609.32	0.669
609.51	0.672
609.70	0.671
609.90	0.673
610.09	0.678
610.28	0.684
610.48	0.676
610.67	0.677
610.86	0.678
611.06	0.672
611.25	0.669
611.44	0.669
611.64	0.669
611.83	0.671
612.02	0.667
612.21	0.665
612.41	0.664
612.60	0.664
612.79	0.659
612.99	0.660
613.18	0.662
613.37	0.660
613.57	0.658
613.76	0.660
613.95	0.658
614.14	0.659
614.34	0.656
614.53	0.657
614.72	0.661
614.92	0.661
615.11	0.658
615.30	0.656
615.49	0.658
615.69	0.661
615.88	0.657
616.07	0.658
616.26	0.661
616.46	0.663
616.65	0.659
616.84	0.658
617.04	0.660
617.23	0.663
617.42	0.663
617.61	0.668
617.81	0.669
618.00	0.671
618.19	0.669
618.38	0.671
618.58	0.675
618.77	0.676
618.96	0.674
619.15	0.676
619.35	0.678
619.54	0.678
619.73	0.672
619.92	0.674
620.12	0.678
620.31	0.678
620.50	0.673
620.69	0.673
620.89	0.678
621.08	0.678
621.27	0.677
621.46	0.676
621.66	0.681
621.85	0.680
622.04	0.676
622.23	0.675
622.43	0.677
622.62	0.677
622.81	0.675
623.00	0.674
623.19	0.679
623.39	0.678
623.58	0.675
623.77	0.674
623.96	0.678
624.16	0.678
624.35	0.674
624.54	0.677
624.73	0.683
624.92	0.681
625.12	0.679
625.31	0.679
625.50	0.683
625.69	0.684
625.88	0.679
626.08	0.679
626.27	0.681
626.46	0.682
626.65	0.679
626.84	0.678
627.04	0.684
627.23	0.683
627.42	0.678
627.61	0.680
627.80	0.684
628.00	0.684
628.19	0.682
628.38	0.686
628.57	0.689
628.76	0.688
628.96	0.684
629.15	0.686
629.34	0.689
629.53	0.689
629.72	0.683
629.91	0.683
630.11	0.689
630.30	0.689
630.49	0.691
630.68	0.692
630.87	0.697
631.06	0.700
631.26	0.693
631.45	0.695
631.64	0.705
631.83	0.707
632.02	0.704
632.21	0.703
632.41	0.713
632.60	0.706
632.79	0.704
632.98	0.704
633.17	0.706
633.36	0.709
633.55	0.703
633.75	0.700
633.94	0.704
634.13	0.704
634.32	0.700
634.51	0.693
634.70	0.697
634.89	0.697
635.09	0.692
635.28	0.693
635.47	0.695
635.66	0.699
635.85	0.693
636.04	0.694
636.23	0.699
636.43	0.700
636.62	0.698
636.81	0.697
637.00	0.700
637.19	0.704
637.38	0.699
637.57	0.699
637.76	0.702
637.95	0.704
638.15	0.700
638.34	0.697
638.53	0.702
638.72	0.704
638.91	0.701
639.10	0.698
639.29	0.699
639.48	0.700
639.67	0.699
639.87	0.697
640.06	0.702
640.25	0.702
640.44	0.701
640.63	0.701
640.82	0.704
641.01	0.704
641.20	0.703
641.39	0.705
641.58	0.708
641.78	0.707
641.97	0.701
642.16	0.716
642.35	0.718
642.54	0.717
642.73	0.710
642.92	0.709
643.11	0.713
643.30	0.713
643.49	0.707
643.68	0.710
643.87	0.713
644.06	0.713
644.25	0.693
644.45	0.695
644.64	0.698
644.83	0.698
645.02	0.693
645.21	0.693
645.40	0.696
645.59	0.696
645.78	0.689
645.97	0.691
646.16	0.694
646.35	0.693
646.54	0.689
646.73	0.690
646.92	0.693
647.11	0.693
647.30	0.687
647.49	0.689
647.68	0.690
647.88	0.688
648.07	0.680
648.26	0.682
648.45	0.685
648.64	0.682
648.83	0.678
649.02	0.681
649.21	0.692
649.40	0.691
649.59	0.685
649.78	0.686
649.97	0.701
650.16	0.700
650.35	0.694
650.54	0.697
650.73	0.706
650.92	0.702
651.11	0.695
651.30	0.693
651.49	0.698
651.68	0.699
651.87	0.695
652.06	0.684
652.25	0.688
652.44	0.688
652.63	0.680
652.82	0.677
653.01	0.677
653.20	0.674
653.39	0.661
653.58	0.657
653.77	0.656
653.96	0.652
654.15	0.644
654.34	0.642
654.53	0.639
654.72	0.636
654.91	0.627
655.10	0.625
655.29	0.624
655.48	0.622
655.67	0.617
655.86	0.616
656.05	0.615
656.24	0.615
656.43	0.610
656.62	0.609
656.81	0.611
657.00	0.611
657.19	0.609
657.38	0.610
657.57	0.611
657.76	0.614
657.95	0.613
658.14	0.616
658.33	0.620
658.51	0.627
658.70	0.628
658.89	0.628
659.08	0.636
659.27	0.642
659.46	0.640
659.65	0.646
659.84	0.650
660.03	0.653
660.22	0.654
660.41	0.657
660.60	0.657
660.79	0.659
660.98	0.665
661.17	0.663
661.36	0.664
661.55	0.665
661.74	0.660
661.92	0.664
662.11	0.667
662.30	0.664
662.49	0.657
662.68	0.656
662.87	0.660
663.06	0.654
663.25	0.655
663.44	0.655
663.63	0.658
663.82	0.657
664.01	0.650
664.20	0.649
664.38	0.651
664.57	0.652
664.76	0.651
664.95	0.651
665.14	0.657
665.33	0.651
665.52	0.656
665.71	0.660
665.90	0.660
666.09	0.661
666.28	0.658
666.46	0.657
666.65	0.659
666.84	0.657
667.03	0.651
667.22	0.648
667.41	0.652
667.60	0.643
667.79	0.636
667.98	0.637
668.16	0.640
668.35	0.639
668.54	0.634
668.73	0.635
668.92	0.636
669.11	0.634
669.30	0.628
669.49	0.623
669.67	0.625
669.86	0.627
670.05	0.623
670.24	0.620
670.43	0.619
670.62	0.618
670.81	0.612
671.00	0.614
671.18	0.614
671.37	0.614
671.56	0.612
671.75	0.612
671.94	0.609
672.13	0.607
672.32	0.601
672.50	0.601
672.69	0.603
672.88	0.604
673.07	0.599
673.26	0.601
673.45	0.602
673.63	0.603
673.82	0.599
674.01	0.601
674.20	0.600
674.39	0.600
674.58	0.598
674.76	0.598
674.95	0.597
675.14	0.597
675.33	0.592
675.52	0.591
675.71	0.590
675.89	0.589
676.08	0.584
676.27	0.584
676.46	0.586
676.65	0.585
676.84	0.583
677.02	0.585
677.21	0.588
677.40	0.587
677.59	0.584
677.78	0.585
677.96	0.588
678.15	0.588
678.34	0.586
678.53	0.586
678.72	0.587
678.90	0.584
679.09	0.578
679.28	0.574
679.47	0.576
679.66	0.576
679.84	0.571
680.03	0.569
680.22	0.568
680.41	0.569
680.60	0.565
680.78	0.565
680.97	0.568
681.16	0.569
681.35	0.568
681.53	0.566
681.72	0.568
681.91	0.570
682.10	0.568
682.29	0.571
682.47	0.568
682.66	0.568
682.85	0.566
683.04	0.564
683.22	0.564
683.41	0.566
683.60	0.565
683.79	0.565
683.97	0.565
684.16	0.564
684.35	0.559
684.54	0.561
684.72	0.562
684.91	0.563
685.10	0.560
685.29	0.561
685.47	0.559
685.66	0.557
685.85	0.553
686.04	0.553
686.22	0.556
686.41	0.559
686.60	0.556
686.79	0.559
686.97	0.560
687.16	0.562
687.35	0.559
687.54	0.563
687.72	0.568
687.91	0.568
688.10	0.568
688.29	0.567
688.47	0.566
688.66	0.565
688.85	0.561
689.03	0.558
689.22	0.563
689.41	0.563
689.60	0.558
689.78	0.555
689.97	0.557
690.16	0.554
690.34	0.550
690.53	0.550
690.72	0.551
690.91	0.549
691.09	0.547
691.28	0.540
691.47	0.539
691.65	0.538
691.84	0.535
692.03	0.533
692.21	0.532
692.40	0.532
692.59	0.529
692.77	0.529
692.96	0.531
693.15	0.532
693.34	0.529
693.52	0.529
693.71	0.530
693.90	0.532
694.08	0.532
694.27	0.533
694.46	0.543
694.64	0.543
694.83	0.541
695.02	0.540
695.20	0.540
695.39	0.540
695.58	0.539
695.76	0.540
695.95	0.540
696.14	0.539
696.32	0.536
696.51	0.527
696.70	0.528
696.88	0.530
697.07	0.528
697.26	0.530
697.44	0.531
697.63	0.530
697.81	0.527
698.00	0.527
698.19	0.527
698.37	0.528
698.56	0.526
698.75	0.526
698.93	0.526
699.12	0.526
699.31	0.524
699.49	0.524
699.68	0.525
699.87	0.528
700.05	0.527
700.24	0.526
700.42	0.528
700.61	0.527
700.80	0.525
700.98	0.525
701.17	0.527
701.36	0.526
701.54	0.524
701.73	0.526
701.91	0.524
702.10	0.524
702.29	0.521
702.47	0.520
702.66	0.522
702.84	0.524
703.03	0.522
703.22	0.524
703.40	0.524
703.59	0.526
703.77	0.525
703.96	0.525
704.15	0.526
704.33	0.526
704.52	0.525
704.70	0.525
704.89	0.525
705.08	0.523
705.26	0.519
705.45	0.519
705.63	0.519
705.82	0.515
706.00	0.514
706.19	0.513
706.38	0.513
706.56	0.513
706.75	0.510
706.93	0.509
707.12	0.511
707.30	0.511
707.49	0.508
707.68	0.506
707.86	0.506
708.05	0.506
708.23	0.503
708.42	0.503
708.60	0.506
708.79	0.506
708.98	0.505
709.16	0.504
709.35	0.507
709.53	0.511
709.72	0.509
709.90	0.511
710.09	0.513
710.27	0.515
710.46	0.518
710.64	0.516
710.83	0.518
711.02	0.519
711.20	0.516
711.39	0.514
711.57	0.511
711.76	0.512
711.94	0.509
712.13	0.509
712.31	0.509
712.50	0.504
712.68	0.501
712.87	0.502
713.05	0.503
713.24	0.503
713.42	0.503
713.61	0.504
713.79	0.505
713.98	0.506
714.16	0.507
714.35	0.507
714.54	0.508
714.72	0.509
714.91	0.506
715.09	0.512
715.28	0.516
715.46	0.516
715.65	0.513
715.83	0.513
716.02	0.516
716.20	0.512
716.39	0.511
716.57	0.512
716.76	0.515
716.94	0.515
717.12	0.507
717.31	0.508
717.49	0.511
717.68	0.513
717.86	0.512
718.05	0.514
718.23	0.517
718.42	0.519
718.60	0.519
718.79	0.527
718.97	0.531
719.16	0.531
719.34	0.528
719.53	0.528
719.71	0.529
719.90	0.531
720.08	0.529
720.27	0.529
720.45	0.530
720.63	0.530
720.82	0.523
721.00	0.525
721.19	0.530
721.37	0.529
721.56	0.528
721.74	0.531
721.93	0.540
722.11	0.545
722.30	0.543
722.48	0.547
722.66	0.548
722.85	0.548
723.03	0.547
723.22	0.545
723.40	0.548
723.59	0.548
723.77	0.550
723.95	0.545
724.14	0.548
724.32	0.549
724.51	0.547
724.69	0.548
724.88	0.550
725.06	0.547
725.24	0.547
725.43	0.549
725.61	0.553
725.80	0.547
725.98	0.543
726.16	0.540
726.35	0.548
726.53	0.547
726.72	0.545
726.90	0.555
727.09	0.556
727.27	0.562
727.45	0.556
727.64	0.565
727.82	0.576
728.01	0.582
728.19	0.579
728.37	0.583
728.56	0.587
728.74	0.594
728.92	0.580
729.11	0.584
729.29	0.583
729.48	0.586
729.66	0.573
729.84	0.572
730.03	0.576
730.21	0.578
730.40	0.567
730.58	0.569
730.76	0.570
730.95	0.573
731.13	0.570
731.31	0.584
731.50	0.596
731.68	0.600
731.86	0.594
732.05	0.608
732.23	0.611
732.42	0.615
732.60	0.617
732.78	0.623
732.97	0.645
733.15	0.652
733.33	0.637
733.52	0.645
733.70	0.657
733.88	0.666
734.07	0.649
734.25	0.677
734.43	0.687
734.62	0.689
734.80	0.678
734.98	0.668
735.17	0.679
735.35	0.686
735.53	0.674
735.72	0.675
735.90	0.700
736.08	0.719
736.27	0.690
736.45	0.700
736.63	0.716
736.82	0.729
737.00	0.727
737.18	0.737
737.37	0.774
737.55	0.798
737.73	0.791
737.92	0.793
738.10	0.793
738.28	0.817
738.46	0.801
738.65	0.814
738.83	0.839
739.01	0.891
739.20	0.879
739.38	0.858
739.56	0.853
739.75	0.857
739.93	0.819
740.11	0.848
740.29	0.854
740.48	0.861
740.66	0.835
740.84	0.832
741.03	0.803
741.21	0.812
741.39	0.791
741.57	0.804
741.76	0.832
741.94	0.836
742.12	0.791
742.31	0.796
742.49	0.822
742.67	0.846
742.85	0.854
743.04	0.857
743.22	0.876
743.40	0.933
743.58	0.909
743.77	0.926
743.95	0.975
744.13	1.038
744.31	1.013
744.50	1.007
744.68	1.022
744.86	0.992
745.04	0.997
745.23	1.066
745.41	1.058
745.59	1.059
745.77	1.011
745.96	0.997
746.14	1.010
746.32	1.006
746.50	0.985
746.69	0.963
746.87	0.984
747.05	0.970
747.23	0.881
747.42	0.868
747.60	0.912
747.78	0.915
747.96	0.942
748.14	0.896
748.33	0.932
748.51	0.927
748.69	0.910
748.87	0.948
749.06	0.950
749.24	0.954
749.42	0.924
749.60	0.897
749.78	0.916
749.97	0.864
750.15	0.853
750.33	0.854
750.51	0.891
750.69	0.902
750.88	0.894
751.06	0.910
751.24	0.947
751.42	0.935
751.60	0.922
751.79	1.001
751.97	1.062
752.15	1.061
752.33	1.021
752.51	1.089
752.69	1.115
752.88	1.074
753.06	1.109
753.24	1.080
753.42	1.147
753.60	1.364
753.78	1.161
753.97	1.182
754.15	1.215
754.33	1.236
754.51	1.078
754.69	1.061
754.87	1.104
755.06	1.020
755.24	1.012
755.42	1.010
755.60	0.910
755.78	0.921
755.96	0.856
756.15	0.856
756.33	0.871
756.51	0.889
756.69	0.869
756.87	0.834
757.05	0.862
757.23	0.845
757.42	0.807
757.60	0.805
757.78	0.795
757.96	0.795
758.14	0.775
758.32	0.761
758.50	0.779
758.69	0.776
758.87	0.764
759.05	0.765
759.23	0.782
759.41	0.784
759.59	0.771
759.77	0.795
759.95	0.827
760.13	0.878
760.32	0.867
760.50	0.864
760.68	0.897
760.86	0.895
761.04	0.861
761.22	0.857
761.40	0.913
761.58	0.916
761.76	0.884
761.95	0.867
762.13	0.823
762.31	0.827
762.49	0.790
762.67	0.808
762.85	0.829
763.03	0.825
763.21	0.805
763.39	0.786
763.57	0.793
763.75	0.784
763.94	0.765
764.12	0.766
764.30	0.795
764.48	0.797
764.66	0.755
764.84	0.750
765.02	0.796
765.20	0.801
765.38	0.774
765.56	0.781
765.74	0.829
765.92	0.829
766.10	0.834
766.28	0.825
766.46	0.860
766.65	0.861
766.83	0.847
767.01	0.828
767.19	0.845
767.37	0.848
767.55	0.830
767.73	0.808
767.91	0.816
768.09	0.804
768.27	0.789
768.45	0.780
768.63	0.786
768.81	0.788
768.99	0.756
769.17	0.780
769.35	0.801
769.53	0.797
769.71	0.774
769.89	0.785
770.07	0.796
770.25	0.779
770.43	0.754
770.61	0.783
770.79	0.792
770.97	0.804
771.15	0.768
771.33	0.771
771.51	0.782
771.69	0.794
771.87	0.794
772.05	0.802
772.24	0.813
772.42	0.821
772.60	0.791
772.78	0.854
772.96	0.890
773.14	0.882
773.32	0.849
773.49	0.858
773.67	0.858
773.85	0.839
774.03	0.821
774.21	0.856
774.39	0.875
774.57	0.906
774.75	0.823
774.93	0.818
775.11	0.849
775.29	0.858
775.47	0.853
775.65	0.866
775.83	0.890
776.01	0.916
776.19	0.859
776.37	0.859
776.55	0.860
776.73	0.857
776.91	0.845
777.09	0.827
777.27	0.830
777.45	0.816
777.63	0.786
777.81	0.783
777.99	0.775
778.17	0.775
778.35	0.749
778.53	0.738
778.71	0.746
778.89	0.734
779.07	0.720
779.24	0.727
779.42	0.733
779.60	0.754
779.78	0.745
779.96	0.749
780.14	0.762
780.32	0.787
780.50	0.764
780.68	0.765
780.86	0.762
781.04	0.781
781.22	0.780
781.40	0.792
781.58	0.787
781.75	0.779
781.93	0.755
782.11	0.752
782.29	0.739
782.47	0.737
782.65	0.721
782.83	0.751
783.01	0.748
783.19	0.740
783.37	0.721
783.55	0.721
783.72	0.742
783.90	0.753
784.08	0.743
784.26	0.755
784.44	0.780
784.62	0.780
784.80	0.741
784.98	0.744
785.16	0.751
785.33	0.765
785.51	0.745
785.69	0.732
785.87	0.735
786.05	0.745
786.23	0.736
786.41	0.734
786.59	0.743
786.77	0.740
786.94	0.722
787.12	0.727
787.30	0.734
787.48	0.731
787.66	0.717
787.84	0.716
788.02	0.707
788.19	0.707
788.37	0.689
788.55	0.692
788.73	0.696
788.91	0.692
789.09	0.673
789.27	0.660
789.44	0.674
789.62	0.679
789.80	0.687
789.98	0.712
790.16	0.698
790.34	0.694
790.51	0.681
790.69	0.702
790.87	0.711
791.05	0.706
791.23	0.696
791.41	0.700
791.58	0.709
791.76	0.687
791.94	0.654
792.12	0.664
792.30	0.668
792.48	0.664
792.65	0.656
792.83	0.664
793.01	0.674
793.19	0.674
793.37	0.656
793.54	0.655
793.72	0.670
793.90	0.669
794.08	0.657
794.26	0.661
794.43	0.673
794.61	0.654
794.79	0.638
794.97	0.637
795.15	0.644
795.32	0.648
795.50	0.633
795.68	0.628
795.86	0.636
796.04	0.637
796.21	0.628
796.39	0.627
796.57	0.646
796.75	0.657
796.92	0.658
797.10	0.665
797.28	0.670
797.46	0.675
797.64	0.674
797.81	0.683
797.99	0.688
798.17	0.690
798.35	0.680
798.52	0.683
798.70	0.679
798.88	0.689
799.06	0.684
799.23	0.687
799.41	0.697
799.59	0.689
799.77	0.674
799.94	0.685
800.12	0.700
800.30	0.720
800.48	0.716
800.65	0.715
800.83	0.706
801.01	0.698
801.19	0.694
801.36	0.690
801.54	0.696
801.72	0.707
801.90	0.688
802.07	0.682
802.25	0.670
802.43	0.652
802.60	0.647
802.78	0.656
802.96	0.665
803.14	0.658
803.31	0.654
803.49	0.654
803.67	0.652
803.84	0.656
804.02	0.644
804.20	0.647
804.38	0.656
804.55	0.655
804.73	0.636
804.91	0.634
805.08	0.648
805.26	0.643
805.44	0.702
805.61	0.706
805.79	0.708
805.97	0.708
806.15	0.696
806.32	0.689
806.50	0.698
806.68	0.698
806.85	0.686
807.03	0.678
807.21	0.700
807.38	0.635
807.56	0.623
807.74	0.635
807.91	0.645
808.09	0.648
808.27	0.666
808.44	0.694
808.62	0.708
808.80	0.709
808.97	0.701
809.15	0.694
809.33	0.716
809.50	0.723
809.68	0.703
809.86	0.709
810.03	0.746
810.21	0.723
810.39	0.701
810.56	0.705
810.74	0.734
810.91	0.813
811.09	0.798
811.27	0.820
811.44	0.828
811.62	0.829
811.80	0.810
811.97	0.776
812.15	0.779
812.33	0.774
812.50	0.755
812.68	0.744
812.85	0.687
813.03	0.690
813.21	0.653
813.38	0.647
813.56	0.655
813.74	0.665
813.91	0.670
814.09	0.702
814.26	0.699
814.44	0.703
814.62	0.688
814.79	0.692
814.97	0.699
815.14	0.703
815.32	0.704
815.50	0.722
815.67	0.729
815.85	0.721
816.02	0.706
816.20	0.715
816.38	0.737
816.55	0.745
816.73	0.738
816.90	0.751
817.08	0.787
817.26	0.794
817.43	0.767
817.61	0.792
817.78	0.819
817.96	0.796
818.13	0.781
818.31	0.780
818.49	0.797
818.66	0.788
818.84	0.769
819.01	0.747
819.19	0.760
819.36	0.761
819.54	0.726
819.71	0.769
819.89	0.790
820.07	0.803
820.24	0.789
820.42	0.790
820.59	0.814
820.77	0.840
820.94	0.827
821.12	0.845
821.29	0.871
821.47	0.872
821.64	0.794
821.82	0.810
822.00	0.807
822.17	0.806
822.35	0.796
822.52	0.804
822.70	0.795
822.87	0.802
823.05	0.774
823.22	0.786
823.40	0.821
823.57	0.847
823.75	0.816
823.92	0.849
824.10	0.875
824.27	0.920
824.45	0.896
824.62	0.968
824.80	1.003
824.97	1.028
825.15	1.011
825.32	1.030
825.50	1.041
825.67	1.064
825.85	1.027
826.02	1.060
826.20	1.097
826.37	1.293
826.55	1.153
826.72	1.464
826.90	1.652
827.07	1.809
827.25	1.605
827.42	2.471
827.60	-0.000
827.77	-0.000
827.95	-0.000
828.12	-0.000
828.30	-0.000
828.47	-0.000
828.65	1.685
828.82	1.907
829.00	2.757
829.17	-0.000
829.34	-0.000
829.52	-0.000
829.69	-0.000
829.87	-0.000
830.04	-0.000
830.22	-0.000
830.39	-0.000
830.57	-0.000
830.74	-0.000
830.92	-0.000
831.09	-0.000
831.26	-0.000
831.44	-0.000
831.61	-0.000
831.79	-0.000
831.96	-0.000
832.14	-0.000
832.31	-0.000
832.49	-0.000
832.66	-0.000
832.83	-0.000
833.01	-0.000
833.18	-0.000
833.36	-0.000
833.53	-0.000
833.70	-0.000
833.88	-0.000
834.05	-0.000
834.23	-0.000
834.40	-0.000
834.58	-0.000
834.75	-0.000
834.92	-0.000
835.10	-0.000
835.27	-0.000
835.45	-0.000
835.62	-0.000
835.79	-0.000
835.97	-0.000
836.14	-0.000
836.32	-0.000
836.49	-0.000
836.66	-0.000
836.84	-0.000
837.01	-0.000
837.18	-0.000
837.36	-0.000
837.53	-0.000
837.71	-0.000
837.88	-0.000
838.05	-0.000
838.23	-0.000
838.40	-0.000
838.58	-0.000
838.75	-0.000
838.92	-0.000
839.10	-0.000
839.27	-0.000
839.44	-0.000
839.62	-0.000
839.79	-0.000
839.96	-0.000
840.14	-0.000
840.31	-0.000
840.48	-0.000
840.66	-0.000
840.83	-0.000
841.01	-0.000
841.18	-0.000
841.35	-0.000
841.53	-0.000
841.70	-0.000
841.87	-0.000
842.05	-0.000
842.22	-0.000
842.39	-0.000
842.57	-0.000
842.74	-0.000
842.91	-0.000
843.09	-0.000
843.26	-0.000
843.43	-0.000
843.60	-0.000
843.78	-0.000
843.95	-0.000
844.12	-0.000
844.30	-0.000
844.47	-0.000
844.64	-0.000
844.82	-0.000
844.99	-0.000
845.16	-0.000
845.34	-0.000
845.51	-0.000
845.68	-0.000
845.85	-0.000
846.03	-0.000
846.20	-0.000
846.37	-0.000
846.55	-0.000
846.72	-0.000
846.89	-0.000
847.06	-0.000
847.24	-0.000
847.41	-0.000
847.58	-0.000
847.76	-0.000
847.93	-0.000
848.10	-0.000
848.27	-0.000
848.45	-0.000
848.62	-0.000
848.79	-0.000
848.97	-0.000
849.14	-0.000
849.31	-0.000
849.48	-0.000
849.66	-0.000
849.83	-0.000
850.00	-0.000
850.17	-0.000
850.35	-0.000
850.52	-0.000
850.69	-0.000
850.86	-0.000
851.04	-0.000
851.21	-0.000
851.38	-0.000
851.55	-0.000
851.72	-0.000
851.90	-0.000
852.07	-0.000
852.24	-0.000
852.41	-0.000
852.59	-0.000
852.76	-0.000
852.93	-0.000
853.10	-0.000
853.28	-0.000
853.45	-0.000
853.62	-0.000
853.79	-0.000
853.96	-0.000
854.14	-0.000
854.31	-0.000
854.48	-0.000
854.65	-0.000
854.82	-0.000
855.00	-0.000
855.17	-0.000
855.34	-0.000
855.51	-0.000
855.68	-0.000
855.86	-0.000
856.03	-0.000
856.20	-0.000
856.37	-0.000
856.54	-0.000
856.72	-0.000
856.89	-0.000
857.06	-0.000
857.23	-0.000
857.40	-0.000
857.57	-0.000
857.75	-0.000
857.92	-0.000
858.09	-0.000
858.26	-0.000
858.43	-0.000
858.60	-0.000
858.78	-0.000
858.95	-0.000
859.12	-0.000
859.29	-0.000
859.46	-0.000
859.63	-0.000
859.81	-0.000
859.98	-0.000
860.15	-0.000
860.32	-0.000
860.49	-0.000
860.66	-0.000
860.83	-0.000
861.01	-0.000
861.18	-0.000
861.35	-0.000
861.52	-0.000
861.69	-0.000
861.86	-0.000
862.03	-0.000
862.21	-0.000
862.38	-0.000
862.55	-0.000
862.72	-0.000
862.89	-0.000
863.06	-0.000
863.23	-0.000
863.40	-0.000
863.58	-0.000
863.75	-0.000
863.92	-0.000
864.09	-0.000
864.26	-0.000
864.43	-0.000
864.60	-0.000
864.77	-0.000
864.94	-0.000
865.11	-0.000
865.29	-0.000
865.46	-0.000
865.63	-0.000
865.80	-0.000
865.97	-0.000
866.14	-0.000
866.31	-0.000
866.48	-0.000
866.65	-0.000
866.82	-0.000
866.99	-0.000
867.16	-0.000
867.34	-0.000
867.51	-0.000
867.68	-0.000
867.85	-0.000
868.02	-0.000
868.19	-0.000
868.36	-0.000
868.53	-0.000
868.70	-0.000
868.87	-0.000
869.04	-0.000
869.21	-0.000
869.38	-0.000
869.55	-0.000
869.72	-0.000
869.89	-0.000
870.06	-0.000
870.24	-0.000
870.41	-0.000
870.58	-0.000
870.75	-0.000
870.92	-0.000
871.09	-0.000
871.26	-0.000
871.43	-0.000
871.60	-0.000
871.77	-0.000
871.94	-0.000
872.11	-0.000
872.28	-0.000
872.45	-0.000
872.62	-0.000
872.79	-0.000
872.96	-0.000
873.13	-0.000
873.30	-0.000
873.47	-0.000
873.64	-0.000
873.81	-0.000
873.98	-0.000
874.15	-0.000
874.32	-0.000
874.49	-0.000
874.66	-0.000
874.83	-0.000
875.00	-0.000
875.17	-0.000
875.34	-0.000
875.51	-0.000
875.68	-0.000
875.85	-0.000
876.02	-0.000
876.19	-0.000
876.36	-0.000
876.53	-0.000
876.70	-0.000
876.87	-0.000
877.04	-0.000
877.21	-0.000
877.38	-0.000
877.55	-0.000
877.72	-0.000
877.89	-0.000
878.06	-0.000
878.23	-0.000
878.39	-0.000
878.56	-0.000
878.73	-0.000
878.90	-0.000
879.07	-0.000
879.24	-0.000
879.41	-0.000
879.58	-0.000
879.75	-0.000
879.92	-0.000
880.09	-0.000
880.26	-0.000
880.43	-0.000
880.60	-0.000
880.77	-0.000
880.94	-0.000
881.11	-0.000
881.27	-0.000
881.44	-0.000
881.61	-0.000
881.78	-0.000
881.95	-0.000
882.12	-0.000
882.29	-0.000
882.46	-0.000
882.63	-0.000
882.80	-0.000
882.97	-0.000
883.14	-0.000
883.30	-0.000
883.47	-0.000
883.64	-0.000
883.81	-0.000
883.98	-0.000
884.15	-0.000
884.32	-0.000
884.49	-0.000
884.66	-0.000
884.82	-0.000
884.99	-0.000
885.16	-0.000
885.33	-0.000
885.50	-0.000
885.67	-0.000
885.84	-0.000
886.01	-0.000
886.17	-0.000
886.34	-0.000
886.51	-0.000
886.68	-0.000
886.85	-0.000
887.02	-0.000
887.19	-0.000
887.36	-0.000
887.52	-0.000
887.69	-0.000
887.86	-0.000
888.03	-0.000
888.20	-0.000
888.37	-0.000
888.54	-0.000
888.70	-0.000
888.87	-0.000
889.04	-0.000
889.21	-0.000
889.38	-0.000
889.55	-0.000
889.71	-0.000
889.88	-0.000
890.05	-0.000
890.22	-0.000
890.39	-0.000
>>>>>End Processed Spectral Data<<<<<
