SpectraSuite Data File
++++++++++++++++++++++++++++++++++++
Date: Fri Jun 19 14:09:07 CEST 2015
User: introlabs
Dark Spectrum Present: Yes
Reference Spectrum Present: Yes
Number of Sampled Component Spectra: 1
Spectrometers: USB4H08886
Integration Time (usec): 745692 (USB4H08886)
Spectra Averaged: 5 (USB4H08886)
Boxcar Smoothing: 5 (USB4H08886)
Correct for Electrical Dark: Yes (USB4H08886)
Strobe/Lamp Enabled: No (USB4H08886)
Correct for Detector Non-linearity: Yes (USB4H08886)
Correct for Stray Light: Yes (USB4H08886)
Number of Pixels in Processed Spectrum: 3648
>>>>>Begin Processed Spectral Data<<<<<
178.14	-0.000
178.36	-0.000
178.57	-0.000
178.79	-0.000
179.01	-0.000
179.22	-0.000
179.44	-0.000
179.65	-0.000
179.87	-0.000
180.08	-0.000
180.30	-0.000
180.52	-0.000
180.73	-0.000
180.95	-0.000
181.16	-0.000
181.38	-0.000
181.59	-0.000
181.81	-0.000
182.03	-0.000
182.24	-0.000
182.46	-0.000
182.67	-0.000
182.89	-0.000
183.10	-0.000
183.32	-0.000
183.54	-0.000
183.75	-0.000
183.97	-0.000
184.18	-0.000
184.40	-0.000
184.61	-0.000
184.83	-0.000
185.04	-0.000
185.26	-0.000
185.48	-0.000
185.69	-0.000
185.91	-0.000
186.12	-0.000
186.34	-0.000
186.55	-0.000
186.77	-0.000
186.98	-0.000
187.20	-0.000
187.42	-0.000
187.63	-0.000
187.85	-0.000
188.06	-0.000
188.28	-0.000
188.49	-0.000
188.71	-0.000
188.92	-0.000
189.14	-0.000
189.36	-0.000
189.57	-0.000
189.79	-0.000
190.00	-0.000
190.22	-0.000
190.43	-0.000
190.65	-0.000
190.86	-0.000
191.08	-0.000
191.29	-0.000
191.51	-0.000
191.72	-0.000
191.94	-0.000
192.16	-0.000
192.37	-0.000
192.59	-0.000
192.80	-0.000
193.02	-0.000
193.23	-0.000
193.45	-0.000
193.66	-0.000
193.88	-0.000
194.09	-0.000
194.31	-0.000
194.52	-0.000
194.74	-0.000
194.95	-0.000
195.17	-0.000
195.38	-0.000
195.60	-0.000
195.81	-0.000
196.03	-0.000
196.25	-0.000
196.46	-0.000
196.68	-0.000
196.89	-0.000
197.11	-0.000
197.32	-0.000
197.54	-0.000
197.75	-0.000
197.97	-0.000
198.18	-0.000
198.40	-0.000
198.61	-0.000
198.83	-0.000
199.04	-0.000
199.26	-0.000
199.47	-0.000
199.69	-0.000
199.90	-0.000
200.12	-0.000
200.33	-0.000
200.55	-0.000
200.76	-0.000
200.98	-0.000
201.19	-0.000
201.41	-0.000
201.62	-0.000
201.84	-0.000
202.05	-0.000
202.27	-0.000
202.48	-0.000
202.70	-0.000
202.91	-0.000
203.13	-0.000
203.34	-0.000
203.56	-0.000
203.77	-0.000
203.99	-0.000
204.20	-0.000
204.42	-0.000
204.63	-0.000
204.85	-0.000
205.06	-0.000
205.28	-0.000
205.49	-0.000
205.71	-0.000
205.92	-0.000
206.14	-0.000
206.35	-0.000
206.56	-0.000
206.78	-0.000
206.99	-0.000
207.21	-0.000
207.42	-0.000
207.64	-0.000
207.85	-0.000
208.07	-0.000
208.28	-0.000
208.50	-0.000
208.71	-0.000
208.93	-0.000
209.14	-0.000
209.36	-0.000
209.57	-0.000
209.79	-0.000
210.00	-0.000
210.22	-0.000
210.43	-0.000
210.64	-0.000
210.86	-0.000
211.07	-0.000
211.29	-0.000
211.50	-0.000
211.72	-0.000
211.93	-0.000
212.15	-0.000
212.36	-0.000
212.58	-0.000
212.79	-0.000
213.01	-0.000
213.22	-0.000
213.43	-0.000
213.65	-0.000
213.86	-0.000
214.08	-0.000
214.29	-0.000
214.51	-0.000
214.72	-0.000
214.94	-0.000
215.15	-0.000
215.36	-0.000
215.58	-0.000
215.79	-0.000
216.01	-0.000
216.22	-0.000
216.44	-0.000
216.65	-0.000
216.87	-0.000
217.08	-0.000
217.29	-0.000
217.51	-0.000
217.72	-0.000
217.94	-0.000
218.15	-0.000
218.37	-0.000
218.58	-0.000
218.80	-0.000
219.01	-0.000
219.22	-0.000
219.44	-0.000
219.65	-0.000
219.87	-0.000
220.08	-0.000
220.30	-0.000
220.51	-0.000
220.72	-0.000
220.94	-0.000
221.15	-0.000
221.37	-0.000
221.58	-0.000
221.79	-0.000
222.01	-0.000
222.22	-0.000
222.44	-0.000
222.65	-0.000
222.87	-0.000
223.08	-0.000
223.29	-0.000
223.51	-0.000
223.72	-0.000
223.94	-0.000
224.15	-0.000
224.36	-0.000
224.58	-0.000
224.79	-0.000
225.01	-0.000
225.22	-0.000
225.44	-0.000
225.65	-0.000
225.86	-0.000
226.08	-0.000
226.29	-0.000
226.51	-0.000
226.72	-0.000
226.93	-0.000
227.15	-0.000
227.36	-0.000
227.58	-0.000
227.79	-0.000
228.00	-0.000
228.22	-0.000
228.43	-0.000
228.65	-0.000
228.86	-0.000
229.07	-0.000
229.29	-0.000
229.50	-0.000
229.72	-0.000
229.93	-0.000
230.14	-0.000
230.36	-0.000
230.57	-0.000
230.78	-0.000
231.00	-0.000
231.21	-0.000
231.43	-0.000
231.64	-0.000
231.85	-0.000
232.07	-0.000
232.28	-0.000
232.50	-0.000
232.71	-0.000
232.92	-0.000
233.14	-0.000
233.35	-0.000
233.56	-0.000
233.78	-0.000
233.99	-0.000
234.21	-0.000
234.42	-0.000
234.63	-0.000
234.85	-0.000
235.06	-0.000
235.27	-0.000
235.49	-0.000
235.70	-0.000
235.91	-0.000
236.13	-0.000
236.34	-0.000
236.56	-0.000
236.77	-0.000
236.98	-0.000
237.20	-0.000
237.41	-0.000
237.62	-0.000
237.84	-0.000
238.05	-0.000
238.26	-0.000
238.48	-0.000
238.69	-0.000
238.91	-0.000
239.12	-0.000
239.33	-0.000
239.55	-0.000
239.76	-0.000
239.97	-0.000
240.19	-0.000
240.40	-0.000
240.61	-0.000
240.83	-0.000
241.04	-0.000
241.25	-0.000
241.47	-0.000
241.68	-0.000
241.89	-0.000
242.11	-0.000
242.32	-0.000
242.53	-0.000
242.75	-0.000
242.96	-0.000
243.17	-0.000
243.39	-0.000
243.60	-0.000
243.81	-0.000
244.03	-0.000
244.24	-0.000
244.45	-0.000
244.67	-0.000
244.88	-0.000
245.09	-0.000
245.31	-0.000
245.52	-0.000
245.73	-0.000
245.95	-0.000
246.16	-0.000
246.37	-0.000
246.59	-0.000
246.80	-0.000
247.01	-0.000
247.23	-0.000
247.44	-0.000
247.65	-0.000
247.87	-0.000
248.08	-0.000
248.29	-0.000
248.51	-0.000
248.72	-0.000
248.93	-0.000
249.15	-0.000
249.36	-0.000
249.57	-0.000
249.78	-0.000
250.00	-0.000
250.21	-0.000
250.42	-0.000
250.64	-0.000
250.85	-0.000
251.06	-0.000
251.28	-0.000
251.49	-0.000
251.70	-0.000
251.92	-0.000
252.13	-0.000
252.34	-0.000
252.55	-0.000
252.77	-0.000
252.98	-0.000
253.19	-0.000
253.41	-0.000
253.62	-0.000
253.83	-0.000
254.05	-0.000
254.26	-0.000
254.47	-0.000
254.68	-0.000
254.90	-0.000
255.11	-0.000
255.32	-0.000
255.54	-0.000
255.75	-0.000
255.96	-0.000
256.17	-0.000
256.39	-0.000
256.60	-0.000
256.81	-0.000
257.03	-0.000
257.24	-0.000
257.45	-0.000
257.66	-0.000
257.88	-0.000
258.09	-0.000
258.30	-0.000
258.51	-0.000
258.73	-0.000
258.94	-0.000
259.15	-0.000
259.37	-0.000
259.58	-0.000
259.79	-0.000
260.00	-0.000
260.22	-0.000
260.43	-0.000
260.64	-0.000
260.85	-0.000
261.07	-0.000
261.28	-0.000
261.49	-0.000
261.71	-0.000
261.92	-0.000
262.13	-0.000
262.34	-0.000
262.56	-0.000
262.77	-0.000
262.98	-0.000
263.19	-0.000
263.41	-0.000
263.62	-0.000
263.83	-0.000
264.04	-0.000
264.26	-0.000
264.47	-0.000
264.68	-0.000
264.89	-0.000
265.11	-0.000
265.32	-0.000
265.53	-0.000
265.74	-0.000
265.96	-0.000
266.17	-0.000
266.38	-0.000
266.59	-0.000
266.81	-0.000
267.02	-0.000
267.23	-0.000
267.44	-0.000
267.65	-0.000
267.87	-0.000
268.08	-0.000
268.29	-0.000
268.50	-0.000
268.72	-0.000
268.93	-0.000
269.14	-0.000
269.35	-0.000
269.57	-0.000
269.78	-0.000
269.99	-0.000
270.20	-0.000
270.41	-0.000
270.63	-0.000
270.84	-0.000
271.05	-0.000
271.26	-0.000
271.48	-0.000
271.69	-0.000
271.90	-0.000
272.11	-0.000
272.32	-0.000
272.54	-0.000
272.75	-0.000
272.96	-0.000
273.17	-0.000
273.39	-0.000
273.60	-0.000
273.81	-0.000
274.02	-0.000
274.23	-0.000
274.45	-0.000
274.66	-0.000
274.87	-0.000
275.08	-0.000
275.29	-0.000
275.51	-0.000
275.72	-0.000
275.93	-0.000
276.14	-0.000
276.35	-0.000
276.57	-0.000
276.78	-0.000
276.99	-0.000
277.20	-0.000
277.41	-0.000
277.63	-0.000
277.84	-0.000
278.05	-0.000
278.26	-0.000
278.47	-0.000
278.69	-0.000
278.90	-0.000
279.11	-0.000
279.32	-0.000
279.53	-0.000
279.74	-0.000
279.96	-0.000
280.17	-0.000
280.38	-0.000
280.59	-0.000
280.80	-0.000
281.02	-0.000
281.23	-0.000
281.44	-0.000
281.65	-0.000
281.86	-0.000
282.07	-0.000
282.29	-0.000
282.50	-0.000
282.71	-0.000
282.92	-0.000
283.13	-0.000
283.35	-0.000
283.56	-0.000
283.77	-0.000
283.98	-0.000
284.19	-0.000
284.40	-0.000
284.62	-0.000
284.83	-0.000
285.04	-0.000
285.25	-0.000
285.46	-0.000
285.67	-0.000
285.88	-0.000
286.10	-0.000
286.31	-0.000
286.52	-0.000
286.73	-0.000
286.94	-0.000
287.15	-0.000
287.37	-0.000
287.58	-0.000
287.79	-0.000
288.00	-0.000
288.21	-0.000
288.42	-0.000
288.63	-0.000
288.85	-0.000
289.06	-0.000
289.27	-0.000
289.48	-0.000
289.69	-0.000
289.90	-0.000
290.11	-0.000
290.33	-0.000
290.54	-0.000
290.75	-0.000
290.96	-0.000
291.17	-0.000
291.38	-0.000
291.59	-0.000
291.81	-0.000
292.02	-0.000
292.23	-0.000
292.44	-0.000
292.65	-0.000
292.86	-0.000
293.07	-0.000
293.28	-0.000
293.50	-0.000
293.71	-0.000
293.92	-0.000
294.13	-0.000
294.34	-0.000
294.55	-0.000
294.76	-0.000
294.97	-0.000
295.19	-0.000
295.40	-0.000
295.61	-0.000
295.82	-0.000
296.03	-0.000
296.24	-0.000
296.45	-0.000
296.66	2.310
296.87	2.377
297.09	2.748
297.30	-0.000
297.51	2.062
297.72	1.996
297.93	2.211
298.14	2.103
298.35	2.017
298.56	1.954
298.77	2.183
298.99	2.120
299.20	2.035
299.41	1.992
299.62	1.928
299.83	1.920
300.04	1.807
300.25	1.793
300.46	1.857
300.67	1.791
300.88	1.692
301.10	1.710
301.31	1.809
301.52	1.711
301.73	1.632
301.94	1.624
302.15	1.638
302.36	1.571
302.57	1.494
302.78	1.505
302.99	1.564
303.20	1.594
303.41	1.478
303.63	1.459
303.84	1.469
304.05	1.459
304.26	1.386
304.47	1.392
304.68	1.398
304.89	1.384
305.10	1.339
305.31	1.327
305.52	1.376
305.73	1.368
305.94	1.321
306.15	1.316
306.37	1.343
306.58	1.353
306.79	1.317
307.00	1.340
307.21	1.388
307.42	1.374
307.63	1.329
307.84	1.290
308.05	1.328
308.26	1.328
308.47	1.299
308.68	1.294
308.89	1.295
309.10	1.292
309.31	1.248
309.52	1.238
309.73	1.255
309.95	1.250
310.16	1.220
310.37	1.207
310.58	1.228
310.79	1.224
311.00	1.218
311.21	1.219
311.42	1.222
311.63	1.215
311.84	1.193
312.05	1.191
312.26	1.217
312.47	1.227
312.68	1.202
312.89	1.184
313.10	1.193
313.31	1.163
313.52	1.164
313.73	1.164
313.94	1.166
314.15	1.148
314.36	1.127
314.57	1.118
314.78	1.103
314.99	1.098
315.21	1.083
315.42	1.089
315.63	1.104
315.84	1.080
316.05	1.066
316.26	1.075
316.47	1.094
316.68	1.090
316.89	1.070
317.10	1.092
317.31	1.099
317.52	1.101
317.73	1.076
317.94	1.076
318.15	1.123
318.36	1.122
318.57	1.102
318.78	1.092
318.99	1.128
319.20	1.125
319.41	1.089
319.62	1.089
319.83	1.103
320.04	1.098
320.25	1.082
320.46	1.048
320.67	1.050
320.88	1.044
321.09	1.030
321.30	1.014
321.51	1.029
321.72	1.027
321.93	1.010
322.14	1.002
322.35	1.032
322.56	1.034
322.77	1.019
322.98	1.032
323.19	1.041
323.40	1.047
323.61	1.025
323.82	1.020
324.03	1.028
324.24	1.025
324.45	1.012
324.66	0.991
324.87	0.988
325.08	0.988
325.29	0.969
325.50	0.961
325.71	0.965
325.92	0.973
326.13	0.958
326.34	0.958
326.55	0.968
326.76	0.965
326.97	0.954
327.18	0.948
327.39	0.974
327.60	0.973
327.80	0.974
328.01	0.972
328.22	0.972
328.43	0.976
328.64	0.963
328.85	0.968
329.06	0.970
329.27	0.969
329.48	0.966
329.69	0.945
329.90	0.957
330.11	0.951
330.32	0.945
330.53	0.939
330.74	0.938
330.95	0.937
331.16	0.921
331.37	0.930
331.58	0.930
331.79	0.929
332.00	0.921
332.21	0.914
332.42	0.917
332.63	0.906
332.83	0.903
333.04	0.906
333.25	0.920
333.46	0.918
333.67	0.903
333.88	0.906
334.09	0.915
334.30	0.912
334.51	0.903
334.72	0.899
334.93	0.903
335.14	0.901
335.35	0.894
335.56	0.889
335.77	0.899
335.98	0.898
336.18	0.890
336.39	0.884
336.60	0.889
336.81	0.885
337.02	0.884
337.23	0.888
337.44	0.891
337.65	0.892
337.86	0.881
338.07	0.876
338.28	0.881
338.49	0.880
338.70	0.871
338.91	0.878
339.11	0.887
339.32	0.883
339.53	0.871
339.74	0.868
339.95	0.864
340.16	0.862
340.37	0.854
340.58	0.853
340.79	0.857
341.00	0.857
341.21	0.845
341.41	0.845
341.62	0.848
341.83	0.847
342.04	0.843
342.25	0.854
342.46	0.858
342.67	0.858
342.88	0.850
343.09	0.850
343.30	0.857
343.50	0.860
343.71	0.850
343.92	0.849
344.13	0.855
344.34	0.853
344.55	0.836
344.76	0.834
344.97	0.840
345.18	0.838
345.38	0.834
345.59	0.828
345.80	0.829
346.01	0.827
346.22	0.822
346.43	0.816
346.64	0.825
346.85	0.825
347.06	0.818
347.26	0.818
347.47	0.822
347.68	0.817
347.89	0.814
348.10	0.808
348.31	0.816
348.52	0.814
348.73	0.812
348.93	0.809
349.14	0.812
349.35	0.811
349.56	0.804
349.77	0.800
349.98	0.806
350.19	0.803
350.39	0.799
350.60	0.793
350.81	0.810
351.02	0.807
351.23	0.803
351.44	0.805
351.65	0.809
351.86	0.807
352.06	0.805
352.27	0.804
352.48	0.806
352.69	0.806
352.90	0.801
353.11	0.787
353.31	0.795
353.52	0.791
353.73	0.783
353.94	0.783
354.15	0.789
354.36	0.789
354.57	0.780
354.77	0.782
354.98	0.782
355.19	0.782
355.40	0.781
355.61	0.786
355.82	0.791
356.02	0.789
356.23	0.783
356.44	0.785
356.65	0.788
356.86	0.789
357.07	0.781
357.27	0.784
357.48	0.787
357.69	0.783
357.90	0.768
358.11	0.765
358.32	0.769
358.52	0.771
358.73	0.762
358.94	0.764
359.15	0.769
359.36	0.770
359.56	0.766
359.77	0.762
359.98	0.770
360.19	0.770
360.40	0.766
360.61	0.767
360.81	0.766
361.02	0.766
361.23	0.758
361.44	0.756
361.65	0.756
361.85	0.755
362.06	0.754
362.27	0.755
362.48	0.755
362.69	0.757
362.89	0.751
363.10	0.752
363.31	0.756
363.52	0.759
363.73	0.754
363.93	0.755
364.14	0.758
364.35	0.759
364.56	0.749
364.77	0.750
364.97	0.752
365.18	0.753
365.39	0.748
365.60	0.745
365.81	0.746
366.01	0.746
366.22	0.742
366.43	0.741
366.64	0.743
366.84	0.748
367.05	0.745
367.26	0.744
367.47	0.746
367.68	0.746
367.88	0.743
368.09	0.741
368.30	0.744
368.51	0.743
368.71	0.742
368.92	0.747
369.13	0.745
369.34	0.744
369.55	0.743
369.75	0.742
369.96	0.750
370.17	0.750
370.38	0.747
370.58	0.747
370.79	0.754
371.00	0.751
371.21	0.742
371.41	0.747
371.62	0.752
371.83	0.748
372.04	0.746
372.24	0.738
372.45	0.739
372.66	0.739
372.87	0.735
373.07	0.731
373.28	0.733
373.49	0.736
373.70	0.728
373.90	0.727
374.11	0.735
374.32	0.734
374.53	0.734
374.73	0.734
374.94	0.737
375.15	0.737
375.36	0.735
375.56	0.743
375.77	0.743
375.98	0.743
376.19	0.740
376.39	0.734
376.60	0.739
376.81	0.739
377.02	0.736
377.22	0.734
377.43	0.735
377.64	0.735
377.84	0.726
378.05	0.730
378.26	0.737
378.47	0.736
378.67	0.733
378.88	0.730
379.09	0.730
379.30	0.731
379.50	0.728
379.71	0.730
379.92	0.733
380.12	0.733
380.33	0.724
380.54	0.721
380.75	0.728
380.95	0.727
381.16	0.725
381.37	0.725
381.57	0.727
381.78	0.728
381.99	0.728
382.20	0.727
382.40	0.730
382.61	0.731
382.82	0.727
383.02	0.720
383.23	0.723
383.44	0.724
383.64	0.721
383.85	0.724
384.06	0.727
384.27	0.725
384.47	0.723
384.68	0.723
384.89	0.729
385.09	0.728
385.30	0.727
385.51	0.726
385.71	0.730
385.92	0.731
386.13	0.729
386.33	0.731
386.54	0.731
386.75	0.731
386.95	0.727
387.16	0.722
387.37	0.725
387.58	0.725
387.78	0.723
387.99	0.720
388.20	0.722
388.40	0.719
388.61	0.715
388.82	0.719
389.02	0.721
389.23	0.721
389.44	0.720
389.64	0.720
389.85	0.732
390.06	0.732
390.26	0.732
390.47	0.731
390.68	0.734
390.88	0.732
391.09	0.727
391.30	0.726
391.50	0.726
391.71	0.726
391.92	0.723
392.12	0.715
392.33	0.716
392.53	0.716
392.74	0.716
392.95	0.715
393.15	0.718
393.36	0.720
393.57	0.717
393.77	0.720
393.98	0.722
394.19	0.722
394.39	0.721
394.60	0.723
394.81	0.725
395.01	0.723
395.22	0.721
395.43	0.722
395.63	0.727
395.84	0.728
396.04	0.724
396.25	0.726
396.46	0.728
396.66	0.725
396.87	0.721
397.08	0.718
397.28	0.720
397.49	0.721
397.69	0.717
397.90	0.711
398.11	0.712
398.31	0.713
398.52	0.709
398.73	0.710
398.93	0.709
399.14	0.709
399.34	0.708
399.55	0.710
399.76	0.710
399.96	0.712
400.17	0.710
400.37	0.709
400.58	0.716
400.79	0.718
400.99	0.715
401.20	0.721
401.41	0.724
401.61	0.725
401.82	0.730
402.02	0.729
402.23	0.730
402.44	0.729
402.64	0.729
402.85	0.724
403.05	0.723
403.26	0.722
403.47	0.715
403.67	0.713
403.88	0.714
404.08	0.707
404.29	0.706
404.50	0.705
404.70	0.707
404.91	0.705
405.11	0.701
405.32	0.701
405.52	0.702
405.73	0.702
405.94	0.700
406.14	0.702
406.35	0.705
406.55	0.704
406.76	0.702
406.97	0.703
407.17	0.707
407.38	0.707
407.58	0.706
407.79	0.709
407.99	0.711
408.20	0.711
408.41	0.707
408.61	0.705
408.82	0.707
409.02	0.707
409.23	0.704
409.43	0.703
409.64	0.704
409.84	0.703
410.05	0.699
410.26	0.698
410.46	0.698
410.67	0.698
410.87	0.699
411.08	0.701
411.28	0.702
411.49	0.704
411.69	0.701
411.90	0.702
412.11	0.704
412.31	0.705
412.52	0.703
412.72	0.705
412.93	0.705
413.13	0.704
413.34	0.701
413.54	0.702
413.75	0.703
413.95	0.702
414.16	0.699
414.37	0.702
414.57	0.702
414.78	0.704
414.98	0.702
415.19	0.703
415.39	0.700
415.60	0.703
415.80	0.701
416.01	0.700
416.21	0.702
416.42	0.702
416.62	0.697
416.83	0.697
417.03	0.697
417.24	0.697
417.44	0.695
417.65	0.694
417.86	0.694
418.06	0.693
418.27	0.691
418.47	0.693
418.68	0.694
418.88	0.694
419.09	0.693
419.29	0.693
419.50	0.694
419.70	0.693
419.91	0.692
420.11	0.689
420.32	0.692
420.52	0.691
420.73	0.689
420.93	0.690
421.14	0.692
421.34	0.691
421.55	0.687
421.75	0.687
421.96	0.688
422.16	0.689
422.37	0.688
422.57	0.685
422.78	0.686
422.98	0.684
423.19	0.681
423.39	0.680
423.60	0.683
423.80	0.685
424.01	0.684
424.21	0.686
424.42	0.687
424.62	0.687
424.83	0.686
425.03	0.687
425.23	0.689
425.44	0.689
425.64	0.689
425.85	0.688
426.05	0.688
426.26	0.689
426.46	0.684
426.67	0.684
426.87	0.688
427.08	0.688
427.28	0.686
427.49	0.687
427.69	0.688
427.90	0.687
428.10	0.684
428.31	0.685
428.51	0.686
428.71	0.686
428.92	0.687
429.12	0.684
429.33	0.685
429.53	0.689
429.74	0.692
429.94	0.693
430.15	0.692
430.35	0.692
430.56	0.689
430.76	0.688
430.96	0.690
431.17	0.687
431.37	0.684
431.58	0.682
431.78	0.679
431.99	0.672
432.19	0.675
432.40	0.676
432.60	0.677
432.80	0.680
433.01	0.678
433.21	0.678
433.42	0.680
433.62	0.681
433.83	0.680
434.03	0.682
434.23	0.686
434.44	0.685
434.64	0.682
434.85	0.688
435.05	0.688
435.26	0.689
435.46	0.686
435.66	0.686
435.87	0.686
436.07	0.686
436.28	0.681
436.48	0.678
436.69	0.678
436.89	0.678
437.09	0.671
437.30	0.670
437.50	0.670
437.71	0.682
437.91	0.681
438.11	0.682
438.32	0.687
438.52	0.687
438.73	0.686
438.93	0.684
439.13	0.684
439.34	0.688
439.54	0.686
439.75	0.686
439.95	0.676
440.15	0.681
440.36	0.679
440.56	0.677
440.77	0.678
440.97	0.678
441.17	0.677
441.38	0.678
441.58	0.675
441.79	0.675
441.99	0.674
442.19	0.673
442.40	0.671
442.60	0.671
442.81	0.668
443.01	0.668
443.21	0.669
443.42	0.668
443.62	0.666
443.82	0.666
444.03	0.668
444.23	0.668
444.44	0.668
444.64	0.667
444.84	0.668
445.05	0.668
445.25	0.666
445.45	0.667
445.66	0.670
445.86	0.669
446.06	0.670
446.27	0.669
446.47	0.672
446.68	0.670
446.88	0.669
447.08	0.668
447.29	0.670
447.49	0.669
447.69	0.668
447.90	0.667
448.10	0.671
448.30	0.668
448.51	0.669
448.71	0.667
448.91	0.669
449.12	0.668
449.32	0.669
449.52	0.668
449.73	0.672
449.93	0.671
450.14	0.672
450.34	0.671
450.54	0.673
450.75	0.671
450.95	0.670
451.15	0.670
451.36	0.673
451.56	0.670
451.76	0.669
451.97	0.666
452.17	0.667
452.37	0.665
452.58	0.662
452.78	0.662
452.98	0.664
453.19	0.663
453.39	0.664
453.59	0.663
453.79	0.664
454.00	0.664
454.20	0.663
454.40	0.664
454.61	0.666
454.81	0.667
455.01	0.665
455.22	0.666
455.42	0.668
455.62	0.665
455.83	0.664
456.03	0.667
456.23	0.668
456.44	0.669
456.64	0.668
456.84	0.668
457.04	0.668
457.25	0.668
457.45	0.665
457.65	0.663
457.86	0.665
458.06	0.664
458.26	0.660
458.47	0.659
458.67	0.660
458.87	0.660
459.07	0.658
459.28	0.660
459.48	0.663
459.68	0.663
459.89	0.662
460.09	0.661
460.29	0.662
460.49	0.663
460.70	0.662
460.90	0.661
461.10	0.662
461.31	0.661
461.51	0.658
461.71	0.659
461.91	0.661
462.12	0.661
462.32	0.660
462.52	0.660
462.72	0.663
462.93	0.664
463.13	0.662
463.33	0.663
463.53	0.665
463.74	0.664
463.94	0.660
464.14	0.660
464.35	0.662
464.55	0.662
464.75	0.660
464.95	0.658
465.16	0.660
465.36	0.659
465.56	0.657
465.76	0.657
465.97	0.657
466.17	0.658
466.37	0.656
466.57	0.657
466.78	0.658
466.98	0.659
467.18	0.657
467.38	0.656
467.59	0.658
467.79	0.659
467.99	0.658
468.19	0.660
468.39	0.662
468.60	0.662
468.80	0.660
469.00	0.661
469.20	0.662
469.41	0.662
469.61	0.661
469.81	0.662
470.01	0.661
470.22	0.661
470.42	0.659
470.62	0.657
470.82	0.658
471.02	0.657
471.23	0.655
471.43	0.655
471.63	0.657
471.83	0.656
472.04	0.654
472.24	0.653
472.44	0.658
472.64	0.658
472.84	0.657
473.05	0.657
473.25	0.659
473.45	0.659
473.65	0.656
473.85	0.657
474.06	0.659
474.26	0.659
474.46	0.660
474.66	0.657
474.86	0.657
475.07	0.657
475.27	0.655
475.47	0.653
475.67	0.654
475.87	0.657
476.08	0.653
476.28	0.654
476.48	0.655
476.68	0.653
476.88	0.651
477.09	0.653
477.29	0.654
477.49	0.655
477.69	0.654
477.89	0.654
478.09	0.653
478.30	0.656
478.50	0.652
478.70	0.652
478.90	0.652
479.10	0.655
479.31	0.655
479.51	0.653
479.71	0.654
479.91	0.654
480.11	0.653
480.31	0.653
480.52	0.652
480.72	0.652
480.92	0.651
481.12	0.650
481.32	0.648
481.52	0.646
481.72	0.646
481.93	0.649
482.13	0.650
482.33	0.650
482.53	0.647
482.73	0.648
482.93	0.649
483.14	0.648
483.34	0.648
483.54	0.648
483.74	0.647
483.94	0.647
484.14	0.643
484.34	0.642
484.55	0.643
484.75	0.643
484.95	0.641
485.15	0.641
485.35	0.641
485.55	0.641
485.75	0.639
485.96	0.639
486.16	0.640
486.36	0.640
486.56	0.638
486.76	0.638
486.96	0.638
487.16	0.638
487.36	0.636
487.57	0.635
487.77	0.636
487.97	0.637
488.17	0.635
488.37	0.634
488.57	0.635
488.77	0.635
488.97	0.634
489.18	0.634
489.38	0.636
489.58	0.637
489.78	0.636
489.98	0.636
490.18	0.635
490.38	0.636
490.58	0.635
490.78	0.636
490.98	0.637
491.19	0.638
491.39	0.637
491.59	0.636
491.79	0.639
491.99	0.639
492.19	0.639
492.39	0.642
492.59	0.642
492.79	0.644
492.99	0.644
493.20	0.644
493.40	0.644
493.60	0.646
493.80	0.645
494.00	0.642
494.20	0.643
494.40	0.642
494.60	0.640
494.80	0.644
495.00	0.644
495.20	0.642
495.40	0.640
495.61	0.642
495.81	0.641
496.01	0.645
496.21	0.645
496.41	0.645
496.61	0.646
496.81	0.644
497.01	0.639
497.21	0.638
497.41	0.639
497.61	0.639
497.81	0.636
498.01	0.637
498.21	0.634
498.41	0.632
498.61	0.632
498.82	0.633
499.02	0.636
499.22	0.636
499.42	0.636
499.62	0.637
499.82	0.638
500.02	0.640
500.22	0.638
500.42	0.640
500.62	0.641
500.82	0.642
501.02	0.640
501.22	0.640
501.42	0.640
501.62	0.642
501.82	0.641
502.02	0.641
502.22	0.641
502.42	0.643
502.62	0.641
502.82	0.641
503.02	0.641
503.22	0.641
503.42	0.639
503.63	0.639
503.83	0.637
504.03	0.636
504.23	0.634
504.43	0.634
504.63	0.635
504.83	0.634
505.03	0.633
505.23	0.635
505.43	0.637
505.63	0.638
505.83	0.637
506.03	0.639
506.23	0.641
506.43	0.642
506.63	0.641
506.83	0.640
507.03	0.642
507.23	0.643
507.43	0.640
507.63	0.640
507.83	0.641
508.03	0.642
508.23	0.640
508.43	0.639
508.63	0.640
508.83	0.641
509.03	0.642
509.23	0.641
509.43	0.642
509.63	0.642
509.83	0.640
510.03	0.643
510.23	0.644
510.43	0.646
510.63	0.646
510.83	0.646
511.03	0.647
511.23	0.645
511.43	0.644
511.63	0.646
511.83	0.648
512.03	0.648
512.22	0.645
512.42	0.644
512.62	0.645
512.82	0.644
513.02	0.643
513.22	0.642
513.42	0.644
513.62	0.647
513.82	0.645
514.02	0.644
514.22	0.646
514.42	0.647
514.62	0.647
514.82	0.647
515.02	0.650
515.22	0.653
515.42	0.651
515.62	0.653
515.82	0.652
516.02	0.653
516.22	0.653
516.42	0.654
516.62	0.656
516.82	0.657
517.01	0.655
517.21	0.654
517.41	0.659
517.61	0.659
517.81	0.656
518.01	0.655
518.21	0.655
518.41	0.654
518.61	0.653
518.81	0.654
519.01	0.655
519.21	0.655
519.41	0.654
519.61	0.649
519.81	0.651
520.00	0.652
520.20	0.652
520.40	0.655
520.60	0.656
520.80	0.655
521.00	0.655
521.20	0.655
521.40	0.660
521.60	0.661
521.80	0.659
522.00	0.659
522.20	0.662
522.39	0.661
522.59	0.658
522.79	0.660
522.99	0.663
523.19	0.661
523.39	0.659
523.59	0.657
523.79	0.660
523.99	0.663
524.19	0.661
524.38	0.660
524.58	0.662
524.78	0.662
524.98	0.659
525.18	0.661
525.38	0.663
525.58	0.663
525.78	0.661
525.98	0.659
526.18	0.659
526.37	0.659
526.57	0.661
526.77	0.660
526.97	0.661
527.17	0.661
527.37	0.657
527.57	0.659
527.77	0.660
527.96	0.661
528.16	0.659
528.36	0.660
528.56	0.662
528.76	0.660
528.96	0.659
529.16	0.661
529.36	0.664
529.55	0.665
529.75	0.661
529.95	0.662
530.15	0.663
530.35	0.666
530.55	0.663
530.75	0.664
530.94	0.666
531.14	0.666
531.34	0.663
531.54	0.661
531.74	0.664
531.94	0.667
532.13	0.665
532.33	0.667
532.53	0.666
532.73	0.665
532.93	0.663
533.13	0.665
533.33	0.665
533.52	0.666
533.72	0.669
533.92	0.666
534.12	0.665
534.32	0.665
534.52	0.663
534.71	0.665
534.91	0.668
535.11	0.669
535.31	0.667
535.51	0.669
535.71	0.671
535.90	0.668
536.10	0.669
536.30	0.670
536.50	0.672
536.70	0.672
536.89	0.670
537.09	0.670
537.29	0.671
537.49	0.672
537.69	0.670
537.89	0.670
538.08	0.670
538.28	0.668
538.48	0.669
538.68	0.670
538.88	0.672
539.07	0.672
539.27	0.669
539.47	0.669
539.67	0.669
539.87	0.670
540.06	0.668
540.26	0.669
540.46	0.671
540.66	0.668
540.86	0.666
541.05	0.666
541.25	0.668
541.45	0.668
541.65	0.666
541.84	0.668
542.04	0.668
542.24	0.669
542.44	0.667
542.64	0.669
542.83	0.672
543.03	0.672
543.23	0.670
543.43	0.671
543.62	0.672
543.82	0.673
544.02	0.672
544.22	0.673
544.42	0.676
544.61	0.677
544.81	0.674
545.01	0.672
545.21	0.674
545.40	0.674
545.60	0.672
545.80	0.676
546.00	0.676
546.19	0.675
546.39	0.674
546.59	0.671
546.79	0.672
546.98	0.672
547.18	0.672
547.38	0.672
547.58	0.675
547.77	0.675
547.97	0.671
548.17	0.673
548.37	0.673
548.56	0.674
548.76	0.673
548.96	0.675
549.16	0.678
549.35	0.678
549.55	0.675
549.75	0.676
549.95	0.680
550.14	0.680
550.34	0.678
550.54	0.684
550.73	0.688
550.93	0.688
551.13	0.684
551.33	0.683
551.52	0.683
551.72	0.684
551.92	0.682
552.12	0.683
552.31	0.683
552.51	0.684
552.71	0.678
552.90	0.678
553.10	0.679
553.30	0.679
553.50	0.678
553.69	0.680
553.89	0.680
554.09	0.680
554.28	0.676
554.48	0.679
554.68	0.681
554.87	0.681
555.07	0.678
555.27	0.678
555.47	0.680
555.66	0.681
555.86	0.679
556.06	0.682
556.25	0.683
556.45	0.692
556.65	0.689
556.84	0.692
557.04	0.695
557.24	0.697
557.43	0.696
557.63	0.699
557.83	0.701
558.02	0.701
558.22	0.705
558.42	0.705
558.61	0.698
558.81	0.699
559.01	0.694
559.21	0.694
559.40	0.695
559.60	0.695
559.80	0.691
559.99	0.692
560.19	0.694
560.39	0.688
560.58	0.686
560.78	0.686
560.97	0.690
561.17	0.688
561.37	0.686
561.56	0.687
561.76	0.688
561.96	0.687
562.15	0.685
562.35	0.687
562.55	0.689
562.74	0.688
562.94	0.687
563.14	0.684
563.33	0.685
563.53	0.685
563.73	0.682
563.92	0.684
564.12	0.687
564.31	0.689
564.51	0.687
564.71	0.689
564.90	0.692
565.10	0.694
565.30	0.697
565.49	0.698
565.69	0.700
565.89	0.701
566.08	0.698
566.28	0.699
566.47	0.701
566.67	0.700
566.87	0.697
567.06	0.699
567.26	0.705
567.46	0.700
567.65	0.700
567.85	0.701
568.04	0.703
568.24	0.702
568.44	0.699
568.63	0.697
568.83	0.698
569.02	0.696
569.22	0.691
569.42	0.687
569.61	0.690
569.81	0.688
570.00	0.685
570.20	0.687
570.40	0.689
570.59	0.689
570.79	0.687
570.98	0.685
571.18	0.687
571.38	0.687
571.57	0.684
571.77	0.682
571.96	0.686
572.16	0.683
572.35	0.678
572.55	0.678
572.75	0.677
572.94	0.677
573.14	0.675
573.33	0.676
573.53	0.676
573.73	0.675
573.92	0.673
574.12	0.671
574.31	0.673
574.51	0.674
574.70	0.671
574.90	0.673
575.09	0.675
575.29	0.675
575.49	0.672
575.68	0.673
575.88	0.674
576.07	0.675
576.27	0.674
576.46	0.673
576.66	0.672
576.86	0.671
577.05	0.669
577.25	0.667
577.44	0.669
577.64	0.669
577.83	0.666
578.03	0.667
578.22	0.667
578.42	0.665
578.61	0.664
578.81	0.665
579.00	0.665
579.20	0.665
579.40	0.664
579.59	0.662
579.79	0.663
579.98	0.662
580.18	0.662
580.37	0.662
580.57	0.665
580.76	0.669
580.96	0.667
581.15	0.668
581.35	0.670
581.54	0.669
581.74	0.669
581.93	0.671
582.13	0.672
582.32	0.669
582.52	0.667
582.71	0.667
582.91	0.663
583.10	0.663
583.30	0.661
583.49	0.660
583.69	0.665
583.88	0.665
584.08	0.664
584.27	0.666
584.47	0.669
584.66	0.670
584.86	0.669
585.05	0.671
585.25	0.673
585.44	0.673
585.64	0.672
585.83	0.669
586.03	0.670
586.22	0.668
586.42	0.665
586.61	0.667
586.81	0.670
587.00	0.669
587.20	0.667
587.39	0.667
587.59	0.669
587.78	0.670
587.98	0.670
588.17	0.671
588.37	0.674
588.56	0.675
588.76	0.671
588.95	0.671
589.15	0.675
589.34	0.677
589.54	0.676
589.73	0.676
589.92	0.680
590.12	0.680
590.31	0.677
590.51	0.683
590.70	0.685
590.90	0.685
591.09	0.684
591.29	0.683
591.48	0.683
591.68	0.684
591.87	0.682
592.06	0.682
592.26	0.684
592.45	0.683
592.65	0.676
592.84	0.676
593.04	0.679
593.23	0.680
593.43	0.678
593.62	0.678
593.81	0.678
594.01	0.677
594.20	0.674
594.40	0.673
594.59	0.675
594.79	0.677
594.98	0.675
595.17	0.674
595.37	0.675
595.56	0.677
595.76	0.676
595.95	0.677
596.14	0.681
596.34	0.682
596.53	0.681
596.73	0.682
596.92	0.683
597.12	0.686
597.31	0.686
597.50	0.685
597.70	0.687
597.89	0.686
598.09	0.683
598.28	0.684
598.47	0.686
598.67	0.684
598.86	0.681
599.06	0.683
599.25	0.683
599.44	0.681
599.64	0.678
599.83	0.677
600.03	0.680
600.22	0.681
600.41	0.680
600.61	0.678
600.80	0.681
601.00	0.682
601.19	0.678
601.38	0.676
601.58	0.679
601.77	0.680
601.96	0.681
602.16	0.681
602.35	0.690
602.55	0.688
602.74	0.689
602.93	0.690
603.13	0.696
603.32	0.697
603.51	0.696
603.71	0.699
603.90	0.701
604.09	0.702
604.29	0.699
604.48	0.693
604.68	0.695
604.87	0.693
605.06	0.690
605.26	0.686
605.45	0.687
605.64	0.686
605.84	0.682
606.03	0.681
606.22	0.680
606.42	0.679
606.61	0.675
606.80	0.675
607.00	0.677
607.19	0.677
607.38	0.676
607.58	0.677
607.77	0.680
607.96	0.679
608.16	0.678
608.35	0.682
608.54	0.685
608.74	0.689
608.93	0.694
609.12	0.697
609.32	0.699
609.51	0.703
609.70	0.702
609.90	0.704
610.09	0.709
610.28	0.714
610.48	0.708
610.67	0.710
610.86	0.711
611.06	0.706
611.25	0.703
611.44	0.704
611.64	0.704
611.83	0.706
612.02	0.702
612.21	0.701
612.41	0.700
612.60	0.699
612.79	0.694
612.99	0.694
613.18	0.696
613.37	0.694
613.57	0.691
613.76	0.692
613.95	0.690
614.14	0.690
614.34	0.687
614.53	0.688
614.72	0.691
614.92	0.691
615.11	0.688
615.30	0.684
615.49	0.687
615.69	0.689
615.88	0.686
616.07	0.687
616.26	0.689
616.46	0.690
616.65	0.687
616.84	0.685
617.04	0.687
617.23	0.691
617.42	0.691
617.61	0.695
617.81	0.696
618.00	0.698
618.19	0.697
618.38	0.701
618.58	0.704
618.77	0.706
618.96	0.705
619.15	0.707
619.35	0.709
619.54	0.709
619.73	0.704
619.92	0.706
620.12	0.710
620.31	0.710
620.50	0.705
620.69	0.705
620.89	0.708
621.08	0.708
621.27	0.707
621.46	0.706
621.66	0.710
621.85	0.710
622.04	0.706
622.23	0.707
622.43	0.708
622.62	0.707
622.81	0.707
623.00	0.705
623.19	0.709
623.39	0.709
623.58	0.706
623.77	0.705
623.96	0.709
624.16	0.709
624.35	0.703
624.54	0.707
624.73	0.711
624.92	0.709
625.12	0.706
625.31	0.707
625.50	0.710
625.69	0.711
625.88	0.707
626.08	0.706
626.27	0.708
626.46	0.708
626.65	0.705
626.84	0.705
627.04	0.711
627.23	0.711
627.42	0.707
627.61	0.709
627.80	0.712
628.00	0.713
628.19	0.710
628.38	0.714
628.57	0.717
628.76	0.716
628.96	0.712
629.15	0.713
629.34	0.716
629.53	0.716
629.72	0.710
629.91	0.710
630.11	0.715
630.30	0.716
630.49	0.719
630.68	0.719
630.87	0.723
631.06	0.725
631.26	0.719
631.45	0.721
631.64	0.730
631.83	0.732
632.02	0.730
632.21	0.729
632.41	0.736
632.60	0.730
632.79	0.729
632.98	0.729
633.17	0.730
633.36	0.734
633.55	0.730
633.75	0.725
633.94	0.726
634.13	0.727
634.32	0.723
634.51	0.717
634.70	0.720
634.89	0.718
635.09	0.715
635.28	0.716
635.47	0.717
635.66	0.720
635.85	0.716
636.04	0.718
636.23	0.722
636.43	0.723
636.62	0.723
636.81	0.722
637.00	0.725
637.19	0.728
637.38	0.724
637.57	0.723
637.76	0.725
637.95	0.726
638.15	0.722
638.34	0.719
638.53	0.722
638.72	0.724
638.91	0.720
639.10	0.717
639.29	0.718
639.48	0.720
639.67	0.720
639.87	0.718
640.06	0.723
640.25	0.722
640.44	0.723
640.63	0.724
640.82	0.727
641.01	0.727
641.20	0.727
641.39	0.728
641.58	0.729
641.78	0.728
641.97	0.723
642.16	0.738
642.35	0.739
642.54	0.738
642.73	0.732
642.92	0.731
643.11	0.736
643.30	0.735
643.49	0.731
643.68	0.734
643.87	0.735
644.06	0.737
644.25	0.715
644.45	0.718
644.64	0.719
644.83	0.720
645.02	0.716
645.21	0.714
645.40	0.715
645.59	0.714
645.78	0.708
645.97	0.711
646.16	0.712
646.35	0.712
646.54	0.709
646.73	0.710
646.92	0.712
647.11	0.711
647.30	0.708
647.49	0.711
647.68	0.711
647.88	0.709
648.07	0.703
648.26	0.706
648.45	0.708
648.64	0.704
648.83	0.701
649.02	0.704
649.21	0.715
649.40	0.714
649.59	0.708
649.78	0.709
649.97	0.724
650.16	0.722
650.35	0.716
650.54	0.719
650.73	0.728
650.92	0.725
651.11	0.717
651.30	0.715
651.49	0.720
651.68	0.720
651.87	0.717
652.06	0.706
652.25	0.710
652.44	0.713
652.63	0.709
652.82	0.708
653.01	0.708
653.20	0.705
653.39	0.694
653.58	0.691
653.77	0.690
653.96	0.686
654.15	0.677
654.34	0.675
654.53	0.670
654.72	0.664
654.91	0.655
655.10	0.651
655.29	0.649
655.48	0.647
655.67	0.642
655.86	0.639
656.05	0.637
656.24	0.637
656.43	0.632
656.62	0.632
656.81	0.632
657.00	0.630
657.19	0.628
657.38	0.628
657.57	0.627
657.76	0.630
657.95	0.627
658.14	0.631
658.33	0.634
658.51	0.640
658.70	0.640
658.89	0.642
659.08	0.651
659.27	0.659
659.46	0.659
659.65	0.665
659.84	0.669
660.03	0.673
660.22	0.673
660.41	0.678
660.60	0.677
660.79	0.679
660.98	0.685
661.17	0.683
661.36	0.682
661.55	0.683
661.74	0.681
661.92	0.684
662.11	0.686
662.30	0.685
662.49	0.679
662.68	0.678
662.87	0.681
663.06	0.675
663.25	0.676
663.44	0.676
663.63	0.677
663.82	0.675
664.01	0.669
664.20	0.668
664.38	0.670
664.57	0.669
664.76	0.669
664.95	0.669
665.14	0.673
665.33	0.668
665.52	0.675
665.71	0.679
665.90	0.679
666.09	0.680
666.28	0.677
666.46	0.676
666.65	0.677
666.84	0.676
667.03	0.670
667.22	0.668
667.41	0.672
667.60	0.661
667.79	0.654
667.98	0.656
668.16	0.656
668.35	0.656
668.54	0.652
668.73	0.653
668.92	0.654
669.11	0.653
669.30	0.647
669.49	0.643
669.67	0.645
669.86	0.647
670.05	0.644
670.24	0.643
670.43	0.641
670.62	0.640
670.81	0.635
671.00	0.636
671.18	0.636
671.37	0.636
671.56	0.634
671.75	0.633
671.94	0.630
672.13	0.628
672.32	0.622
672.50	0.621
672.69	0.621
672.88	0.622
673.07	0.617
673.26	0.618
673.45	0.620
673.63	0.620
673.82	0.616
674.01	0.618
674.20	0.618
674.39	0.618
674.58	0.617
674.76	0.618
674.95	0.616
675.14	0.617
675.33	0.612
675.52	0.610
675.71	0.610
675.89	0.610
676.08	0.605
676.27	0.604
676.46	0.604
676.65	0.604
676.84	0.603
677.02	0.606
677.21	0.607
677.40	0.607
677.59	0.605
677.78	0.606
677.96	0.608
678.15	0.608
678.34	0.606
678.53	0.607
678.72	0.607
678.90	0.603
679.09	0.599
679.28	0.596
679.47	0.596
679.66	0.595
679.84	0.591
680.03	0.589
680.22	0.587
680.41	0.589
680.60	0.586
680.78	0.585
680.97	0.588
681.16	0.588
681.35	0.587
681.53	0.586
681.72	0.588
681.91	0.590
682.10	0.587
682.29	0.591
682.47	0.588
682.66	0.588
682.85	0.586
683.04	0.583
683.22	0.583
683.41	0.585
683.60	0.584
683.79	0.585
683.97	0.584
684.16	0.583
684.35	0.579
684.54	0.580
684.72	0.580
684.91	0.581
685.10	0.579
685.29	0.581
685.47	0.577
685.66	0.576
685.85	0.572
686.04	0.572
686.22	0.575
686.41	0.577
686.60	0.574
686.79	0.577
686.97	0.578
687.16	0.580
687.35	0.577
687.54	0.581
687.72	0.584
687.91	0.584
688.10	0.587
688.29	0.586
688.47	0.584
688.66	0.585
688.85	0.581
689.03	0.578
689.22	0.583
689.41	0.583
689.60	0.578
689.78	0.576
689.97	0.577
690.16	0.574
690.34	0.570
690.53	0.570
690.72	0.570
690.91	0.567
691.09	0.566
691.28	0.560
691.47	0.557
691.65	0.556
691.84	0.553
692.03	0.552
692.21	0.550
692.40	0.550
692.59	0.547
692.77	0.546
692.96	0.548
693.15	0.548
693.34	0.546
693.52	0.547
693.71	0.547
693.90	0.548
694.08	0.549
694.27	0.550
694.46	0.559
694.64	0.561
694.83	0.560
695.02	0.559
695.20	0.559
695.39	0.559
695.58	0.558
695.76	0.559
695.95	0.559
696.14	0.558
696.32	0.556
696.51	0.545
696.70	0.545
696.88	0.547
697.07	0.545
697.26	0.547
697.44	0.548
697.63	0.547
697.81	0.545
698.00	0.545
698.19	0.544
698.37	0.545
698.56	0.545
698.75	0.544
698.93	0.544
699.12	0.543
699.31	0.542
699.49	0.541
699.68	0.542
699.87	0.545
700.05	0.544
700.24	0.543
700.42	0.545
700.61	0.544
700.80	0.542
700.98	0.543
701.17	0.544
701.36	0.543
701.54	0.542
701.73	0.544
701.91	0.541
702.10	0.540
702.29	0.538
702.47	0.538
702.66	0.539
702.84	0.540
703.03	0.537
703.22	0.539
703.40	0.539
703.59	0.541
703.77	0.541
703.96	0.541
704.15	0.542
704.33	0.542
704.52	0.541
704.70	0.540
704.89	0.540
705.08	0.539
705.26	0.535
705.45	0.534
705.63	0.534
705.82	0.531
706.00	0.529
706.19	0.529
706.38	0.529
706.56	0.529
706.75	0.527
706.93	0.525
707.12	0.527
707.30	0.527
707.49	0.525
707.68	0.523
707.86	0.522
708.05	0.522
708.23	0.519
708.42	0.519
708.60	0.521
708.79	0.521
708.98	0.520
709.16	0.519
709.35	0.521
709.53	0.525
709.72	0.524
709.90	0.525
710.09	0.528
710.27	0.530
710.46	0.534
710.64	0.532
710.83	0.534
711.02	0.535
711.20	0.534
711.39	0.533
711.57	0.531
711.76	0.532
711.94	0.530
712.13	0.531
712.31	0.531
712.50	0.527
712.68	0.524
712.87	0.526
713.05	0.527
713.24	0.528
713.42	0.527
713.61	0.527
713.79	0.528
713.98	0.528
714.16	0.529
714.35	0.529
714.54	0.530
714.72	0.530
714.91	0.528
715.09	0.534
715.28	0.537
715.46	0.537
715.65	0.535
715.83	0.535
716.02	0.537
716.20	0.534
716.39	0.532
716.57	0.533
716.76	0.536
716.94	0.536
717.12	0.527
717.31	0.528
717.49	0.531
717.68	0.533
717.86	0.533
718.05	0.535
718.23	0.538
718.42	0.541
718.60	0.542
718.79	0.549
718.97	0.552
719.16	0.553
719.34	0.551
719.53	0.550
719.71	0.550
719.90	0.551
720.08	0.549
720.27	0.549
720.45	0.548
720.63	0.547
720.82	0.541
721.00	0.542
721.19	0.546
721.37	0.545
721.56	0.546
721.74	0.548
721.93	0.557
722.11	0.564
722.30	0.563
722.48	0.568
722.66	0.569
722.85	0.569
723.03	0.570
723.22	0.569
723.40	0.571
723.59	0.571
723.77	0.575
723.95	0.568
724.14	0.570
724.32	0.571
724.51	0.571
724.69	0.572
724.88	0.572
725.06	0.570
725.24	0.571
725.43	0.573
725.61	0.575
725.80	0.569
725.98	0.567
726.16	0.564
726.35	0.572
726.53	0.571
726.72	0.569
726.90	0.579
727.09	0.580
727.27	0.585
727.45	0.581
727.64	0.591
727.82	0.600
728.01	0.604
728.19	0.601
728.37	0.605
728.56	0.611
728.74	0.617
728.92	0.607
729.11	0.609
729.29	0.610
729.48	0.613
729.66	0.601
729.84	0.601
730.03	0.604
730.21	0.606
730.40	0.597
730.58	0.597
730.76	0.597
730.95	0.599
731.13	0.599
731.31	0.613
731.50	0.623
731.68	0.628
731.86	0.624
732.05	0.640
732.23	0.645
732.42	0.648
732.60	0.652
732.78	0.658
732.97	0.677
733.15	0.685
733.33	0.672
733.52	0.680
733.70	0.691
733.88	0.701
734.07	0.685
734.25	0.712
734.43	0.722
734.62	0.725
734.80	0.719
734.98	0.709
735.17	0.716
735.35	0.721
735.53	0.708
735.72	0.713
735.90	0.735
736.08	0.755
736.27	0.729
736.45	0.737
736.63	0.751
736.82	0.762
737.00	0.765
737.18	0.776
737.37	0.810
737.55	0.834
737.73	0.828
737.92	0.832
738.10	0.832
738.28	0.855
738.46	0.841
738.65	0.857
738.83	0.883
739.01	0.942
739.20	0.930
739.38	0.914
739.56	0.908
739.75	0.912
739.93	0.872
740.11	0.899
740.29	0.905
740.48	0.914
740.66	0.890
740.84	0.883
741.03	0.844
741.21	0.855
741.39	0.834
741.57	0.850
741.76	0.872
741.94	0.880
742.12	0.838
742.31	0.842
742.49	0.864
742.67	0.890
742.85	0.904
743.04	0.908
743.22	0.922
743.40	0.982
743.58	0.960
743.77	0.976
743.95	1.022
744.13	1.089
744.31	1.063
744.50	1.062
744.68	1.065
744.86	1.035
745.04	1.045
745.23	1.118
745.41	1.101
745.59	1.105
745.77	1.063
745.96	1.047
746.14	1.057
746.32	1.053
746.50	1.037
746.69	1.017
746.87	1.032
747.05	1.017
747.23	0.938
747.42	0.919
747.60	0.952
747.78	0.958
747.96	0.991
748.14	0.939
748.33	0.976
748.51	0.971
748.69	0.965
748.87	0.996
749.06	1.000
749.24	0.997
749.42	0.976
749.60	0.957
749.78	0.968
749.97	0.913
750.15	0.906
750.33	0.906
750.51	0.934
750.69	0.938
750.88	0.938
751.06	0.948
751.24	0.984
751.42	0.977
751.60	0.960
751.79	1.041
751.97	1.107
752.15	1.109
752.33	1.067
752.51	1.157
752.69	1.182
752.88	1.143
753.06	1.203
753.24	1.162
753.42	1.211
753.60	1.476
753.78	1.246
753.97	1.262
754.15	1.284
754.33	1.325
754.51	1.140
754.69	1.116
754.87	1.155
755.06	1.059
755.24	1.055
755.42	1.062
755.60	0.947
755.78	0.957
755.96	0.894
756.15	0.896
756.33	0.902
756.51	0.924
756.69	0.908
756.87	0.868
757.05	0.891
757.23	0.874
757.42	0.839
757.60	0.838
757.78	0.825
757.96	0.825
758.14	0.805
758.32	0.789
758.50	0.805
758.69	0.802
758.87	0.796
759.05	0.800
759.23	0.810
759.41	0.811
759.59	0.804
759.77	0.828
759.95	0.858
760.13	0.913
760.32	0.911
760.50	0.901
760.68	0.932
760.86	0.931
761.04	0.900
761.22	0.907
761.40	0.960
761.58	0.960
761.76	0.926
761.95	0.907
762.13	0.858
762.31	0.860
762.49	0.828
762.67	0.847
762.85	0.863
763.03	0.857
763.21	0.834
763.39	0.813
763.57	0.817
763.75	0.815
763.94	0.798
764.12	0.798
764.30	0.825
764.48	0.826
764.66	0.785
764.84	0.782
765.02	0.823
765.20	0.830
765.38	0.808
765.56	0.811
765.74	0.854
765.92	0.853
766.10	0.860
766.28	0.851
766.46	0.882
766.65	0.881
766.83	0.868
767.01	0.850
767.19	0.859
767.37	0.860
767.55	0.846
767.73	0.820
767.91	0.826
768.09	0.814
768.27	0.803
768.45	0.793
768.63	0.798
768.81	0.798
768.99	0.769
769.17	0.794
769.35	0.810
769.53	0.809
769.71	0.790
769.89	0.796
770.07	0.802
770.25	0.782
770.43	0.762
770.61	0.788
770.79	0.796
770.97	0.810
771.15	0.780
771.33	0.782
771.51	0.784
771.69	0.798
771.87	0.807
772.05	0.814
772.24	0.824
772.42	0.833
772.60	0.808
772.78	0.873
772.96	0.903
773.14	0.893
773.32	0.869
773.49	0.879
773.67	0.875
773.85	0.855
774.03	0.841
774.21	0.876
774.39	0.890
774.57	0.916
774.75	0.837
774.93	0.830
775.11	0.859
775.29	0.867
775.47	0.868
775.65	0.880
775.83	0.901
776.01	0.925
776.19	0.871
776.37	0.870
776.55	0.870
776.73	0.864
776.91	0.859
777.09	0.844
777.27	0.840
777.45	0.828
777.63	0.802
777.81	0.796
777.99	0.785
778.17	0.785
778.35	0.763
778.53	0.754
778.71	0.760
778.89	0.746
779.07	0.728
779.24	0.730
779.42	0.730
779.60	0.748
779.78	0.745
779.96	0.748
780.14	0.758
780.32	0.779
780.50	0.755
780.68	0.754
780.86	0.748
781.04	0.767
781.22	0.773
781.40	0.785
781.58	0.778
781.75	0.767
781.93	0.751
782.11	0.751
782.29	0.736
782.47	0.739
782.65	0.727
782.83	0.755
783.01	0.748
783.19	0.741
783.37	0.726
783.55	0.728
783.72	0.750
783.90	0.759
784.08	0.747
784.26	0.760
784.44	0.780
784.62	0.782
784.80	0.748
784.98	0.757
785.16	0.765
785.33	0.778
785.51	0.762
785.69	0.746
785.87	0.746
786.05	0.760
786.23	0.754
786.41	0.750
786.59	0.759
786.77	0.759
786.94	0.742
787.12	0.743
787.30	0.746
787.48	0.743
787.66	0.729
787.84	0.728
788.02	0.719
788.19	0.714
788.37	0.700
788.55	0.702
788.73	0.702
788.91	0.696
789.09	0.679
789.27	0.669
789.44	0.683
789.62	0.690
789.80	0.700
789.98	0.725
790.16	0.713
790.34	0.710
790.51	0.695
790.69	0.716
790.87	0.724
791.05	0.721
791.23	0.714
791.41	0.713
791.58	0.721
791.76	0.698
791.94	0.667
792.12	0.677
792.30	0.679
792.48	0.677
792.65	0.671
792.83	0.675
793.01	0.682
793.19	0.679
793.37	0.664
793.54	0.661
793.72	0.674
793.90	0.672
794.08	0.660
794.26	0.661
794.43	0.672
794.61	0.655
794.79	0.645
794.97	0.646
795.15	0.653
795.32	0.656
795.50	0.643
795.68	0.639
795.86	0.644
796.04	0.645
796.21	0.640
796.39	0.638
796.57	0.653
796.75	0.661
796.92	0.659
797.10	0.664
797.28	0.666
797.46	0.671
797.64	0.672
797.81	0.680
797.99	0.686
798.17	0.689
798.35	0.680
798.52	0.683
798.70	0.678
798.88	0.688
799.06	0.688
799.23	0.691
799.41	0.700
799.59	0.692
799.77	0.680
799.94	0.688
800.12	0.699
800.30	0.717
800.48	0.715
800.65	0.718
800.83	0.708
801.01	0.697
801.19	0.697
801.36	0.693
801.54	0.699
801.72	0.708
801.90	0.694
802.07	0.689
802.25	0.675
802.43	0.658
802.60	0.652
802.78	0.659
802.96	0.665
803.14	0.658
803.31	0.655
803.49	0.655
803.67	0.653
803.84	0.656
804.02	0.646
804.20	0.649
804.38	0.656
804.55	0.655
804.73	0.641
804.91	0.642
805.08	0.654
805.26	0.648
805.44	0.714
805.61	0.716
805.79	0.717
805.97	0.718
806.15	0.711
806.32	0.705
806.50	0.711
806.68	0.713
806.85	0.701
807.03	0.692
807.21	0.710
807.38	0.640
807.56	0.628
807.74	0.638
807.91	0.642
808.09	0.644
808.27	0.662
808.44	0.690
808.62	0.699
808.80	0.703
808.97	0.698
809.15	0.692
809.33	0.711
809.50	0.719
809.68	0.703
809.86	0.714
810.03	0.751
810.21	0.729
810.39	0.710
810.56	0.716
810.74	0.740
810.91	0.818
811.09	0.805
811.27	0.828
811.44	0.835
811.62	0.838
811.80	0.820
811.97	0.785
812.15	0.786
812.33	0.781
812.50	0.763
812.68	0.752
812.85	0.693
813.03	0.697
813.21	0.664
813.38	0.658
813.56	0.660
813.74	0.670
813.91	0.677
814.09	0.706
814.26	0.699
814.44	0.701
814.62	0.690
814.79	0.694
814.97	0.699
815.14	0.706
815.32	0.708
815.50	0.725
815.67	0.729
815.85	0.718
816.02	0.706
816.20	0.715
816.38	0.733
816.55	0.737
816.73	0.737
816.90	0.749
817.08	0.779
817.26	0.788
817.43	0.767
817.61	0.793
817.78	0.817
817.96	0.797
818.13	0.786
818.31	0.786
818.49	0.803
818.66	0.792
818.84	0.776
819.01	0.753
819.19	0.758
819.36	0.762
819.54	0.731
819.71	0.775
819.89	0.793
820.07	0.806
820.24	0.797
820.42	0.796
820.59	0.819
820.77	0.844
820.94	0.835
821.12	0.854
821.29	0.872
821.47	0.873
821.64	0.802
821.82	0.818
822.00	0.815
822.17	0.816
822.35	0.808
822.52	0.812
822.70	0.800
822.87	0.810
823.05	0.793
823.22	0.803
823.40	0.836
823.57	0.862
823.75	0.839
823.92	0.869
824.10	0.893
824.27	0.942
824.45	0.929
824.62	1.003
824.80	1.025
824.97	1.043
825.15	1.033
825.32	1.048
825.50	1.063
825.67	1.083
825.85	1.054
826.02	1.081
826.20	1.117
826.37	1.306
826.55	1.190
826.72	1.540
826.90	1.724
827.07	1.925
827.25	1.720
827.42	2.660
827.60	-0.000
827.77	-0.000
827.95	-0.000
828.12	-0.000
828.30	-0.000
828.47	-0.000
828.65	1.785
828.82	2.157
829.00	-0.000
829.17	-0.000
829.34	-0.000
829.52	-0.000
829.69	-0.000
829.87	-0.000
830.04	-0.000
830.22	-0.000
830.39	-0.000
830.57	-0.000
830.74	-0.000
830.92	-0.000
831.09	-0.000
831.26	-0.000
831.44	-0.000
831.61	-0.000
831.79	-0.000
831.96	-0.000
832.14	-0.000
832.31	-0.000
832.49	-0.000
832.66	-0.000
832.83	-0.000
833.01	-0.000
833.18	-0.000
833.36	-0.000
833.53	-0.000
833.70	-0.000
833.88	-0.000
834.05	-0.000
834.23	-0.000
834.40	-0.000
834.58	-0.000
834.75	-0.000
834.92	-0.000
835.10	-0.000
835.27	-0.000
835.45	-0.000
835.62	-0.000
835.79	-0.000
835.97	-0.000
836.14	-0.000
836.32	-0.000
836.49	-0.000
836.66	-0.000
836.84	-0.000
837.01	-0.000
837.18	-0.000
837.36	-0.000
837.53	-0.000
837.71	-0.000
837.88	-0.000
838.05	-0.000
838.23	-0.000
838.40	-0.000
838.58	-0.000
838.75	-0.000
838.92	-0.000
839.10	-0.000
839.27	-0.000
839.44	-0.000
839.62	-0.000
839.79	-0.000
839.96	-0.000
840.14	-0.000
840.31	-0.000
840.48	-0.000
840.66	-0.000
840.83	-0.000
841.01	-0.000
841.18	-0.000
841.35	-0.000
841.53	-0.000
841.70	-0.000
841.87	-0.000
842.05	-0.000
842.22	-0.000
842.39	-0.000
842.57	-0.000
842.74	-0.000
842.91	-0.000
843.09	-0.000
843.26	-0.000
843.43	-0.000
843.60	-0.000
843.78	-0.000
843.95	-0.000
844.12	-0.000
844.30	-0.000
844.47	-0.000
844.64	-0.000
844.82	-0.000
844.99	-0.000
845.16	-0.000
845.34	-0.000
845.51	-0.000
845.68	-0.000
845.85	-0.000
846.03	-0.000
846.20	-0.000
846.37	-0.000
846.55	-0.000
846.72	-0.000
846.89	-0.000
847.06	-0.000
847.24	-0.000
847.41	-0.000
847.58	-0.000
847.76	-0.000
847.93	-0.000
848.10	-0.000
848.27	-0.000
848.45	-0.000
848.62	-0.000
848.79	-0.000
848.97	-0.000
849.14	-0.000
849.31	-0.000
849.48	-0.000
849.66	-0.000
849.83	-0.000
850.00	-0.000
850.17	-0.000
850.35	-0.000
850.52	-0.000
850.69	-0.000
850.86	-0.000
851.04	-0.000
851.21	-0.000
851.38	-0.000
851.55	-0.000
851.72	-0.000
851.90	-0.000
852.07	-0.000
852.24	-0.000
852.41	-0.000
852.59	-0.000
852.76	-0.000
852.93	-0.000
853.10	-0.000
853.28	-0.000
853.45	-0.000
853.62	-0.000
853.79	-0.000
853.96	-0.000
854.14	-0.000
854.31	-0.000
854.48	-0.000
854.65	-0.000
854.82	-0.000
855.00	-0.000
855.17	-0.000
855.34	-0.000
855.51	-0.000
855.68	-0.000
855.86	-0.000
856.03	-0.000
856.20	-0.000
856.37	-0.000
856.54	-0.000
856.72	-0.000
856.89	-0.000
857.06	-0.000
857.23	-0.000
857.40	-0.000
857.57	-0.000
857.75	-0.000
857.92	-0.000
858.09	-0.000
858.26	-0.000
858.43	-0.000
858.60	-0.000
858.78	-0.000
858.95	-0.000
859.12	-0.000
859.29	-0.000
859.46	-0.000
859.63	-0.000
859.81	-0.000
859.98	-0.000
860.15	-0.000
860.32	-0.000
860.49	-0.000
860.66	-0.000
860.83	-0.000
861.01	-0.000
861.18	-0.000
861.35	-0.000
861.52	-0.000
861.69	-0.000
861.86	-0.000
862.03	-0.000
862.21	-0.000
862.38	-0.000
862.55	-0.000
862.72	-0.000
862.89	-0.000
863.06	-0.000
863.23	-0.000
863.40	-0.000
863.58	-0.000
863.75	-0.000
863.92	-0.000
864.09	-0.000
864.26	-0.000
864.43	-0.000
864.60	-0.000
864.77	-0.000
864.94	-0.000
865.11	-0.000
865.29	-0.000
865.46	-0.000
865.63	-0.000
865.80	-0.000
865.97	-0.000
866.14	-0.000
866.31	-0.000
866.48	-0.000
866.65	-0.000
866.82	-0.000
866.99	-0.000
867.16	-0.000
867.34	-0.000
867.51	-0.000
867.68	-0.000
867.85	-0.000
868.02	-0.000
868.19	-0.000
868.36	-0.000
868.53	-0.000
868.70	-0.000
868.87	-0.000
869.04	-0.000
869.21	-0.000
869.38	-0.000
869.55	-0.000
869.72	-0.000
869.89	-0.000
870.06	-0.000
870.24	-0.000
870.41	-0.000
870.58	-0.000
870.75	-0.000
870.92	-0.000
871.09	-0.000
871.26	-0.000
871.43	-0.000
871.60	-0.000
871.77	-0.000
871.94	-0.000
872.11	-0.000
872.28	-0.000
872.45	-0.000
872.62	-0.000
872.79	-0.000
872.96	-0.000
873.13	-0.000
873.30	-0.000
873.47	-0.000
873.64	-0.000
873.81	-0.000
873.98	-0.000
874.15	-0.000
874.32	-0.000
874.49	-0.000
874.66	-0.000
874.83	-0.000
875.00	-0.000
875.17	-0.000
875.34	-0.000
875.51	-0.000
875.68	-0.000
875.85	-0.000
876.02	-0.000
876.19	-0.000
876.36	-0.000
876.53	-0.000
876.70	-0.000
876.87	-0.000
877.04	-0.000
877.21	-0.000
877.38	-0.000
877.55	-0.000
877.72	-0.000
877.89	-0.000
878.06	-0.000
878.23	-0.000
878.39	-0.000
878.56	-0.000
878.73	-0.000
878.90	-0.000
879.07	-0.000
879.24	-0.000
879.41	-0.000
879.58	-0.000
879.75	-0.000
879.92	-0.000
880.09	-0.000
880.26	-0.000
880.43	-0.000
880.60	-0.000
880.77	-0.000
880.94	-0.000
881.11	-0.000
881.27	-0.000
881.44	-0.000
881.61	-0.000
881.78	-0.000
881.95	-0.000
882.12	-0.000
882.29	-0.000
882.46	-0.000
882.63	-0.000
882.80	-0.000
882.97	-0.000
883.14	-0.000
883.30	-0.000
883.47	-0.000
883.64	-0.000
883.81	-0.000
883.98	-0.000
884.15	-0.000
884.32	-0.000
884.49	-0.000
884.66	-0.000
884.82	-0.000
884.99	-0.000
885.16	-0.000
885.33	-0.000
885.50	-0.000
885.67	-0.000
885.84	-0.000
886.01	-0.000
886.17	-0.000
886.34	-0.000
886.51	-0.000
886.68	-0.000
886.85	-0.000
887.02	-0.000
887.19	-0.000
887.36	-0.000
887.52	-0.000
887.69	-0.000
887.86	-0.000
888.03	-0.000
888.20	-0.000
888.37	-0.000
888.54	-0.000
888.70	-0.000
888.87	-0.000
889.04	-0.000
889.21	-0.000
889.38	-0.000
889.55	-0.000
889.71	-0.000
889.88	-0.000
890.05	-0.000
890.22	-0.000
890.39	-0.000
>>>>>End Processed Spectral Data<<<<<
