SpectraSuite Data File
++++++++++++++++++++++++++++++++++++
Date: Fri Jun 19 11:39:29 CEST 2015
User: introlabs
Dark Spectrum Present: Yes
Reference Spectrum Present: Yes
Number of Sampled Component Spectra: 1
Spectrometers: USB4H08886
Integration Time (usec): 5245692 (USB4H08886)
Spectra Averaged: 5 (USB4H08886)
Boxcar Smoothing: 5 (USB4H08886)
Correct for Electrical Dark: Yes (USB4H08886)
Strobe/Lamp Enabled: No (USB4H08886)
Correct for Detector Non-linearity: Yes (USB4H08886)
Correct for Stray Light: Yes (USB4H08886)
Number of Pixels in Processed Spectrum: 3648
>>>>>Begin Processed Spectral Data<<<<<
178.14	-0.000
178.36	-0.000
178.57	-0.000
178.79	-0.000
179.01	-0.000
179.22	-0.000
179.44	-0.000
179.65	-0.000
179.87	-0.000
180.08	-0.000
180.30	-0.000
180.52	-0.000
180.73	-0.000
180.95	-0.000
181.16	-0.000
181.38	-0.000
181.59	-0.000
181.81	-0.000
182.03	-0.000
182.24	-0.000
182.46	-0.000
182.67	-0.000
182.89	-0.000
183.10	-0.000
183.32	-0.000
183.54	-0.000
183.75	-0.000
183.97	-0.000
184.18	-0.000
184.40	-0.000
184.61	-0.000
184.83	-0.000
185.04	-0.000
185.26	-0.000
185.48	-0.000
185.69	-0.000
185.91	-0.000
186.12	-0.000
186.34	-0.000
186.55	-0.000
186.77	-0.000
186.98	-0.000
187.20	-0.000
187.42	-0.000
187.63	-0.000
187.85	-0.000
188.06	-0.000
188.28	-0.000
188.49	-0.000
188.71	-0.000
188.92	-0.000
189.14	-0.000
189.36	-0.000
189.57	-0.000
189.79	-0.000
190.00	-0.000
190.22	-0.000
190.43	-0.000
190.65	-0.000
190.86	-0.000
191.08	-0.000
191.29	-0.000
191.51	-0.000
191.72	-0.000
191.94	-0.000
192.16	-0.000
192.37	-0.000
192.59	-0.000
192.80	-0.000
193.02	-0.000
193.23	-0.000
193.45	-0.000
193.66	-0.000
193.88	-0.000
194.09	-0.000
194.31	-0.000
194.52	-0.000
194.74	-0.000
194.95	-0.000
195.17	-0.000
195.38	-0.000
195.60	-0.000
195.81	-0.000
196.03	-0.000
196.25	-0.000
196.46	-0.000
196.68	-0.000
196.89	-0.000
197.11	-0.000
197.32	-0.000
197.54	-0.000
197.75	-0.000
197.97	-0.000
198.18	-0.000
198.40	-0.000
198.61	-0.000
198.83	-0.000
199.04	-0.000
199.26	-0.000
199.47	-0.000
199.69	-0.000
199.90	-0.000
200.12	-0.000
200.33	-0.000
200.55	-0.000
200.76	-0.000
200.98	-0.000
201.19	-0.000
201.41	-0.000
201.62	-0.000
201.84	-0.000
202.05	-0.000
202.27	-0.000
202.48	-0.000
202.70	-0.000
202.91	-0.000
203.13	-0.000
203.34	-0.000
203.56	-0.000
203.77	-0.000
203.99	-0.000
204.20	-0.000
204.42	-0.000
204.63	-0.000
204.85	-0.000
205.06	-0.000
205.28	-0.000
205.49	-0.000
205.71	-0.000
205.92	-0.000
206.14	-0.000
206.35	-0.000
206.56	-0.000
206.78	-0.000
206.99	-0.000
207.21	-0.000
207.42	-0.000
207.64	-0.000
207.85	-0.000
208.07	-0.000
208.28	-0.000
208.50	-0.000
208.71	-0.000
208.93	-0.000
209.14	-0.000
209.36	-0.000
209.57	-0.000
209.79	-0.000
210.00	-0.000
210.22	-0.000
210.43	-0.000
210.64	-0.000
210.86	-0.000
211.07	-0.000
211.29	-0.000
211.50	-0.000
211.72	-0.000
211.93	-0.000
212.15	-0.000
212.36	-0.000
212.58	-0.000
212.79	-0.000
213.01	-0.000
213.22	-0.000
213.43	-0.000
213.65	-0.000
213.86	-0.000
214.08	-0.000
214.29	-0.000
214.51	-0.000
214.72	-0.000
214.94	-0.000
215.15	-0.000
215.36	-0.000
215.58	-0.000
215.79	-0.000
216.01	-0.000
216.22	-0.000
216.44	-0.000
216.65	-0.000
216.87	-0.000
217.08	-0.000
217.29	-0.000
217.51	-0.000
217.72	-0.000
217.94	-0.000
218.15	-0.000
218.37	-0.000
218.58	-0.000
218.80	-0.000
219.01	-0.000
219.22	-0.000
219.44	-0.000
219.65	-0.000
219.87	-0.000
220.08	-0.000
220.30	-0.000
220.51	-0.000
220.72	-0.000
220.94	-0.000
221.15	-0.000
221.37	-0.000
221.58	-0.000
221.79	-0.000
222.01	-0.000
222.22	-0.000
222.44	-0.000
222.65	-0.000
222.87	-0.000
223.08	-0.000
223.29	-0.000
223.51	-0.000
223.72	-0.000
223.94	-0.000
224.15	-0.000
224.36	-0.000
224.58	-0.000
224.79	-0.000
225.01	-0.000
225.22	-0.000
225.44	-0.000
225.65	-0.000
225.86	-0.000
226.08	-0.000
226.29	-0.000
226.51	-0.000
226.72	-0.000
226.93	-0.000
227.15	-0.000
227.36	-0.000
227.58	-0.000
227.79	-0.000
228.00	-0.000
228.22	-0.000
228.43	-0.000
228.65	-0.000
228.86	-0.000
229.07	-0.000
229.29	-0.000
229.50	-0.000
229.72	-0.000
229.93	-0.000
230.14	-0.000
230.36	-0.000
230.57	-0.000
230.78	-0.000
231.00	-0.000
231.21	-0.000
231.43	-0.000
231.64	-0.000
231.85	-0.000
232.07	-0.000
232.28	-0.000
232.50	-0.000
232.71	-0.000
232.92	-0.000
233.14	-0.000
233.35	-0.000
233.56	-0.000
233.78	-0.000
233.99	-0.000
234.21	-0.000
234.42	-0.000
234.63	-0.000
234.85	-0.000
235.06	-0.000
235.27	-0.000
235.49	-0.000
235.70	-0.000
235.91	-0.000
236.13	-0.000
236.34	-0.000
236.56	-0.000
236.77	-0.000
236.98	-0.000
237.20	-0.000
237.41	-0.000
237.62	-0.000
237.84	-0.000
238.05	-0.000
238.26	-0.000
238.48	-0.000
238.69	-0.000
238.91	-0.000
239.12	-0.000
239.33	-0.000
239.55	-0.000
239.76	-0.000
239.97	-0.000
240.19	-0.000
240.40	-0.000
240.61	-0.000
240.83	-0.000
241.04	-0.000
241.25	-0.000
241.47	-0.000
241.68	-0.000
241.89	-0.000
242.11	-0.000
242.32	-0.000
242.53	-0.000
242.75	-0.000
242.96	-0.000
243.17	-0.000
243.39	-0.000
243.60	-0.000
243.81	-0.000
244.03	-0.000
244.24	-0.000
244.45	-0.000
244.67	-0.000
244.88	-0.000
245.09	-0.000
245.31	-0.000
245.52	-0.000
245.73	-0.000
245.95	-0.000
246.16	-0.000
246.37	-0.000
246.59	-0.000
246.80	-0.000
247.01	-0.000
247.23	-0.000
247.44	-0.000
247.65	-0.000
247.87	-0.000
248.08	-0.000
248.29	-0.000
248.51	-0.000
248.72	-0.000
248.93	-0.000
249.15	-0.000
249.36	-0.000
249.57	-0.000
249.78	-0.000
250.00	-0.000
250.21	-0.000
250.42	-0.000
250.64	-0.000
250.85	-0.000
251.06	-0.000
251.28	-0.000
251.49	-0.000
251.70	-0.000
251.92	-0.000
252.13	-0.000
252.34	-0.000
252.55	-0.000
252.77	-0.000
252.98	-0.000
253.19	-0.000
253.41	-0.000
253.62	-0.000
253.83	-0.000
254.05	-0.000
254.26	-0.000
254.47	-0.000
254.68	-0.000
254.90	-0.000
255.11	-0.000
255.32	-0.000
255.54	-0.000
255.75	-0.000
255.96	-0.000
256.17	-0.000
256.39	-0.000
256.60	-0.000
256.81	-0.000
257.03	-0.000
257.24	-0.000
257.45	-0.000
257.66	-0.000
257.88	-0.000
258.09	-0.000
258.30	-0.000
258.51	-0.000
258.73	-0.000
258.94	-0.000
259.15	-0.000
259.37	-0.000
259.58	-0.000
259.79	-0.000
260.00	-0.000
260.22	-0.000
260.43	-0.000
260.64	-0.000
260.85	-0.000
261.07	-0.000
261.28	-0.000
261.49	-0.000
261.71	-0.000
261.92	-0.000
262.13	-0.000
262.34	-0.000
262.56	-0.000
262.77	-0.000
262.98	-0.000
263.19	-0.000
263.41	-0.000
263.62	-0.000
263.83	-0.000
264.04	-0.000
264.26	-0.000
264.47	-0.000
264.68	-0.000
264.89	-0.000
265.11	-0.000
265.32	-0.000
265.53	-0.000
265.74	-0.000
265.96	-0.000
266.17	-0.000
266.38	-0.000
266.59	-0.000
266.81	-0.000
267.02	-0.000
267.23	-0.000
267.44	-0.000
267.65	-0.000
267.87	-0.000
268.08	-0.000
268.29	-0.000
268.50	-0.000
268.72	-0.000
268.93	-0.000
269.14	-0.000
269.35	-0.000
269.57	-0.000
269.78	-0.000
269.99	-0.000
270.20	-0.000
270.41	-0.000
270.63	-0.000
270.84	-0.000
271.05	-0.000
271.26	-0.000
271.48	-0.000
271.69	-0.000
271.90	-0.000
272.11	-0.000
272.32	-0.000
272.54	-0.000
272.75	-0.000
272.96	-0.000
273.17	-0.000
273.39	-0.000
273.60	-0.000
273.81	-0.000
274.02	-0.000
274.23	-0.000
274.45	-0.000
274.66	-0.000
274.87	-0.000
275.08	-0.000
275.29	-0.000
275.51	-0.000
275.72	-0.000
275.93	-0.000
276.14	-0.000
276.35	-0.000
276.57	-0.000
276.78	-0.000
276.99	-0.000
277.20	-0.000
277.41	-0.000
277.63	-0.000
277.84	-0.000
278.05	-0.000
278.26	-0.000
278.47	-0.000
278.69	-0.000
278.90	-0.000
279.11	-0.000
279.32	-0.000
279.53	-0.000
279.74	-0.000
279.96	-0.000
280.17	-0.000
280.38	-0.000
280.59	-0.000
280.80	-0.000
281.02	-0.000
281.23	-0.000
281.44	-0.000
281.65	-0.000
281.86	-0.000
282.07	-0.000
282.29	-0.000
282.50	-0.000
282.71	-0.000
282.92	-0.000
283.13	-0.000
283.35	-0.000
283.56	-0.000
283.77	-0.000
283.98	-0.000
284.19	-0.000
284.40	-0.000
284.62	-0.000
284.83	2.100
285.04	1.814
285.25	1.780
285.46	1.601
285.67	1.475
285.88	1.507
286.10	1.477
286.31	1.565
286.52	1.745
286.73	1.655
286.94	1.608
287.15	1.487
287.37	1.609
287.58	1.587
287.79	1.568
288.00	1.646
288.21	1.578
288.42	1.387
288.63	1.317
288.85	1.208
289.06	1.128
289.27	1.127
289.48	1.107
289.69	1.035
289.90	1.020
290.11	1.021
290.33	0.978
290.54	0.959
290.75	0.987
290.96	0.957
291.17	0.964
291.38	0.973
291.59	0.949
291.81	0.967
292.02	0.969
292.23	0.964
292.44	0.949
292.65	0.952
292.86	0.931
293.07	0.905
293.28	0.910
293.50	0.886
293.71	0.884
293.92	0.886
294.13	0.861
294.34	0.853
294.55	0.843
294.76	0.845
294.97	0.850
295.19	0.844
295.40	0.835
295.61	0.831
295.82	0.851
296.03	0.850
296.24	0.842
296.45	0.852
296.66	0.874
296.87	0.874
297.09	0.877
297.30	0.852
297.51	0.862
297.72	0.855
297.93	0.842
298.14	0.828
298.35	0.817
298.56	0.828
298.77	0.816
298.99	0.806
299.20	0.799
299.41	0.789
299.62	0.797
299.83	0.788
300.04	0.787
300.25	0.792
300.46	0.791
300.67	0.792
300.88	0.780
301.10	0.778
301.31	0.764
301.52	0.764
301.73	0.764
301.94	0.762
302.15	0.765
302.36	0.771
302.57	0.769
302.78	0.760
302.99	0.764
303.20	0.756
303.41	0.757
303.63	0.767
303.84	0.778
304.05	0.769
304.26	0.770
304.47	0.759
304.68	0.753
304.89	0.750
305.10	0.762
305.31	0.751
305.52	0.751
305.73	0.753
305.94	0.743
306.15	0.733
306.37	0.732
306.58	0.722
306.79	0.726
307.00	0.724
307.21	0.724
307.42	0.713
307.63	0.715
307.84	0.724
308.05	0.717
308.26	0.713
308.47	0.718
308.68	0.713
308.89	0.715
309.10	0.712
309.31	0.716
309.52	0.708
309.73	0.706
309.95	0.708
310.16	0.697
310.37	0.695
310.58	0.693
310.79	0.685
311.00	0.684
311.21	0.683
311.42	0.689
311.63	0.683
311.84	0.682
312.05	0.678
312.26	0.671
312.47	0.671
312.68	0.671
312.89	0.676
313.10	0.682
313.31	0.684
313.52	0.679
313.73	0.670
313.94	0.675
314.15	0.681
314.36	0.680
314.57	0.684
314.78	0.690
314.99	0.688
315.21	0.683
315.42	0.676
315.63	0.673
315.84	0.677
316.05	0.678
316.26	0.670
316.47	0.663
316.68	0.668
316.89	0.668
317.10	0.661
317.31	0.664
317.52	0.663
317.73	0.667
317.94	0.668
318.15	0.667
318.36	0.671
318.57	0.679
318.78	0.683
318.99	0.674
319.20	0.676
319.41	0.678
319.62	0.677
319.83	0.683
320.04	0.678
320.25	0.676
320.46	0.674
320.67	0.669
320.88	0.665
321.09	0.662
321.30	0.664
321.51	0.659
321.72	0.658
321.93	0.658
322.14	0.651
322.35	0.647
322.56	0.647
322.77	0.645
322.98	0.642
323.19	0.638
323.40	0.634
323.61	0.634
323.82	0.630
324.03	0.630
324.24	0.632
324.45	0.631
324.66	0.635
324.87	0.638
325.08	0.636
325.29	0.642
325.50	0.643
325.71	0.646
325.92	0.643
326.13	0.644
326.34	0.645
326.55	0.645
326.76	0.647
326.97	0.646
327.18	0.648
327.39	0.646
327.60	0.639
327.80	0.637
328.01	0.634
328.22	0.638
328.43	0.637
328.64	0.633
328.85	0.628
329.06	0.626
329.27	0.626
329.48	0.623
329.69	0.625
329.90	0.625
330.11	0.628
330.32	0.627
330.53	0.625
330.74	0.624
330.95	0.624
331.16	0.625
331.37	0.625
331.58	0.622
331.79	0.623
332.00	0.620
332.21	0.622
332.42	0.622
332.63	0.623
332.83	0.627
333.04	0.632
333.25	0.629
333.46	0.632
333.67	0.631
333.88	0.631
334.09	0.628
334.30	0.632
334.51	0.632
334.72	0.631
334.93	0.630
335.14	0.627
335.35	0.620
335.56	0.621
335.77	0.616
335.98	0.618
336.18	0.615
336.39	0.616
336.60	0.615
336.81	0.615
337.02	0.612
337.23	0.609
337.44	0.609
337.65	0.609
337.86	0.608
338.07	0.608
338.28	0.604
338.49	0.607
338.70	0.607
338.91	0.604
339.11	0.603
339.32	0.604
339.53	0.609
339.74	0.611
339.95	0.611
340.16	0.613
340.37	0.615
340.58	0.618
340.79	0.614
341.00	0.612
341.21	0.611
341.41	0.608
341.62	0.608
341.83	0.603
342.04	0.601
342.25	0.600
342.46	0.596
342.67	0.596
342.88	0.596
343.09	0.595
343.30	0.594
343.50	0.595
343.71	0.595
343.92	0.594
344.13	0.593
344.34	0.592
344.55	0.593
344.76	0.595
344.97	0.591
345.18	0.592
345.38	0.592
345.59	0.595
345.80	0.596
346.01	0.600
346.22	0.602
346.43	0.603
346.64	0.602
346.85	0.601
347.06	0.601
347.26	0.601
347.47	0.599
347.68	0.603
347.89	0.599
348.10	0.601
348.31	0.595
348.52	0.594
348.73	0.592
348.93	0.594
349.14	0.594
349.35	0.595
349.56	0.595
349.77	0.596
349.98	0.595
350.19	0.596
350.39	0.596
350.60	0.600
350.81	0.596
351.02	0.597
351.23	0.595
351.44	0.594
351.65	0.593
351.86	0.595
352.06	0.592
352.27	0.589
352.48	0.589
352.69	0.590
352.90	0.587
353.11	0.588
353.31	0.587
353.52	0.591
353.73	0.593
353.94	0.590
354.15	0.588
354.36	0.589
354.57	0.591
354.77	0.590
354.98	0.590
355.19	0.590
355.40	0.590
355.61	0.590
355.82	0.587
356.02	0.586
356.23	0.586
356.44	0.586
356.65	0.586
356.86	0.583
357.07	0.584
357.27	0.581
357.48	0.579
357.69	0.580
357.90	0.581
358.11	0.582
358.32	0.580
358.52	0.580
358.73	0.580
358.94	0.579
359.15	0.581
359.36	0.579
359.56	0.581
359.77	0.581
359.98	0.579
360.19	0.579
360.40	0.579
360.61	0.580
360.81	0.581
361.02	0.579
361.23	0.580
361.44	0.581
361.65	0.582
361.85	0.581
362.06	0.583
362.27	0.583
362.48	0.583
362.69	0.581
362.89	0.582
363.10	0.584
363.31	0.585
363.52	0.584
363.73	0.581
363.93	0.583
364.14	0.583
364.35	0.580
364.56	0.583
364.77	0.583
364.97	0.584
365.18	0.581
365.39	0.581
365.60	0.580
365.81	0.580
366.01	0.580
366.22	0.577
366.43	0.576
366.64	0.577
366.84	0.574
367.05	0.574
367.26	0.572
367.47	0.574
367.68	0.572
367.88	0.575
368.09	0.574
368.30	0.574
368.51	0.575
368.71	0.573
368.92	0.572
369.13	0.574
369.34	0.575
369.55	0.575
369.75	0.574
369.96	0.573
370.17	0.573
370.38	0.575
370.58	0.575
370.79	0.573
371.00	0.575
371.21	0.576
371.41	0.574
371.62	0.573
371.83	0.576
372.04	0.574
372.24	0.575
372.45	0.572
372.66	0.571
372.87	0.573
373.07	0.573
373.28	0.574
373.49	0.571
373.70	0.573
373.90	0.571
374.11	0.569
374.32	0.570
374.53	0.571
374.73	0.573
374.94	0.572
375.15	0.569
375.36	0.570
375.56	0.567
375.77	0.567
375.98	0.566
376.19	0.566
376.39	0.568
376.60	0.567
376.81	0.566
377.02	0.565
377.22	0.568
377.43	0.568
377.64	0.569
377.84	0.569
378.05	0.569
378.26	0.568
378.47	0.569
378.67	0.568
378.88	0.568
379.09	0.568
379.30	0.567
379.50	0.565
379.71	0.564
379.92	0.562
380.12	0.562
380.33	0.565
380.54	0.565
380.75	0.563
380.95	0.563
381.16	0.564
381.37	0.564
381.57	0.564
381.78	0.564
381.99	0.563
382.20	0.564
382.40	0.566
382.61	0.564
382.82	0.564
383.02	0.566
383.23	0.566
383.44	0.566
383.64	0.567
383.85	0.566
384.06	0.566
384.27	0.567
384.47	0.568
384.68	0.567
384.89	0.567
385.09	0.567
385.30	0.567
385.51	0.568
385.71	0.566
385.92	0.564
386.13	0.564
386.33	0.564
386.54	0.564
386.75	0.563
386.95	0.563
387.16	0.564
387.37	0.564
387.58	0.563
387.78	0.561
387.99	0.562
388.20	0.562
388.40	0.564
388.61	0.562
388.82	0.563
389.02	0.562
389.23	0.561
389.44	0.562
389.64	0.563
389.85	0.561
390.06	0.561
390.26	0.559
390.47	0.559
390.68	0.560
390.88	0.562
391.09	0.560
391.30	0.561
391.50	0.560
391.71	0.560
391.92	0.558
392.12	0.559
392.33	0.559
392.53	0.560
392.74	0.559
392.95	0.556
393.15	0.555
393.36	0.555
393.57	0.556
393.77	0.555
393.98	0.555
394.19	0.556
394.39	0.555
394.60	0.554
394.81	0.555
395.01	0.556
395.22	0.557
395.43	0.556
395.63	0.555
395.84	0.553
396.04	0.555
396.25	0.553
396.46	0.552
396.66	0.553
396.87	0.552
397.08	0.552
397.28	0.553
397.49	0.552
397.69	0.553
397.90	0.554
398.11	0.555
398.31	0.553
398.52	0.553
398.73	0.554
398.93	0.555
399.14	0.555
399.34	0.555
399.55	0.554
399.76	0.555
399.96	0.553
400.17	0.554
400.37	0.554
400.58	0.553
400.79	0.552
400.99	0.550
401.20	0.549
401.41	0.549
401.61	0.548
401.82	0.547
402.02	0.547
402.23	0.548
402.44	0.548
402.64	0.546
402.85	0.547
403.05	0.548
403.26	0.548
403.47	0.549
403.67	0.548
403.88	0.548
404.08	0.548
404.29	0.548
404.50	0.549
404.70	0.548
404.91	0.549
405.11	0.549
405.32	0.550
405.52	0.549
405.73	0.549
405.94	0.549
406.14	0.549
406.35	0.549
406.55	0.549
406.76	0.547
406.97	0.546
407.17	0.546
407.38	0.547
407.58	0.546
407.79	0.545
407.99	0.544
408.20	0.544
408.41	0.545
408.61	0.545
408.82	0.544
409.02	0.545
409.23	0.546
409.43	0.545
409.64	0.543
409.84	0.544
410.05	0.545
410.26	0.545
410.46	0.545
410.67	0.546
410.87	0.545
411.08	0.544
411.28	0.542
411.49	0.542
411.69	0.542
411.90	0.544
412.11	0.544
412.31	0.544
412.52	0.543
412.72	0.543
412.93	0.543
413.13	0.543
413.34	0.545
413.54	0.546
413.75	0.547
413.95	0.548
414.16	0.547
414.37	0.546
414.57	0.546
414.78	0.546
414.98	0.546
415.19	0.546
415.39	0.545
415.60	0.544
415.80	0.543
416.01	0.542
416.21	0.541
416.42	0.541
416.62	0.541
416.83	0.540
417.03	0.540
417.24	0.541
417.44	0.540
417.65	0.541
417.86	0.541
418.06	0.542
418.27	0.542
418.47	0.543
418.68	0.542
418.88	0.541
419.09	0.541
419.29	0.542
419.50	0.542
419.70	0.542
419.91	0.542
420.11	0.542
420.32	0.542
420.52	0.542
420.73	0.541
420.93	0.542
421.14	0.544
421.34	0.544
421.55	0.545
421.75	0.544
421.96	0.543
422.16	0.543
422.37	0.542
422.57	0.543
422.78	0.542
422.98	0.543
423.19	0.544
423.39	0.543
423.60	0.543
423.80	0.541
424.01	0.542
424.21	0.540
424.42	0.540
424.62	0.541
424.83	0.541
425.03	0.540
425.23	0.539
425.44	0.537
425.64	0.536
425.85	0.536
426.05	0.536
426.26	0.535
426.46	0.535
426.67	0.535
426.87	0.534
427.08	0.534
427.28	0.534
427.49	0.534
427.69	0.534
427.90	0.535
428.10	0.536
428.31	0.537
428.51	0.539
428.71	0.540
428.92	0.539
429.12	0.541
429.33	0.541
429.53	0.541
429.74	0.540
429.94	0.542
430.15	0.542
430.35	0.541
430.56	0.541
430.76	0.540
430.96	0.541
431.17	0.541
431.37	0.541
431.58	0.542
431.78	0.542
431.99	0.543
432.19	0.541
432.40	0.541
432.60	0.543
432.80	0.542
433.01	0.542
433.21	0.541
433.42	0.542
433.62	0.541
433.83	0.541
434.03	0.540
434.23	0.540
434.44	0.541
434.64	0.540
434.85	0.539
435.05	0.541
435.26	0.540
435.46	0.541
435.66	0.541
435.87	0.541
436.07	0.540
436.28	0.542
436.48	0.544
436.69	0.545
436.89	0.545
437.09	0.545
437.30	0.546
437.50	0.546
437.71	0.544
437.91	0.543
438.11	0.543
438.32	0.543
438.52	0.542
438.73	0.541
438.93	0.542
439.13	0.541
439.34	0.541
439.54	0.540
439.75	0.541
439.95	0.543
440.15	0.543
440.36	0.542
440.56	0.543
440.77	0.543
440.97	0.543
441.17	0.542
441.38	0.543
441.58	0.543
441.79	0.543
441.99	0.544
442.19	0.542
442.40	0.541
442.60	0.542
442.81	0.542
443.01	0.542
443.21	0.541
443.42	0.543
443.62	0.541
443.82	0.542
444.03	0.543
444.23	0.543
444.44	0.542
444.64	0.544
444.84	0.545
445.05	0.546
445.25	0.546
445.45	0.546
445.66	0.544
445.86	0.546
446.06	0.545
446.27	0.544
446.47	0.543
446.68	0.543
446.88	0.543
447.08	0.542
447.29	0.540
447.49	0.541
447.69	0.540
447.90	0.540
448.10	0.539
448.30	0.539
448.51	0.538
448.71	0.539
448.91	0.538
449.12	0.540
449.32	0.539
449.52	0.539
449.73	0.538
449.93	0.539
450.14	0.538
450.34	0.538
450.54	0.537
450.75	0.539
450.95	0.538
451.15	0.539
451.36	0.538
451.56	0.539
451.76	0.539
451.97	0.540
452.17	0.541
452.37	0.541
452.58	0.543
452.78	0.544
452.98	0.544
453.19	0.546
453.39	0.545
453.59	0.545
453.79	0.544
454.00	0.545
454.20	0.544
454.40	0.545
454.61	0.546
454.81	0.545
455.01	0.545
455.22	0.544
455.42	0.543
455.62	0.543
455.83	0.542
456.03	0.542
456.23	0.541
456.44	0.541
456.64	0.540
456.84	0.539
457.04	0.540
457.25	0.541
457.45	0.542
457.65	0.542
457.86	0.544
458.06	0.546
458.26	0.547
458.47	0.547
458.67	0.547
458.87	0.547
459.07	0.546
459.28	0.544
459.48	0.543
459.68	0.542
459.89	0.541
460.09	0.540
460.29	0.539
460.49	0.538
460.70	0.539
460.90	0.539
461.10	0.539
461.31	0.541
461.51	0.542
461.71	0.543
461.91	0.543
462.12	0.545
462.32	0.546
462.52	0.545
462.72	0.545
462.93	0.545
463.13	0.545
463.33	0.545
463.53	0.545
463.74	0.546
463.94	0.545
464.14	0.546
464.35	0.545
464.55	0.545
464.75	0.547
464.95	0.547
465.16	0.547
465.36	0.547
465.56	0.547
465.76	0.548
465.97	0.548
466.17	0.547
466.37	0.546
466.57	0.544
466.78	0.545
466.98	0.543
467.18	0.543
467.38	0.544
467.59	0.542
467.79	0.542
467.99	0.542
468.19	0.540
468.39	0.540
468.60	0.540
468.80	0.540
469.00	0.540
469.20	0.541
469.41	0.541
469.61	0.541
469.81	0.542
470.01	0.543
470.22	0.543
470.42	0.544
470.62	0.545
470.82	0.546
471.02	0.547
471.23	0.546
471.43	0.545
471.63	0.546
471.83	0.547
472.04	0.547
472.24	0.546
472.44	0.544
472.64	0.545
472.84	0.545
473.05	0.544
473.25	0.543
473.45	0.543
473.65	0.543
473.85	0.542
474.06	0.541
474.26	0.541
474.46	0.540
474.66	0.541
474.86	0.542
475.07	0.542
475.27	0.543
475.47	0.544
475.67	0.543
475.87	0.543
476.08	0.543
476.28	0.544
476.48	0.545
476.68	0.546
476.88	0.545
477.09	0.543
477.29	0.542
477.49	0.542
477.69	0.542
477.89	0.543
478.09	0.543
478.30	0.543
478.50	0.543
478.70	0.542
478.90	0.543
479.10	0.542
479.31	0.542
479.51	0.543
479.71	0.543
479.91	0.542
480.11	0.541
480.31	0.541
480.52	0.541
480.72	0.541
480.92	0.540
481.12	0.541
481.32	0.542
481.52	0.542
481.72	0.541
481.93	0.540
482.13	0.541
482.33	0.543
482.53	0.543
482.73	0.544
482.93	0.543
483.14	0.544
483.34	0.543
483.54	0.543
483.74	0.543
483.94	0.543
484.14	0.543
484.34	0.543
484.55	0.542
484.75	0.541
484.95	0.540
485.15	0.540
485.35	0.540
485.55	0.541
485.75	0.540
485.96	0.540
486.16	0.540
486.36	0.541
486.56	0.540
486.76	0.541
486.96	0.542
487.16	0.543
487.36	0.543
487.57	0.543
487.77	0.543
487.97	0.542
488.17	0.543
488.37	0.544
488.57	0.544
488.77	0.545
488.97	0.544
489.18	0.544
489.38	0.543
489.58	0.543
489.78	0.544
489.98	0.543
490.18	0.544
490.38	0.543
490.58	0.543
490.78	0.544
490.98	0.543
491.19	0.543
491.39	0.544
491.59	0.544
491.79	0.544
491.99	0.543
492.19	0.544
492.39	0.543
492.59	0.544
492.79	0.543
492.99	0.541
493.20	0.541
493.40	0.540
493.60	0.540
493.80	0.540
494.00	0.541
494.20	0.541
494.40	0.540
494.60	0.539
494.80	0.539
495.00	0.539
495.20	0.540
495.40	0.540
495.61	0.540
495.81	0.540
496.01	0.539
496.21	0.538
496.41	0.539
496.61	0.539
496.81	0.540
497.01	0.541
497.21	0.540
497.41	0.540
497.61	0.540
497.81	0.541
498.01	0.541
498.21	0.542
498.41	0.543
498.61	0.542
498.82	0.542
499.02	0.541
499.22	0.541
499.42	0.542
499.62	0.542
499.82	0.543
500.02	0.543
500.22	0.543
500.42	0.542
500.62	0.542
500.82	0.542
501.02	0.542
501.22	0.542
501.42	0.543
501.62	0.542
501.82	0.541
502.02	0.541
502.22	0.541
502.42	0.542
502.62	0.542
502.82	0.542
503.02	0.543
503.22	0.544
503.42	0.544
503.63	0.543
503.83	0.544
504.03	0.545
504.23	0.544
504.43	0.545
504.63	0.544
504.83	0.545
505.03	0.545
505.23	0.544
505.43	0.544
505.63	0.543
505.83	0.544
506.03	0.544
506.23	0.543
506.43	0.542
506.63	0.542
506.83	0.543
507.03	0.542
507.23	0.542
507.43	0.543
507.63	0.542
507.83	0.543
508.03	0.543
508.23	0.543
508.43	0.544
508.63	0.544
508.83	0.544
509.03	0.543
509.23	0.543
509.43	0.544
509.63	0.545
509.83	0.545
510.03	0.545
510.23	0.543
510.43	0.544
510.63	0.543
510.83	0.542
511.03	0.543
511.23	0.544
511.43	0.543
511.63	0.542
511.83	0.541
512.03	0.542
512.22	0.543
512.42	0.544
512.62	0.546
512.82	0.547
513.02	0.547
513.22	0.547
513.42	0.548
513.62	0.548
513.82	0.549
514.02	0.548
514.22	0.548
514.42	0.548
514.62	0.546
514.82	0.544
515.02	0.543
515.22	0.544
515.42	0.544
515.62	0.542
515.82	0.544
516.02	0.543
516.22	0.543
516.42	0.544
516.62	0.543
516.82	0.543
517.01	0.544
517.21	0.545
517.41	0.545
517.61	0.546
517.81	0.547
518.01	0.547
518.21	0.548
518.41	0.550
518.61	0.548
518.81	0.549
519.01	0.550
519.21	0.550
519.41	0.551
519.61	0.552
519.81	0.553
520.00	0.554
520.20	0.553
520.40	0.552
520.60	0.551
520.80	0.552
521.00	0.551
521.20	0.551
521.40	0.549
521.60	0.549
521.80	0.549
522.00	0.547
522.20	0.544
522.39	0.545
522.59	0.546
522.79	0.547
522.99	0.546
523.19	0.548
523.39	0.550
523.59	0.551
523.79	0.551
523.99	0.550
524.19	0.549
524.38	0.550
524.58	0.551
524.78	0.551
524.98	0.549
525.18	0.549
525.38	0.549
525.58	0.548
525.78	0.547
525.98	0.547
526.18	0.547
526.37	0.548
526.57	0.548
526.77	0.548
526.97	0.547
527.17	0.548
527.37	0.548
527.57	0.547
527.77	0.546
527.96	0.546
528.16	0.548
528.36	0.550
528.56	0.549
528.76	0.550
528.96	0.551
529.16	0.552
529.36	0.550
529.55	0.552
529.75	0.554
529.95	0.555
530.15	0.554
530.35	0.553
530.55	0.552
530.75	0.552
530.94	0.551
531.14	0.552
531.34	0.552
531.54	0.554
531.74	0.552
531.94	0.550
532.13	0.551
532.33	0.552
532.53	0.552
532.73	0.554
532.93	0.553
533.13	0.553
533.33	0.552
533.52	0.552
533.72	0.551
533.92	0.553
534.12	0.555
534.32	0.555
534.52	0.553
534.71	0.554
534.91	0.552
535.11	0.554
535.31	0.553
535.51	0.553
535.71	0.552
535.90	0.552
536.10	0.550
536.30	0.549
536.50	0.548
536.70	0.549
536.89	0.550
537.09	0.551
537.29	0.551
537.49	0.551
537.69	0.551
537.89	0.552
538.08	0.553
538.28	0.554
538.48	0.553
538.68	0.553
538.88	0.553
539.07	0.553
539.27	0.552
539.47	0.552
539.67	0.553
539.87	0.554
540.06	0.553
540.26	0.553
540.46	0.552
540.66	0.553
540.86	0.554
541.05	0.555
541.25	0.556
541.45	0.557
541.65	0.555
541.84	0.556
542.04	0.556
542.24	0.557
542.44	0.556
542.64	0.557
542.83	0.556
543.03	0.556
543.23	0.558
543.43	0.556
543.62	0.557
543.82	0.557
544.02	0.556
544.22	0.556
544.42	0.554
544.61	0.556
544.81	0.557
545.01	0.558
545.21	0.556
545.40	0.555
545.60	0.555
545.80	0.553
546.00	0.554
546.19	0.555
546.39	0.555
546.59	0.557
546.79	0.557
546.98	0.557
547.18	0.556
547.38	0.556
547.58	0.556
547.77	0.557
547.97	0.557
548.17	0.558
548.37	0.558
548.56	0.559
548.76	0.559
548.96	0.557
549.16	0.557
549.35	0.559
549.55	0.560
549.75	0.560
549.95	0.560
550.14	0.561
550.34	0.560
550.54	0.559
550.73	0.558
550.93	0.559
551.13	0.561
551.33	0.561
551.52	0.560
551.72	0.560
551.92	0.560
552.12	0.562
552.31	0.560
552.51	0.562
552.71	0.562
552.90	0.562
553.10	0.561
553.30	0.560
553.50	0.561
553.69	0.562
553.89	0.562
554.09	0.561
554.28	0.559
554.48	0.559
554.68	0.557
554.87	0.558
555.07	0.559
555.27	0.560
555.47	0.560
555.66	0.559
555.86	0.560
556.06	0.560
556.25	0.563
556.45	0.563
556.65	0.566
556.84	0.567
557.04	0.568
557.24	0.567
557.43	0.566
557.63	0.568
557.83	0.569
558.02	0.570
558.22	0.568
558.42	0.567
558.61	0.569
558.81	0.567
559.01	0.567
559.21	0.565
559.40	0.566
559.60	0.567
559.80	0.566
559.99	0.565
560.19	0.563
560.39	0.566
560.58	0.566
560.78	0.567
560.97	0.565
561.17	0.566
561.37	0.567
561.56	0.567
561.76	0.567
561.96	0.567
562.15	0.566
562.35	0.566
562.55	0.563
562.74	0.564
562.94	0.563
563.14	0.564
563.33	0.564
563.53	0.564
563.73	0.565
563.92	0.565
564.12	0.564
564.31	0.563
564.51	0.562
564.71	0.563
564.90	0.561
565.10	0.562
565.30	0.561
565.49	0.561
565.69	0.560
565.89	0.561
566.08	0.561
566.28	0.561
566.47	0.561
566.67	0.563
566.87	0.565
567.06	0.566
567.26	0.565
567.46	0.567
567.65	0.565
567.85	0.565
568.04	0.564
568.24	0.564
568.44	0.563
568.63	0.564
568.83	0.565
569.02	0.564
569.22	0.564
569.42	0.566
569.61	0.564
569.81	0.565
570.00	0.563
570.20	0.562
570.40	0.562
570.59	0.563
570.79	0.561
570.98	0.560
571.18	0.559
571.38	0.558
571.57	0.558
571.77	0.559
571.96	0.557
572.16	0.559
572.35	0.559
572.55	0.560
572.75	0.560
572.94	0.560
573.14	0.559
573.33	0.560
573.53	0.559
573.73	0.558
573.92	0.559
574.12	0.560
574.31	0.559
574.51	0.559
574.70	0.558
574.90	0.557
575.09	0.556
575.29	0.556
575.49	0.555
575.68	0.556
575.88	0.555
576.07	0.554
576.27	0.553
576.46	0.553
576.66	0.553
576.86	0.553
577.05	0.554
577.25	0.555
577.44	0.555
577.64	0.555
577.83	0.556
578.03	0.556
578.22	0.557
578.42	0.557
578.61	0.557
578.81	0.556
579.00	0.556
579.20	0.556
579.40	0.555
579.59	0.556
579.79	0.557
579.98	0.556
580.18	0.555
580.37	0.555
580.57	0.554
580.76	0.554
580.96	0.554
581.15	0.555
581.35	0.554
581.54	0.555
581.74	0.554
581.93	0.553
582.13	0.553
582.32	0.554
582.52	0.553
582.71	0.554
582.91	0.555
583.10	0.556
583.30	0.554
583.49	0.555
583.69	0.554
583.88	0.554
584.08	0.553
584.27	0.553
584.47	0.553
584.66	0.554
584.86	0.554
585.05	0.553
585.25	0.553
585.44	0.554
585.64	0.555
585.83	0.556
586.03	0.556
586.22	0.557
586.42	0.557
586.61	0.558
586.81	0.557
587.00	0.557
587.20	0.556
587.39	0.556
587.59	0.556
587.78	0.555
587.98	0.554
588.17	0.554
588.37	0.554
588.56	0.553
588.76	0.554
588.95	0.553
589.15	0.554
589.34	0.556
589.54	0.556
589.73	0.557
589.92	0.556
590.12	0.557
590.31	0.559
590.51	0.559
590.70	0.560
590.90	0.559
591.09	0.560
591.29	0.559
591.48	0.559
591.68	0.558
591.87	0.558
592.06	0.559
592.26	0.558
592.45	0.558
592.65	0.556
592.84	0.557
593.04	0.557
593.23	0.556
593.43	0.556
593.62	0.556
593.81	0.556
594.01	0.555
594.20	0.556
594.40	0.556
594.59	0.555
594.79	0.556
594.98	0.556
595.17	0.557
595.37	0.559
595.56	0.558
595.76	0.560
595.95	0.561
596.14	0.561
596.34	0.560
596.53	0.559
596.73	0.559
596.92	0.558
597.12	0.558
597.31	0.555
597.50	0.554
597.70	0.553
597.89	0.552
598.09	0.551
598.28	0.550
598.47	0.550
598.67	0.549
598.86	0.550
599.06	0.551
599.25	0.550
599.44	0.551
599.64	0.550
599.83	0.552
600.03	0.550
600.22	0.549
600.41	0.549
600.61	0.549
600.80	0.549
601.00	0.548
601.19	0.548
601.38	0.548
601.58	0.549
601.77	0.550
601.96	0.548
602.16	0.550
602.35	0.550
602.55	0.552
602.74	0.552
602.93	0.553
603.13	0.552
603.32	0.552
603.51	0.554
603.71	0.553
603.90	0.552
604.09	0.553
604.29	0.552
604.48	0.552
604.68	0.550
604.87	0.550
605.06	0.550
605.26	0.551
605.45	0.549
605.64	0.549
605.84	0.549
606.03	0.549
606.22	0.549
606.42	0.550
606.61	0.550
606.80	0.551
607.00	0.553
607.19	0.552
607.38	0.554
607.58	0.555
607.77	0.555
607.96	0.555
608.16	0.557
608.35	0.556
608.54	0.557
608.74	0.557
608.93	0.556
609.12	0.554
609.32	0.555
609.51	0.553
609.70	0.552
609.90	0.552
610.09	0.553
610.28	0.552
610.48	0.553
610.67	0.553
610.86	0.555
611.06	0.555
611.25	0.555
611.44	0.555
611.64	0.556
611.83	0.557
612.02	0.558
612.21	0.557
612.41	0.557
612.60	0.559
612.79	0.557
612.99	0.557
613.18	0.557
613.37	0.558
613.57	0.559
613.76	0.558
613.95	0.558
614.14	0.557
614.34	0.557
614.53	0.557
614.72	0.554
614.92	0.556
615.11	0.556
615.30	0.557
615.49	0.558
615.69	0.557
615.88	0.558
616.07	0.558
616.26	0.560
616.46	0.561
616.65	0.562
616.84	0.565
617.04	0.564
617.23	0.563
617.42	0.563
617.61	0.561
617.81	0.561
618.00	0.562
618.19	0.562
618.38	0.561
618.58	0.564
618.77	0.565
618.96	0.564
619.15	0.567
619.35	0.570
619.54	0.570
619.73	0.571
619.92	0.573
620.12	0.570
620.31	0.570
620.50	0.569
620.69	0.567
620.89	0.567
621.08	0.568
621.27	0.564
621.46	0.564
621.66	0.563
621.85	0.563
622.04	0.565
622.23	0.568
622.43	0.569
622.62	0.570
622.81	0.568
623.00	0.567
623.19	0.565
623.39	0.566
623.58	0.565
623.77	0.567
623.96	0.566
624.16	0.567
624.35	0.567
624.54	0.566
624.73	0.565
624.92	0.567
625.12	0.566
625.31	0.566
625.50	0.566
625.69	0.565
625.88	0.567
626.08	0.569
626.27	0.568
626.46	0.567
626.65	0.566
626.84	0.565
627.04	0.563
627.23	0.566
627.42	0.568
627.61	0.569
627.80	0.566
628.00	0.567
628.19	0.564
628.38	0.562
628.57	0.563
628.76	0.565
628.96	0.566
629.15	0.567
629.34	0.569
629.53	0.570
629.72	0.572
629.91	0.575
630.11	0.572
630.30	0.573
630.49	0.573
630.68	0.573
630.87	0.575
631.06	0.575
631.26	0.577
631.45	0.576
631.64	0.574
631.83	0.573
632.02	0.574
632.21	0.576
632.41	0.576
632.60	0.577
632.79	0.577
632.98	0.576
633.17	0.577
633.36	0.575
633.55	0.576
633.75	0.580
633.94	0.580
634.13	0.580
634.32	0.581
634.51	0.582
634.70	0.583
634.89	0.583
635.09	0.583
635.28	0.582
635.47	0.583
635.66	0.580
635.85	0.581
636.04	0.582
636.23	0.582
636.43	0.579
636.62	0.581
636.81	0.580
637.00	0.578
637.19	0.577
637.38	0.579
637.57	0.580
637.76	0.584
637.95	0.582
638.15	0.579
638.34	0.581
638.53	0.582
638.72	0.579
638.91	0.582
639.10	0.584
639.29	0.584
639.48	0.582
639.67	0.580
639.87	0.580
640.06	0.584
640.25	0.586
640.44	0.582
640.63	0.584
640.82	0.586
641.01	0.587
641.20	0.589
641.39	0.592
641.58	0.595
641.78	0.595
641.97	0.595
642.16	0.589
642.35	0.588
642.54	0.587
642.73	0.589
642.92	0.589
643.11	0.588
643.30	0.587
643.49	0.584
643.68	0.581
643.87	0.581
644.06	0.579
644.25	0.585
644.45	0.589
644.64	0.593
644.83	0.590
645.02	0.592
645.21	0.591
645.40	0.589
645.59	0.591
645.78	0.592
645.97	0.592
646.16	0.591
646.35	0.588
646.54	0.582
646.73	0.579
646.92	0.581
647.11	0.579
647.30	0.579
647.49	0.577
647.68	0.576
647.88	0.576
648.07	0.579
648.26	0.577
648.45	0.575
648.64	0.579
648.83	0.577
649.02	0.573
649.21	0.569
649.40	0.568
649.59	0.568
649.78	0.569
649.97	0.566
650.16	0.563
650.35	0.563
650.54	0.564
650.73	0.560
650.92	0.561
651.11	0.564
651.30	0.565
651.49	0.565
651.68	0.565
651.87	0.565
652.06	0.567
652.25	0.570
652.44	0.573
652.63	0.572
652.82	0.571
653.01	0.569
653.20	0.564
653.39	0.565
653.58	0.562
653.77	0.559
653.96	0.556
654.15	0.554
654.34	0.551
654.53	0.549
654.72	0.546
654.91	0.547
655.10	0.546
655.29	0.546
655.48	0.544
655.67	0.544
655.86	0.544
656.05	0.544
656.24	0.543
656.43	0.542
656.62	0.542
656.81	0.541
657.00	0.540
657.19	0.541
657.38	0.540
657.57	0.542
657.76	0.541
657.95	0.543
658.14	0.544
658.33	0.547
658.51	0.548
658.70	0.549
658.89	0.552
659.08	0.555
659.27	0.555
659.46	0.557
659.65	0.558
659.84	0.563
660.03	0.564
660.22	0.563
660.41	0.562
660.60	0.566
660.79	0.567
660.98	0.566
661.17	0.566
661.36	0.568
661.55	0.570
661.74	0.567
661.92	0.564
662.11	0.564
662.30	0.565
662.49	0.566
662.68	0.564
662.87	0.561
663.06	0.563
663.25	0.561
663.44	0.560
663.63	0.559
663.82	0.560
664.01	0.559
664.20	0.560
664.38	0.561
664.57	0.559
664.76	0.557
664.95	0.557
665.14	0.555
665.33	0.559
665.52	0.557
665.71	0.554
665.90	0.557
666.09	0.557
666.28	0.556
666.46	0.550
666.65	0.550
666.84	0.553
667.03	0.556
667.22	0.556
667.41	0.554
667.60	0.556
667.79	0.556
667.98	0.553
668.16	0.551
668.35	0.551
668.54	0.554
668.73	0.553
668.92	0.553
669.11	0.553
669.30	0.554
669.49	0.555
669.67	0.555
669.86	0.555
670.05	0.554
670.24	0.554
670.43	0.556
670.62	0.555
670.81	0.555
671.00	0.551
671.18	0.548
671.37	0.547
671.56	0.546
671.75	0.544
671.94	0.547
672.13	0.549
672.32	0.550
672.50	0.549
672.69	0.548
672.88	0.548
673.07	0.549
673.26	0.550
673.45	0.549
673.63	0.548
673.82	0.551
674.01	0.548
674.20	0.548
674.39	0.548
674.58	0.548
674.76	0.550
674.95	0.552
675.14	0.553
675.33	0.554
675.52	0.555
675.71	0.555
675.89	0.553
676.08	0.555
676.27	0.555
676.46	0.556
676.65	0.556
676.84	0.552
677.02	0.550
677.21	0.547
677.40	0.547
677.59	0.547
677.78	0.546
677.96	0.545
678.15	0.544
678.34	0.545
678.53	0.541
678.72	0.538
678.90	0.541
679.09	0.542
679.28	0.544
679.47	0.544
679.66	0.543
679.84	0.544
680.03	0.544
680.22	0.545
680.41	0.544
680.60	0.545
680.78	0.546
680.97	0.546
681.16	0.545
681.35	0.544
681.53	0.544
681.72	0.543
681.91	0.541
682.10	0.541
682.29	0.539
682.47	0.539
682.66	0.540
682.85	0.539
683.04	0.539
683.22	0.537
683.41	0.536
683.60	0.537
683.79	0.536
683.97	0.534
684.16	0.535
684.35	0.535
684.54	0.535
684.72	0.534
684.91	0.533
685.10	0.531
685.29	0.531
685.47	0.532
685.66	0.532
685.85	0.532
686.04	0.533
686.22	0.531
686.41	0.529
686.60	0.529
686.79	0.528
686.97	0.527
687.16	0.527
687.35	0.527
687.54	0.525
687.72	0.523
687.91	0.524
688.10	0.523
688.29	0.524
688.47	0.524
688.66	0.525
688.85	0.525
689.03	0.526
689.22	0.526
689.41	0.526
689.60	0.526
689.78	0.529
689.97	0.528
690.16	0.528
690.34	0.529
690.53	0.530
690.72	0.528
690.91	0.529
691.09	0.528
691.28	0.529
691.47	0.531
691.65	0.531
691.84	0.530
692.03	0.531
692.21	0.530
692.40	0.528
692.59	0.528
692.77	0.529
692.96	0.529
693.15	0.527
693.34	0.527
693.52	0.525
693.71	0.523
693.90	0.523
694.08	0.521
694.27	0.522
694.46	0.521
694.64	0.521
694.83	0.519
695.02	0.521
695.20	0.523
695.39	0.523
695.58	0.522
695.76	0.522
695.95	0.521
696.14	0.521
696.32	0.520
696.51	0.521
696.70	0.519
696.88	0.518
697.07	0.516
697.26	0.514
697.44	0.513
697.63	0.514
697.81	0.513
698.00	0.515
698.19	0.515
698.37	0.515
698.56	0.514
698.75	0.515
698.93	0.515
699.12	0.516
699.31	0.515
699.49	0.515
699.68	0.514
699.87	0.514
700.05	0.512
700.24	0.512
700.42	0.511
700.61	0.512
700.80	0.511
700.98	0.512
701.17	0.510
701.36	0.511
701.54	0.509
701.73	0.509
701.91	0.509
702.10	0.510
702.29	0.511
702.47	0.512
702.66	0.514
702.84	0.513
703.03	0.512
703.22	0.512
703.40	0.513
703.59	0.514
703.77	0.513
703.96	0.514
704.15	0.514
704.33	0.512
704.52	0.510
704.70	0.508
704.89	0.508
705.08	0.510
705.26	0.509
705.45	0.508
705.63	0.506
705.82	0.507
706.00	0.506
706.19	0.505
706.38	0.505
706.56	0.505
706.75	0.505
706.93	0.506
707.12	0.504
707.30	0.503
707.49	0.502
707.68	0.503
707.86	0.501
708.05	0.500
708.23	0.500
708.42	0.500
708.60	0.499
708.79	0.497
708.98	0.497
709.16	0.496
709.35	0.496
709.53	0.496
709.72	0.496
709.90	0.496
710.09	0.496
710.27	0.494
710.46	0.493
710.64	0.492
710.83	0.492
711.02	0.492
711.20	0.493
711.39	0.494
711.57	0.493
711.76	0.492
711.94	0.494
712.13	0.494
712.31	0.495
712.50	0.496
712.68	0.497
712.87	0.496
713.05	0.496
713.24	0.494
713.42	0.493
713.61	0.492
713.79	0.493
713.98	0.491
714.16	0.489
714.35	0.488
714.54	0.488
714.72	0.487
714.91	0.487
715.09	0.485
715.28	0.483
715.46	0.483
715.65	0.482
715.83	0.481
716.02	0.482
716.20	0.483
716.39	0.483
716.57	0.482
716.76	0.481
716.94	0.481
717.12	0.481
717.31	0.482
717.49	0.482
717.68	0.480
717.86	0.478
718.05	0.475
718.23	0.472
718.42	0.469
718.60	0.466
718.79	0.465
718.97	0.461
719.16	0.461
719.34	0.460
719.53	0.460
719.71	0.461
719.90	0.460
720.08	0.459
720.27	0.459
720.45	0.458
720.63	0.458
720.82	0.456
721.00	0.457
721.19	0.456
721.37	0.456
721.56	0.453
721.74	0.451
721.93	0.450
722.11	0.449
722.30	0.449
722.48	0.447
722.66	0.446
722.85	0.446
723.03	0.443
723.22	0.443
723.40	0.444
723.59	0.446
723.77	0.443
723.95	0.444
724.14	0.442
724.32	0.440
724.51	0.439
724.69	0.440
724.88	0.442
725.06	0.441
725.24	0.440
725.43	0.440
725.61	0.441
725.80	0.442
725.98	0.444
726.16	0.444
726.35	0.443
726.53	0.443
726.72	0.440
726.90	0.436
727.09	0.435
727.27	0.430
727.45	0.426
727.64	0.418
727.82	0.415
728.01	0.408
728.19	0.409
728.37	0.404
728.56	0.400
728.74	0.395
728.92	0.397
729.11	0.396
729.29	0.396
729.48	0.394
729.66	0.396
729.84	0.394
730.03	0.393
730.21	0.388
730.40	0.389
730.58	0.389
730.76	0.391
730.95	0.387
731.13	0.385
731.31	0.379
731.50	0.373
731.68	0.369
731.86	0.370
732.05	0.364
732.23	0.363
732.42	0.361
732.60	0.356
732.78	0.350
732.97	0.341
733.15	0.337
733.33	0.336
733.52	0.333
733.70	0.330
733.88	0.324
734.07	0.323
734.25	0.315
734.43	0.314
734.62	0.313
734.80	0.314
734.98	0.315
735.17	0.312
735.35	0.311
735.53	0.312
735.72	0.308
735.90	0.304
736.08	0.302
736.27	0.304
736.45	0.301
736.63	0.302
736.82	0.296
737.00	0.294
737.18	0.293
737.37	0.288
737.55	0.282
737.73	0.281
737.92	0.281
738.10	0.284
738.28	0.281
738.46	0.278
738.65	0.272
738.83	0.274
739.01	0.271
739.20	0.270
739.38	0.271
739.56	0.277
739.75	0.280
739.93	0.285
740.11	0.279
740.29	0.280
740.48	0.282
740.66	0.287
740.84	0.288
741.03	0.292
741.21	0.290
741.39	0.298
741.57	0.297
741.76	0.298
741.94	0.298
742.12	0.305
742.31	0.309
742.49	0.311
742.67	0.309
742.85	0.304
743.04	0.310
743.22	0.314
743.40	0.304
743.58	0.309
743.77	0.308
743.95	0.314
744.13	0.306
744.31	0.304
744.50	0.298
744.68	0.299
744.86	0.301
745.04	0.294
745.23	0.290
745.41	0.295
745.59	0.292
745.77	0.298
745.96	0.299
746.14	0.300
746.32	0.309
746.50	0.311
746.69	0.316
746.87	0.321
747.05	0.321
747.23	0.336
747.42	0.343
747.60	0.338
747.78	0.334
747.96	0.319
748.14	0.323
748.33	0.317
748.51	0.318
748.69	0.321
748.87	0.318
749.06	0.324
749.24	0.310
749.42	0.303
749.60	0.306
749.78	0.304
749.97	0.312
750.15	0.316
750.33	0.312
750.51	0.311
750.69	0.303
750.88	0.297
751.06	0.295
751.24	0.296
751.42	0.300
751.60	0.297
751.79	0.290
751.97	0.293
752.15	0.289
752.33	0.293
752.51	0.286
752.69	0.292
752.88	0.293
753.06	0.286
753.24	0.291
753.42	0.287
753.60	0.280
753.78	0.290
753.97	0.280
754.15	0.286
754.33	0.281
754.51	0.289
754.69	0.284
754.87	0.282
755.06	0.288
755.24	0.280
755.42	0.283
755.60	0.291
755.78	0.282
755.96	0.281
756.15	0.277
756.33	0.276
756.51	0.269
756.69	0.272
756.87	0.274
757.05	0.271
757.23	0.272
757.42	0.271
757.60	0.270
757.78	0.273
757.96	0.274
758.14	0.271
758.32	0.272
758.50	0.270
758.69	0.266
758.87	0.267
759.05	0.265
759.23	0.264
759.41	0.262
759.59	0.263
759.77	0.261
759.95	0.262
760.13	0.258
760.32	0.256
760.50	0.257
760.68	0.255
760.86	0.254
761.04	0.257
761.22	0.261
761.40	0.256
761.58	0.251
761.76	0.250
761.95	0.247
762.13	0.251
762.31	0.251
762.49	0.254
762.67	0.251
762.85	0.252
763.03	0.255
763.21	0.255
763.39	0.257
763.57	0.260
763.75	0.262
763.94	0.265
764.12	0.262
764.30	0.262
764.48	0.260
764.66	0.266
764.84	0.264
765.02	0.258
765.20	0.254
765.38	0.256
765.56	0.258
765.74	0.253
765.92	0.252
766.10	0.254
766.28	0.256
766.46	0.255
766.65	0.255
766.83	0.255
767.01	0.256
767.19	0.257
767.37	0.258
767.55	0.258
767.73	0.261
767.91	0.264
768.09	0.267
768.27	0.266
768.45	0.269
768.63	0.265
768.81	0.264
768.99	0.268
769.17	0.265
769.35	0.263
769.53	0.262
769.71	0.264
769.89	0.263
770.07	0.263
770.25	0.267
770.43	0.273
770.61	0.273
770.79	0.273
770.97	0.271
771.15	0.273
771.33	0.274
771.51	0.278
771.69	0.276
771.87	0.274
772.05	0.272
772.24	0.271
772.42	0.265
772.60	0.266
772.78	0.265
772.96	0.265
773.14	0.271
773.32	0.276
773.49	0.275
773.67	0.276
773.85	0.279
774.03	0.281
774.21	0.281
774.39	0.289
774.57	0.289
774.75	0.295
774.93	0.296
775.11	0.292
775.29	0.290
775.47	0.288
775.65	0.291
775.83	0.296
776.01	0.295
776.19	0.301
776.37	0.299
776.55	0.304
776.73	0.302
776.91	0.302
777.09	0.306
777.27	0.312
777.45	0.318
777.63	0.322
777.81	0.321
777.99	0.323
778.17	0.324
778.35	0.323
778.53	0.329
778.71	0.331
778.89	0.333
779.07	0.334
779.24	0.332
779.42	0.325
779.60	0.319
779.78	0.311
779.96	0.309
780.14	0.308
780.32	0.303
780.50	0.299
780.68	0.299
780.86	0.302
781.04	0.297
781.22	0.290
781.40	0.291
781.58	0.294
781.75	0.297
781.93	0.302
782.11	0.302
782.29	0.304
782.47	0.306
782.65	0.310
782.83	0.306
783.01	0.310
783.19	0.313
783.37	0.316
783.55	0.314
783.72	0.317
783.90	0.312
784.08	0.311
784.26	0.319
784.44	0.314
784.62	0.315
784.80	0.320
784.98	0.317
785.16	0.322
785.33	0.320
785.51	0.328
785.69	0.332
785.87	0.338
786.05	0.337
786.23	0.330
786.41	0.337
786.59	0.337
786.77	0.336
786.94	0.338
787.12	0.335
787.30	0.335
787.48	0.331
787.66	0.332
787.84	0.327
788.02	0.333
788.19	0.335
788.37	0.333
788.55	0.332
788.73	0.333
788.91	0.335
789.09	0.337
789.27	0.344
789.44	0.348
789.62	0.346
789.80	0.346
789.98	0.343
790.16	0.347
790.34	0.348
790.51	0.355
790.69	0.354
790.87	0.357
791.05	0.362
791.23	0.359
791.41	0.357
791.58	0.356
791.76	0.362
791.94	0.363
792.12	0.362
792.30	0.360
792.48	0.358
792.65	0.356
792.83	0.353
793.01	0.350
793.19	0.352
793.37	0.354
793.54	0.357
793.72	0.352
793.90	0.354
794.08	0.358
794.26	0.362
794.43	0.364
794.61	0.372
794.79	0.371
794.97	0.375
795.15	0.373
795.32	0.373
795.50	0.378
795.68	0.383
795.86	0.383
796.04	0.382
796.21	0.383
796.39	0.383
796.57	0.380
796.75	0.385
796.92	0.380
797.10	0.383
797.28	0.387
797.46	0.385
797.64	0.384
797.81	0.386
797.99	0.384
798.17	0.385
798.35	0.385
798.52	0.384
798.70	0.384
798.88	0.385
799.06	0.382
799.23	0.378
799.41	0.377
799.59	0.380
799.77	0.383
799.94	0.382
800.12	0.381
800.30	0.376
800.48	0.378
800.65	0.384
800.83	0.389
801.01	0.395
801.19	0.396
801.36	0.399
801.54	0.403
801.72	0.399
801.90	0.404
802.07	0.404
802.25	0.411
802.43	0.420
802.60	0.416
802.78	0.413
802.96	0.418
803.14	0.423
803.31	0.422
803.49	0.420
803.67	0.424
803.84	0.420
804.02	0.423
804.20	0.423
804.38	0.416
804.55	0.417
804.73	0.421
804.91	0.419
805.08	0.414
805.26	0.415
805.44	0.407
805.61	0.406
805.79	0.411
805.97	0.412
806.15	0.412
806.32	0.417
806.50	0.418
806.68	0.418
806.85	0.411
807.03	0.414
807.21	0.409
807.38	0.415
807.56	0.420
807.74	0.415
807.91	0.419
808.09	0.418
808.27	0.411
808.44	0.406
808.62	0.405
808.80	0.413
808.97	0.415
809.15	0.418
809.33	0.417
809.50	0.412
809.68	0.417
809.86	0.415
810.03	0.410
810.21	0.416
810.39	0.416
810.56	0.415
810.74	0.407
810.91	0.398
811.09	0.402
811.27	0.401
811.44	0.404
811.62	0.406
811.80	0.405
811.97	0.411
812.15	0.415
812.33	0.415
812.50	0.423
812.68	0.427
812.85	0.436
813.03	0.436
813.21	0.442
813.38	0.445
813.56	0.445
813.74	0.440
813.91	0.434
814.09	0.425
814.26	0.431
814.44	0.422
814.62	0.422
814.79	0.422
814.97	0.420
815.14	0.418
815.32	0.412
815.50	0.408
815.67	0.412
815.85	0.417
816.02	0.418
816.20	0.414
816.38	0.420
816.55	0.419
816.73	0.416
816.90	0.414
817.08	0.409
817.26	0.408
817.43	0.415
817.61	0.408
817.78	0.405
817.96	0.413
818.13	0.414
818.31	0.412
818.49	0.410
818.66	0.416
818.84	0.418
819.01	0.425
819.19	0.427
819.36	0.427
819.54	0.433
819.71	0.431
819.89	0.424
820.07	0.422
820.24	0.417
820.42	0.421
820.59	0.416
820.77	0.414
820.94	0.411
821.12	0.409
821.29	0.403
821.47	0.407
821.64	0.412
821.82	0.413
822.00	0.413
822.17	0.422
822.35	0.420
822.52	0.419
822.70	0.423
822.87	0.424
823.05	0.427
823.22	0.429
823.40	0.428
823.57	0.423
823.75	0.432
823.92	0.436
824.10	0.428
824.27	0.423
824.45	0.429
824.62	0.419
824.80	0.416
824.97	0.419
825.15	0.413
825.32	0.410
825.50	0.409
825.67	0.398
825.85	0.394
826.02	0.397
826.20	0.398
826.37	0.382
826.55	0.396
826.72	0.387
826.90	0.380
827.07	0.374
827.25	0.376
827.42	0.372
827.60	0.371
827.77	0.369
827.95	0.373
828.12	0.375
828.30	0.387
828.47	0.371
828.65	0.380
828.82	0.389
829.00	0.397
829.17	0.398
829.34	0.403
829.52	0.408
829.69	0.395
829.87	0.394
830.04	0.388
830.22	0.378
830.39	0.383
830.57	0.385
830.74	0.372
830.92	0.367
831.09	0.350
831.26	0.356
831.44	0.347
831.61	0.364
831.79	0.351
831.96	0.350
832.14	0.375
832.31	0.365
832.49	0.360
832.66	0.369
832.83	0.394
833.01	0.423
833.18	0.447
833.36	0.442
833.53	0.426
833.70	0.424
833.88	0.440
834.05	0.402
834.23	0.436
834.40	0.431
834.58	0.419
834.75	0.393
834.92	0.367
835.10	0.351
835.27	0.368
835.45	0.383
835.62	0.399
835.79	0.391
835.97	0.401
836.14	0.401
836.32	0.419
836.49	0.461
836.66	0.456
836.84	0.456
837.01	0.443
837.18	0.434
837.36	0.464
837.53	0.456
837.71	0.486
837.88	0.509
838.05	0.461
838.23	0.463
838.40	0.451
838.58	0.465
838.75	0.480
838.92	0.518
839.10	0.538
839.27	0.501
839.44	0.513
839.62	0.481
839.79	0.446
839.96	0.469
840.14	0.438
840.31	0.437
840.48	0.467
840.66	0.489
840.83	0.449
841.01	0.465
841.18	0.518
841.35	0.479
841.53	0.499
841.70	0.510
841.87	0.524
842.05	0.567
842.22	0.532
842.39	0.486
842.57	0.520
842.74	0.533
842.91	0.492
843.09	0.455
843.26	0.450
843.43	0.466
843.60	0.480
843.78	0.463
843.95	0.449
844.12	0.494
844.30	0.506
844.47	0.478
844.64	0.479
844.82	0.498
844.99	0.477
845.16	0.495
845.34	0.522
845.51	0.510
845.68	0.515
845.85	0.510
846.03	0.477
846.20	0.520
846.37	0.549
846.55	0.542
846.72	0.528
846.89	0.550
847.06	0.540
847.24	0.536
847.41	0.534
847.58	0.554
847.76	0.554
847.93	0.510
848.10	0.497
848.27	0.489
848.45	0.571
848.62	0.578
848.79	0.650
848.97	0.778
849.14	0.657
849.31	0.717
849.48	0.866
849.66	1.102
849.83	1.115
850.00	0.944
850.17	0.775
850.35	0.656
850.52	0.693
850.69	0.644
850.86	0.573
851.04	0.571
851.21	0.623
851.38	0.552
851.55	0.556
851.72	0.563
851.90	0.571
852.07	0.585
852.24	0.668
852.41	0.596
852.59	0.571
852.76	0.574
852.93	0.583
853.10	0.501
853.28	0.569
853.45	0.495
853.62	0.527
853.79	0.526
853.96	0.571
854.14	0.533
854.31	0.621
854.48	0.645
854.65	0.638
854.82	0.681
855.00	0.808
855.17	0.678
855.34	0.710
855.51	0.713
855.68	0.802
855.86	0.713
856.03	0.738
856.20	0.671
856.37	0.666
856.54	0.724
856.72	0.704
856.89	0.758
857.06	0.862
857.23	0.857
857.40	0.844
857.57	1.016
857.75	1.266
857.92	1.095
858.09	1.429
858.26	-0.000
858.43	1.311
858.60	1.619
858.78	3.441
858.95	1.365
859.12	-0.000
859.29	-0.000
859.46	-0.000
859.63	-0.000
859.81	-0.000
859.98	-0.000
860.15	-0.000
860.32	-0.000
860.49	-0.000
860.66	-0.000
860.83	-0.000
861.01	-0.000
861.18	-0.000
861.35	-0.000
861.52	-0.000
861.69	-0.000
861.86	-0.000
862.03	-0.000
862.21	-0.000
862.38	-0.000
862.55	-0.000
862.72	-0.000
862.89	-0.000
863.06	-0.000
863.23	-0.000
863.40	-0.000
863.58	-0.000
863.75	-0.000
863.92	-0.000
864.09	-0.000
864.26	-0.000
864.43	-0.000
864.60	-0.000
864.77	-0.000
864.94	-0.000
865.11	-0.000
865.29	-0.000
865.46	-0.000
865.63	-0.000
865.80	-0.000
865.97	-0.000
866.14	-0.000
866.31	-0.000
866.48	-0.000
866.65	-0.000
866.82	-0.000
866.99	-0.000
867.16	-0.000
867.34	-0.000
867.51	-0.000
867.68	-0.000
867.85	-0.000
868.02	-0.000
868.19	-0.000
868.36	-0.000
868.53	-0.000
868.70	-0.000
868.87	-0.000
869.04	-0.000
869.21	-0.000
869.38	-0.000
869.55	-0.000
869.72	-0.000
869.89	-0.000
870.06	-0.000
870.24	-0.000
870.41	-0.000
870.58	-0.000
870.75	-0.000
870.92	-0.000
871.09	-0.000
871.26	-0.000
871.43	-0.000
871.60	-0.000
871.77	-0.000
871.94	-0.000
872.11	-0.000
872.28	-0.000
872.45	-0.000
872.62	-0.000
872.79	-0.000
872.96	-0.000
873.13	-0.000
873.30	-0.000
873.47	-0.000
873.64	-0.000
873.81	-0.000
873.98	-0.000
874.15	-0.000
874.32	-0.000
874.49	-0.000
874.66	-0.000
874.83	-0.000
875.00	-0.000
875.17	-0.000
875.34	-0.000
875.51	-0.000
875.68	-0.000
875.85	-0.000
876.02	-0.000
876.19	-0.000
876.36	-0.000
876.53	-0.000
876.70	-0.000
876.87	-0.000
877.04	-0.000
877.21	-0.000
877.38	-0.000
877.55	-0.000
877.72	-0.000
877.89	-0.000
878.06	-0.000
878.23	-0.000
878.39	-0.000
878.56	-0.000
878.73	-0.000
878.90	-0.000
879.07	-0.000
879.24	-0.000
879.41	-0.000
879.58	-0.000
879.75	-0.000
879.92	-0.000
880.09	-0.000
880.26	-0.000
880.43	-0.000
880.60	-0.000
880.77	-0.000
880.94	-0.000
881.11	-0.000
881.27	-0.000
881.44	-0.000
881.61	-0.000
881.78	-0.000
881.95	-0.000
882.12	-0.000
882.29	-0.000
882.46	-0.000
882.63	-0.000
882.80	-0.000
882.97	-0.000
883.14	-0.000
883.30	-0.000
883.47	-0.000
883.64	-0.000
883.81	-0.000
883.98	-0.000
884.15	-0.000
884.32	-0.000
884.49	-0.000
884.66	-0.000
884.82	-0.000
884.99	-0.000
885.16	-0.000
885.33	-0.000
885.50	-0.000
885.67	-0.000
885.84	-0.000
886.01	-0.000
886.17	-0.000
886.34	-0.000
886.51	-0.000
886.68	-0.000
886.85	-0.000
887.02	-0.000
887.19	-0.000
887.36	-0.000
887.52	-0.000
887.69	-0.000
887.86	-0.000
888.03	-0.000
888.20	-0.000
888.37	-0.000
888.54	-0.000
888.70	-0.000
888.87	-0.000
889.04	-0.000
889.21	-0.000
889.38	-0.000
889.55	-0.000
889.71	-0.000
889.88	-0.000
890.05	-0.000
890.22	-0.000
890.39	-0.000
>>>>>End Processed Spectral Data<<<<<
