SpectraSuite Data File
++++++++++++++++++++++++++++++++++++
Date: Fri Jun 19 15:29:57 CEST 2015
User: introlabs
Dark Spectrum Present: Yes
Reference Spectrum Present: Yes
Number of Sampled Component Spectra: 1
Spectrometers: USB4H08886
Integration Time (usec): 745692 (USB4H08886)
Spectra Averaged: 5 (USB4H08886)
Boxcar Smoothing: 5 (USB4H08886)
Correct for Electrical Dark: Yes (USB4H08886)
Strobe/Lamp Enabled: No (USB4H08886)
Correct for Detector Non-linearity: Yes (USB4H08886)
Correct for Stray Light: Yes (USB4H08886)
Number of Pixels in Processed Spectrum: 3648
>>>>>Begin Processed Spectral Data<<<<<
178.14	-0.000
178.36	-0.000
178.57	-0.000
178.79	-0.000
179.01	-0.000
179.22	-0.000
179.44	-0.000
179.65	-0.000
179.87	-0.000
180.08	-0.000
180.30	-0.000
180.52	-0.000
180.73	-0.000
180.95	-0.000
181.16	-0.000
181.38	-0.000
181.59	-0.000
181.81	-0.000
182.03	-0.000
182.24	-0.000
182.46	-0.000
182.67	-0.000
182.89	-0.000
183.10	-0.000
183.32	-0.000
183.54	-0.000
183.75	-0.000
183.97	-0.000
184.18	-0.000
184.40	-0.000
184.61	-0.000
184.83	-0.000
185.04	-0.000
185.26	-0.000
185.48	-0.000
185.69	-0.000
185.91	-0.000
186.12	-0.000
186.34	-0.000
186.55	-0.000
186.77	-0.000
186.98	-0.000
187.20	-0.000
187.42	-0.000
187.63	-0.000
187.85	-0.000
188.06	-0.000
188.28	-0.000
188.49	-0.000
188.71	-0.000
188.92	-0.000
189.14	-0.000
189.36	-0.000
189.57	-0.000
189.79	-0.000
190.00	-0.000
190.22	-0.000
190.43	-0.000
190.65	-0.000
190.86	-0.000
191.08	-0.000
191.29	-0.000
191.51	-0.000
191.72	-0.000
191.94	-0.000
192.16	-0.000
192.37	-0.000
192.59	-0.000
192.80	-0.000
193.02	-0.000
193.23	-0.000
193.45	-0.000
193.66	-0.000
193.88	-0.000
194.09	-0.000
194.31	-0.000
194.52	-0.000
194.74	-0.000
194.95	-0.000
195.17	-0.000
195.38	-0.000
195.60	-0.000
195.81	-0.000
196.03	-0.000
196.25	-0.000
196.46	-0.000
196.68	-0.000
196.89	-0.000
197.11	-0.000
197.32	-0.000
197.54	-0.000
197.75	-0.000
197.97	-0.000
198.18	-0.000
198.40	-0.000
198.61	-0.000
198.83	-0.000
199.04	-0.000
199.26	-0.000
199.47	-0.000
199.69	-0.000
199.90	-0.000
200.12	-0.000
200.33	-0.000
200.55	-0.000
200.76	-0.000
200.98	-0.000
201.19	-0.000
201.41	-0.000
201.62	-0.000
201.84	-0.000
202.05	-0.000
202.27	-0.000
202.48	-0.000
202.70	-0.000
202.91	-0.000
203.13	-0.000
203.34	-0.000
203.56	-0.000
203.77	-0.000
203.99	-0.000
204.20	-0.000
204.42	-0.000
204.63	-0.000
204.85	-0.000
205.06	-0.000
205.28	-0.000
205.49	-0.000
205.71	-0.000
205.92	-0.000
206.14	-0.000
206.35	-0.000
206.56	-0.000
206.78	-0.000
206.99	-0.000
207.21	-0.000
207.42	-0.000
207.64	-0.000
207.85	-0.000
208.07	-0.000
208.28	-0.000
208.50	-0.000
208.71	-0.000
208.93	-0.000
209.14	-0.000
209.36	-0.000
209.57	-0.000
209.79	-0.000
210.00	-0.000
210.22	-0.000
210.43	-0.000
210.64	-0.000
210.86	-0.000
211.07	-0.000
211.29	-0.000
211.50	-0.000
211.72	-0.000
211.93	-0.000
212.15	-0.000
212.36	-0.000
212.58	-0.000
212.79	-0.000
213.01	-0.000
213.22	-0.000
213.43	-0.000
213.65	-0.000
213.86	-0.000
214.08	-0.000
214.29	-0.000
214.51	-0.000
214.72	-0.000
214.94	-0.000
215.15	-0.000
215.36	-0.000
215.58	-0.000
215.79	-0.000
216.01	-0.000
216.22	-0.000
216.44	-0.000
216.65	-0.000
216.87	-0.000
217.08	-0.000
217.29	-0.000
217.51	-0.000
217.72	-0.000
217.94	-0.000
218.15	-0.000
218.37	-0.000
218.58	-0.000
218.80	-0.000
219.01	-0.000
219.22	-0.000
219.44	-0.000
219.65	-0.000
219.87	-0.000
220.08	-0.000
220.30	-0.000
220.51	-0.000
220.72	-0.000
220.94	-0.000
221.15	-0.000
221.37	-0.000
221.58	-0.000
221.79	-0.000
222.01	-0.000
222.22	-0.000
222.44	-0.000
222.65	-0.000
222.87	-0.000
223.08	-0.000
223.29	-0.000
223.51	-0.000
223.72	-0.000
223.94	-0.000
224.15	-0.000
224.36	-0.000
224.58	-0.000
224.79	-0.000
225.01	-0.000
225.22	-0.000
225.44	-0.000
225.65	-0.000
225.86	-0.000
226.08	-0.000
226.29	-0.000
226.51	-0.000
226.72	-0.000
226.93	-0.000
227.15	-0.000
227.36	-0.000
227.58	-0.000
227.79	-0.000
228.00	-0.000
228.22	-0.000
228.43	-0.000
228.65	-0.000
228.86	-0.000
229.07	-0.000
229.29	-0.000
229.50	-0.000
229.72	-0.000
229.93	-0.000
230.14	-0.000
230.36	-0.000
230.57	-0.000
230.78	-0.000
231.00	-0.000
231.21	-0.000
231.43	-0.000
231.64	-0.000
231.85	-0.000
232.07	-0.000
232.28	-0.000
232.50	-0.000
232.71	-0.000
232.92	-0.000
233.14	-0.000
233.35	-0.000
233.56	-0.000
233.78	-0.000
233.99	-0.000
234.21	-0.000
234.42	-0.000
234.63	-0.000
234.85	-0.000
235.06	-0.000
235.27	-0.000
235.49	-0.000
235.70	-0.000
235.91	-0.000
236.13	-0.000
236.34	-0.000
236.56	-0.000
236.77	-0.000
236.98	-0.000
237.20	-0.000
237.41	-0.000
237.62	-0.000
237.84	-0.000
238.05	-0.000
238.26	-0.000
238.48	-0.000
238.69	-0.000
238.91	-0.000
239.12	-0.000
239.33	-0.000
239.55	-0.000
239.76	-0.000
239.97	-0.000
240.19	-0.000
240.40	-0.000
240.61	-0.000
240.83	-0.000
241.04	-0.000
241.25	-0.000
241.47	-0.000
241.68	-0.000
241.89	-0.000
242.11	-0.000
242.32	-0.000
242.53	-0.000
242.75	-0.000
242.96	-0.000
243.17	-0.000
243.39	-0.000
243.60	-0.000
243.81	-0.000
244.03	-0.000
244.24	-0.000
244.45	-0.000
244.67	-0.000
244.88	-0.000
245.09	-0.000
245.31	-0.000
245.52	-0.000
245.73	-0.000
245.95	-0.000
246.16	-0.000
246.37	-0.000
246.59	-0.000
246.80	-0.000
247.01	-0.000
247.23	-0.000
247.44	-0.000
247.65	-0.000
247.87	-0.000
248.08	-0.000
248.29	-0.000
248.51	-0.000
248.72	-0.000
248.93	-0.000
249.15	-0.000
249.36	-0.000
249.57	-0.000
249.78	-0.000
250.00	-0.000
250.21	-0.000
250.42	-0.000
250.64	-0.000
250.85	-0.000
251.06	-0.000
251.28	-0.000
251.49	-0.000
251.70	-0.000
251.92	-0.000
252.13	-0.000
252.34	-0.000
252.55	-0.000
252.77	-0.000
252.98	-0.000
253.19	-0.000
253.41	-0.000
253.62	-0.000
253.83	-0.000
254.05	-0.000
254.26	-0.000
254.47	-0.000
254.68	-0.000
254.90	-0.000
255.11	-0.000
255.32	-0.000
255.54	-0.000
255.75	-0.000
255.96	-0.000
256.17	-0.000
256.39	-0.000
256.60	-0.000
256.81	-0.000
257.03	-0.000
257.24	-0.000
257.45	-0.000
257.66	-0.000
257.88	-0.000
258.09	-0.000
258.30	-0.000
258.51	-0.000
258.73	-0.000
258.94	-0.000
259.15	-0.000
259.37	-0.000
259.58	-0.000
259.79	-0.000
260.00	-0.000
260.22	-0.000
260.43	-0.000
260.64	-0.000
260.85	-0.000
261.07	-0.000
261.28	-0.000
261.49	-0.000
261.71	-0.000
261.92	-0.000
262.13	-0.000
262.34	-0.000
262.56	-0.000
262.77	-0.000
262.98	-0.000
263.19	-0.000
263.41	-0.000
263.62	-0.000
263.83	-0.000
264.04	-0.000
264.26	-0.000
264.47	-0.000
264.68	-0.000
264.89	-0.000
265.11	-0.000
265.32	-0.000
265.53	-0.000
265.74	-0.000
265.96	-0.000
266.17	-0.000
266.38	-0.000
266.59	-0.000
266.81	-0.000
267.02	-0.000
267.23	-0.000
267.44	-0.000
267.65	-0.000
267.87	-0.000
268.08	-0.000
268.29	-0.000
268.50	-0.000
268.72	-0.000
268.93	-0.000
269.14	-0.000
269.35	-0.000
269.57	-0.000
269.78	-0.000
269.99	-0.000
270.20	-0.000
270.41	-0.000
270.63	-0.000
270.84	-0.000
271.05	-0.000
271.26	-0.000
271.48	-0.000
271.69	-0.000
271.90	-0.000
272.11	-0.000
272.32	-0.000
272.54	-0.000
272.75	-0.000
272.96	-0.000
273.17	-0.000
273.39	-0.000
273.60	-0.000
273.81	-0.000
274.02	-0.000
274.23	-0.000
274.45	-0.000
274.66	-0.000
274.87	-0.000
275.08	-0.000
275.29	-0.000
275.51	-0.000
275.72	-0.000
275.93	-0.000
276.14	-0.000
276.35	-0.000
276.57	-0.000
276.78	-0.000
276.99	-0.000
277.20	-0.000
277.41	-0.000
277.63	-0.000
277.84	-0.000
278.05	-0.000
278.26	-0.000
278.47	-0.000
278.69	-0.000
278.90	-0.000
279.11	-0.000
279.32	-0.000
279.53	-0.000
279.74	-0.000
279.96	-0.000
280.17	-0.000
280.38	-0.000
280.59	-0.000
280.80	-0.000
281.02	-0.000
281.23	-0.000
281.44	-0.000
281.65	-0.000
281.86	-0.000
282.07	-0.000
282.29	-0.000
282.50	-0.000
282.71	-0.000
282.92	-0.000
283.13	-0.000
283.35	-0.000
283.56	-0.000
283.77	-0.000
283.98	-0.000
284.19	-0.000
284.40	-0.000
284.62	-0.000
284.83	-0.000
285.04	-0.000
285.25	-0.000
285.46	-0.000
285.67	-0.000
285.88	-0.000
286.10	-0.000
286.31	-0.000
286.52	-0.000
286.73	-0.000
286.94	-0.000
287.15	-0.000
287.37	-0.000
287.58	-0.000
287.79	-0.000
288.00	-0.000
288.21	-0.000
288.42	-0.000
288.63	-0.000
288.85	-0.000
289.06	-0.000
289.27	-0.000
289.48	-0.000
289.69	-0.000
289.90	-0.000
290.11	-0.000
290.33	-0.000
290.54	-0.000
290.75	-0.000
290.96	-0.000
291.17	-0.000
291.38	-0.000
291.59	-0.000
291.81	-0.000
292.02	-0.000
292.23	-0.000
292.44	-0.000
292.65	-0.000
292.86	-0.000
293.07	-0.000
293.28	-0.000
293.50	-0.000
293.71	-0.000
293.92	-0.000
294.13	-0.000
294.34	-0.000
294.55	-0.000
294.76	-0.000
294.97	-0.000
295.19	-0.000
295.40	-0.000
295.61	-0.000
295.82	-0.000
296.03	-0.000
296.24	-0.000
296.45	2.060
296.66	1.760
296.87	1.763
297.09	1.813
297.30	1.970
297.51	1.667
297.72	1.633
297.93	1.707
298.14	1.675
298.35	1.629
298.56	1.610
298.77	1.716
298.99	1.695
299.20	1.689
299.41	1.668
299.62	1.617
299.83	1.613
300.04	1.562
300.25	1.554
300.46	1.578
300.67	1.556
300.88	1.514
301.10	1.516
301.31	1.571
301.52	1.517
301.73	1.473
301.94	1.478
302.15	1.490
302.36	1.448
302.57	1.395
302.78	1.402
302.99	1.441
303.20	1.461
303.41	1.374
303.63	1.357
303.84	1.363
304.05	1.361
304.26	1.307
304.47	1.307
304.68	1.307
304.89	1.299
305.10	1.265
305.31	1.253
305.52	1.289
305.73	1.289
305.94	1.256
306.15	1.249
306.37	1.267
306.58	1.278
306.79	1.254
307.00	1.278
307.21	1.314
307.42	1.309
307.63	1.276
307.84	1.243
308.05	1.275
308.26	1.275
308.47	1.256
308.68	1.248
308.89	1.245
309.10	1.243
309.31	1.203
309.52	1.195
309.73	1.208
309.95	1.205
310.16	1.179
310.37	1.167
310.58	1.182
310.79	1.180
311.00	1.182
311.21	1.185
311.42	1.183
311.63	1.178
311.84	1.163
312.05	1.159
312.26	1.179
312.47	1.190
312.68	1.169
312.89	1.156
313.10	1.160
313.31	1.136
313.52	1.137
313.73	1.139
313.94	1.142
314.15	1.125
314.36	1.105
314.57	1.097
314.78	1.086
314.99	1.082
315.21	1.071
315.42	1.076
315.63	1.085
315.84	1.064
316.05	1.054
316.26	1.061
316.47	1.075
316.68	1.073
316.89	1.056
317.10	1.073
317.31	1.076
317.52	1.074
317.73	1.054
317.94	1.052
318.15	1.093
318.36	1.091
318.57	1.076
318.78	1.066
318.99	1.098
319.20	1.096
319.41	1.065
319.62	1.067
319.83	1.081
320.04	1.077
320.25	1.066
320.46	1.034
320.67	1.036
320.88	1.032
321.09	1.020
321.30	1.005
321.51	1.019
321.72	1.017
321.93	1.003
322.14	0.993
322.35	1.018
322.56	1.022
322.77	1.012
322.98	1.021
323.19	1.027
323.40	1.033
323.61	1.013
323.82	1.007
324.03	1.013
324.24	1.011
324.45	1.000
324.66	0.982
324.87	0.976
325.08	0.974
325.29	0.959
325.50	0.951
325.71	0.956
325.92	0.965
326.13	0.952
326.34	0.953
326.55	0.960
326.76	0.958
326.97	0.949
327.18	0.943
327.39	0.966
327.60	0.964
327.80	0.967
328.01	0.965
328.22	0.964
328.43	0.967
328.64	0.956
328.85	0.960
329.06	0.963
329.27	0.962
329.48	0.958
329.69	0.940
329.90	0.951
330.11	0.944
330.32	0.937
330.53	0.931
330.74	0.930
330.95	0.929
331.16	0.915
331.37	0.922
331.58	0.921
331.79	0.923
332.00	0.915
332.21	0.909
332.42	0.912
332.63	0.905
332.83	0.900
333.04	0.903
333.25	0.914
333.46	0.913
333.67	0.900
333.88	0.901
334.09	0.910
334.30	0.907
334.51	0.900
334.72	0.895
334.93	0.896
335.14	0.897
335.35	0.888
335.56	0.884
335.77	0.891
335.98	0.890
336.18	0.885
336.39	0.877
336.60	0.879
336.81	0.878
337.02	0.878
337.23	0.883
337.44	0.884
337.65	0.888
337.86	0.878
338.07	0.873
338.28	0.877
338.49	0.875
338.70	0.868
338.91	0.876
339.11	0.882
339.32	0.879
339.53	0.867
339.74	0.865
339.95	0.861
340.16	0.860
340.37	0.854
340.58	0.853
340.79	0.856
341.00	0.856
341.21	0.845
341.41	0.844
341.62	0.844
341.83	0.846
342.04	0.842
342.25	0.851
342.46	0.855
342.67	0.853
342.88	0.846
343.09	0.845
343.30	0.852
343.50	0.855
343.71	0.846
343.92	0.845
344.13	0.848
344.34	0.847
344.55	0.832
344.76	0.830
344.97	0.834
345.18	0.833
345.38	0.832
345.59	0.826
345.80	0.825
346.01	0.824
346.22	0.821
346.43	0.816
346.64	0.823
346.85	0.823
347.06	0.816
347.26	0.817
347.47	0.820
347.68	0.814
347.89	0.811
348.10	0.806
348.31	0.812
348.52	0.810
348.73	0.807
348.93	0.804
349.14	0.807
349.35	0.806
349.56	0.801
349.77	0.796
349.98	0.801
350.19	0.799
350.39	0.795
350.60	0.791
350.81	0.806
351.02	0.805
351.23	0.801
351.44	0.803
351.65	0.806
351.86	0.805
352.06	0.803
352.27	0.804
352.48	0.805
352.69	0.804
352.90	0.798
353.11	0.784
353.31	0.790
353.52	0.787
353.73	0.778
353.94	0.779
354.15	0.783
354.36	0.783
354.57	0.775
354.77	0.776
354.98	0.776
355.19	0.776
355.40	0.776
355.61	0.782
355.82	0.786
356.02	0.786
356.23	0.779
356.44	0.781
356.65	0.784
356.86	0.784
357.07	0.779
357.27	0.782
357.48	0.782
357.69	0.777
357.90	0.763
358.11	0.759
358.32	0.762
358.52	0.765
358.73	0.756
358.94	0.758
359.15	0.762
359.36	0.763
359.56	0.758
359.77	0.756
359.98	0.764
360.19	0.763
360.40	0.761
360.61	0.762
360.81	0.760
361.02	0.761
361.23	0.753
361.44	0.752
361.65	0.753
361.85	0.753
362.06	0.751
362.27	0.753
362.48	0.752
362.69	0.754
362.89	0.748
363.10	0.750
363.31	0.753
363.52	0.756
363.73	0.750
363.93	0.750
364.14	0.751
364.35	0.754
364.56	0.744
364.77	0.746
364.97	0.748
365.18	0.748
365.39	0.744
365.60	0.742
365.81	0.742
366.01	0.742
366.22	0.739
366.43	0.739
366.64	0.740
366.84	0.745
367.05	0.742
367.26	0.741
367.47	0.744
367.68	0.743
367.88	0.740
368.09	0.738
368.30	0.740
368.51	0.739
368.71	0.738
368.92	0.742
369.13	0.740
369.34	0.740
369.55	0.739
369.75	0.738
369.96	0.745
370.17	0.744
370.38	0.742
370.58	0.742
370.79	0.747
371.00	0.745
371.21	0.738
371.41	0.743
371.62	0.746
371.83	0.742
372.04	0.740
372.24	0.734
372.45	0.734
372.66	0.735
372.87	0.732
373.07	0.729
373.28	0.730
373.49	0.733
373.70	0.724
373.90	0.723
374.11	0.732
374.32	0.731
374.53	0.731
374.73	0.731
374.94	0.734
375.15	0.733
375.36	0.731
375.56	0.741
375.77	0.741
375.98	0.741
376.19	0.739
376.39	0.733
376.60	0.736
376.81	0.737
377.02	0.735
377.22	0.733
377.43	0.733
377.64	0.733
377.84	0.723
378.05	0.727
378.26	0.733
378.47	0.732
378.67	0.729
378.88	0.726
379.09	0.726
379.30	0.726
379.50	0.724
379.71	0.726
379.92	0.729
380.12	0.728
380.33	0.720
380.54	0.717
380.75	0.723
380.95	0.724
381.16	0.723
381.37	0.724
381.57	0.725
381.78	0.726
381.99	0.727
382.20	0.726
382.40	0.729
382.61	0.729
382.82	0.727
383.02	0.721
383.23	0.723
383.44	0.723
383.64	0.721
383.85	0.723
384.06	0.725
384.27	0.723
384.47	0.722
384.68	0.722
384.89	0.727
385.09	0.726
385.30	0.726
385.51	0.726
385.71	0.729
385.92	0.730
386.13	0.728
386.33	0.730
386.54	0.731
386.75	0.730
386.95	0.728
387.16	0.723
387.37	0.725
387.58	0.724
387.78	0.722
387.99	0.719
388.20	0.721
388.40	0.719
388.61	0.715
388.82	0.718
389.02	0.720
389.23	0.720
389.44	0.719
389.64	0.720
389.85	0.731
390.06	0.731
390.26	0.733
390.47	0.731
390.68	0.734
390.88	0.732
391.09	0.729
391.30	0.728
391.50	0.727
391.71	0.727
391.92	0.724
392.12	0.717
392.33	0.717
392.53	0.717
392.74	0.718
392.95	0.716
393.15	0.719
393.36	0.721
393.57	0.719
393.77	0.722
393.98	0.724
394.19	0.724
394.39	0.723
394.60	0.725
394.81	0.727
395.01	0.725
395.22	0.724
395.43	0.724
395.63	0.729
395.84	0.731
396.04	0.727
396.25	0.729
396.46	0.731
396.66	0.729
396.87	0.727
397.08	0.724
397.28	0.726
397.49	0.727
397.69	0.724
397.90	0.719
398.11	0.721
398.31	0.721
398.52	0.718
398.73	0.719
398.93	0.718
399.14	0.717
399.34	0.716
399.55	0.717
399.76	0.717
399.96	0.719
400.17	0.717
400.37	0.716
400.58	0.722
400.79	0.723
400.99	0.721
401.20	0.727
401.41	0.730
401.61	0.731
401.82	0.736
402.02	0.735
402.23	0.736
402.44	0.736
402.64	0.736
402.85	0.731
403.05	0.730
403.26	0.728
403.47	0.722
403.67	0.721
403.88	0.721
404.08	0.716
404.29	0.714
404.50	0.714
404.70	0.715
404.91	0.713
405.11	0.711
405.32	0.711
405.52	0.712
405.73	0.711
405.94	0.710
406.14	0.712
406.35	0.714
406.55	0.714
406.76	0.712
406.97	0.713
407.17	0.715
407.38	0.715
407.58	0.714
407.79	0.716
407.99	0.719
408.20	0.720
408.41	0.716
408.61	0.714
408.82	0.716
409.02	0.716
409.23	0.714
409.43	0.713
409.64	0.714
409.84	0.713
410.05	0.711
410.26	0.709
410.46	0.708
410.67	0.708
410.87	0.710
411.08	0.711
411.28	0.712
411.49	0.714
411.69	0.712
411.90	0.713
412.11	0.715
412.31	0.716
412.52	0.714
412.72	0.716
412.93	0.716
413.13	0.715
413.34	0.711
413.54	0.713
413.75	0.714
413.95	0.714
414.16	0.711
414.37	0.713
414.57	0.713
414.78	0.716
414.98	0.714
415.19	0.715
415.39	0.712
415.60	0.713
415.80	0.713
416.01	0.711
416.21	0.712
416.42	0.712
416.62	0.707
416.83	0.707
417.03	0.706
417.24	0.707
417.44	0.705
417.65	0.704
417.86	0.705
418.06	0.703
418.27	0.700
418.47	0.703
418.68	0.703
418.88	0.704
419.09	0.702
419.29	0.703
419.50	0.703
419.70	0.702
419.91	0.701
420.11	0.699
420.32	0.701
420.52	0.701
420.73	0.700
420.93	0.701
421.14	0.703
421.34	0.701
421.55	0.698
421.75	0.699
421.96	0.700
422.16	0.700
422.37	0.700
422.57	0.696
422.78	0.698
422.98	0.694
423.19	0.692
423.39	0.690
423.60	0.693
423.80	0.694
424.01	0.693
424.21	0.695
424.42	0.695
424.62	0.695
424.83	0.694
425.03	0.694
425.23	0.696
425.44	0.696
425.64	0.697
425.85	0.696
426.05	0.696
426.26	0.696
426.46	0.693
426.67	0.693
426.87	0.698
427.08	0.698
427.28	0.696
427.49	0.698
427.69	0.698
427.90	0.697
428.10	0.694
428.31	0.694
428.51	0.695
428.71	0.694
428.92	0.695
429.12	0.692
429.33	0.693
429.53	0.698
429.74	0.702
429.94	0.703
430.15	0.703
430.35	0.702
430.56	0.700
430.76	0.699
430.96	0.699
431.17	0.696
431.37	0.694
431.58	0.692
431.78	0.688
431.99	0.681
432.19	0.683
432.40	0.684
432.60	0.684
432.80	0.686
433.01	0.685
433.21	0.684
433.42	0.686
433.62	0.686
433.83	0.686
434.03	0.689
434.23	0.692
434.44	0.690
434.64	0.688
434.85	0.693
435.05	0.694
435.26	0.694
435.46	0.693
435.66	0.692
435.87	0.692
436.07	0.692
436.28	0.688
436.48	0.685
436.69	0.684
436.89	0.684
437.09	0.678
437.30	0.676
437.50	0.677
437.71	0.689
437.91	0.688
438.11	0.689
438.32	0.692
438.52	0.693
438.73	0.692
438.93	0.690
439.13	0.689
439.34	0.693
439.54	0.691
439.75	0.690
439.95	0.680
440.15	0.685
440.36	0.684
440.56	0.682
440.77	0.682
440.97	0.682
441.17	0.682
441.38	0.683
441.58	0.680
441.79	0.680
441.99	0.678
442.19	0.677
442.40	0.674
442.60	0.674
442.81	0.671
443.01	0.672
443.21	0.673
443.42	0.672
443.62	0.671
443.82	0.671
444.03	0.673
444.23	0.673
444.44	0.673
444.64	0.672
444.84	0.673
445.05	0.673
445.25	0.670
445.45	0.670
445.66	0.672
445.86	0.671
446.06	0.672
446.27	0.672
446.47	0.674
446.68	0.673
446.88	0.672
447.08	0.671
447.29	0.673
447.49	0.673
447.69	0.672
447.90	0.671
448.10	0.674
448.30	0.671
448.51	0.672
448.71	0.670
448.91	0.672
449.12	0.670
449.32	0.672
449.52	0.670
449.73	0.674
449.93	0.673
450.14	0.674
450.34	0.673
450.54	0.675
450.75	0.673
450.95	0.672
451.15	0.671
451.36	0.674
451.56	0.671
451.76	0.670
451.97	0.666
452.17	0.667
452.37	0.665
452.58	0.662
452.78	0.662
452.98	0.663
453.19	0.662
453.39	0.663
453.59	0.661
453.79	0.662
454.00	0.662
454.20	0.661
454.40	0.662
454.61	0.664
454.81	0.665
455.01	0.663
455.22	0.664
455.42	0.666
455.62	0.664
455.83	0.664
456.03	0.667
456.23	0.668
456.44	0.669
456.64	0.668
456.84	0.668
457.04	0.668
457.25	0.667
457.45	0.664
457.65	0.664
457.86	0.665
458.06	0.664
458.26	0.659
458.47	0.659
458.67	0.660
458.87	0.660
459.07	0.658
459.28	0.659
459.48	0.662
459.68	0.662
459.89	0.661
460.09	0.660
460.29	0.661
460.49	0.661
460.70	0.660
460.90	0.660
461.10	0.660
461.31	0.660
461.51	0.658
461.71	0.659
461.91	0.660
462.12	0.660
462.32	0.659
462.52	0.659
462.72	0.662
462.93	0.663
463.13	0.662
463.33	0.664
463.53	0.665
463.74	0.664
463.94	0.660
464.14	0.660
464.35	0.662
464.55	0.662
464.75	0.661
464.95	0.658
465.16	0.660
465.36	0.658
465.56	0.657
465.76	0.656
465.97	0.656
466.17	0.656
466.37	0.654
466.57	0.655
466.78	0.654
466.98	0.654
467.18	0.652
467.38	0.650
467.59	0.652
467.79	0.653
467.99	0.652
468.19	0.653
468.39	0.656
468.60	0.656
468.80	0.655
469.00	0.657
469.20	0.658
469.41	0.659
469.61	0.658
469.81	0.659
470.01	0.658
470.22	0.658
470.42	0.657
470.62	0.655
470.82	0.656
471.02	0.655
471.23	0.653
471.43	0.654
471.63	0.656
471.83	0.656
472.04	0.655
472.24	0.654
472.44	0.659
472.64	0.660
472.84	0.658
473.05	0.658
473.25	0.660
473.45	0.659
473.65	0.658
473.85	0.658
474.06	0.659
474.26	0.659
474.46	0.660
474.66	0.656
474.86	0.656
475.07	0.656
475.27	0.654
475.47	0.652
475.67	0.652
475.87	0.654
476.08	0.650
476.28	0.651
476.48	0.651
476.68	0.650
476.88	0.648
477.09	0.649
477.29	0.651
477.49	0.652
477.69	0.651
477.89	0.651
478.09	0.651
478.30	0.653
478.50	0.650
478.70	0.650
478.90	0.651
479.10	0.653
479.31	0.654
479.51	0.652
479.71	0.653
479.91	0.653
480.11	0.652
480.31	0.652
480.52	0.651
480.72	0.651
480.92	0.650
481.12	0.649
481.32	0.647
481.52	0.645
481.72	0.645
481.93	0.648
482.13	0.649
482.33	0.648
482.53	0.646
482.73	0.647
482.93	0.648
483.14	0.647
483.34	0.647
483.54	0.647
483.74	0.646
483.94	0.646
484.14	0.642
484.34	0.642
484.55	0.643
484.75	0.643
484.95	0.641
485.15	0.641
485.35	0.641
485.55	0.640
485.75	0.638
485.96	0.639
486.16	0.640
486.36	0.639
486.56	0.638
486.76	0.637
486.96	0.638
487.16	0.637
487.36	0.636
487.57	0.635
487.77	0.636
487.97	0.636
488.17	0.634
488.37	0.634
488.57	0.634
488.77	0.634
488.97	0.633
489.18	0.632
489.38	0.634
489.58	0.635
489.78	0.634
489.98	0.634
490.18	0.634
490.38	0.635
490.58	0.634
490.78	0.634
490.98	0.636
491.19	0.636
491.39	0.636
491.59	0.634
491.79	0.637
491.99	0.638
492.19	0.638
492.39	0.640
492.59	0.640
492.79	0.643
492.99	0.643
493.20	0.643
493.40	0.643
493.60	0.644
493.80	0.643
494.00	0.641
494.20	0.641
494.40	0.641
494.60	0.639
494.80	0.643
495.00	0.642
495.20	0.640
495.40	0.639
495.61	0.641
495.81	0.641
496.01	0.644
496.21	0.644
496.41	0.644
496.61	0.644
496.81	0.642
497.01	0.637
497.21	0.636
497.41	0.637
497.61	0.636
497.81	0.634
498.01	0.634
498.21	0.632
498.41	0.630
498.61	0.630
498.82	0.632
499.02	0.634
499.22	0.635
499.42	0.635
499.62	0.636
499.82	0.637
500.02	0.638
500.22	0.637
500.42	0.639
500.62	0.639
500.82	0.640
501.02	0.638
501.22	0.637
501.42	0.637
501.62	0.639
501.82	0.639
502.02	0.638
502.22	0.638
502.42	0.639
502.62	0.636
502.82	0.637
503.02	0.637
503.22	0.636
503.42	0.634
503.63	0.633
503.83	0.631
504.03	0.630
504.23	0.628
504.43	0.629
504.63	0.630
504.83	0.630
505.03	0.629
505.23	0.631
505.43	0.633
505.63	0.633
505.83	0.634
506.03	0.636
506.23	0.638
506.43	0.638
506.63	0.637
506.83	0.636
507.03	0.638
507.23	0.638
507.43	0.635
507.63	0.636
507.83	0.636
508.03	0.636
508.23	0.636
508.43	0.634
508.63	0.636
508.83	0.636
509.03	0.638
509.23	0.636
509.43	0.637
509.63	0.638
509.83	0.637
510.03	0.639
510.23	0.641
510.43	0.641
510.63	0.642
510.83	0.642
511.03	0.643
511.23	0.641
511.43	0.640
511.63	0.642
511.83	0.644
512.03	0.643
512.22	0.640
512.42	0.640
512.62	0.641
512.82	0.640
513.02	0.639
513.22	0.639
513.42	0.640
513.62	0.644
513.82	0.642
514.02	0.641
514.22	0.643
514.42	0.643
514.62	0.643
514.82	0.643
515.02	0.645
515.22	0.649
515.42	0.648
515.62	0.650
515.82	0.648
516.02	0.649
516.22	0.649
516.42	0.651
516.62	0.653
516.82	0.654
517.01	0.652
517.21	0.651
517.41	0.654
517.61	0.655
517.81	0.651
518.01	0.651
518.21	0.651
518.41	0.649
518.61	0.648
518.81	0.648
519.01	0.648
519.21	0.649
519.41	0.648
519.61	0.642
519.81	0.645
520.00	0.645
520.20	0.646
520.40	0.649
520.60	0.650
520.80	0.649
521.00	0.650
521.20	0.651
521.40	0.655
521.60	0.656
521.80	0.655
522.00	0.655
522.20	0.657
522.39	0.656
522.59	0.653
522.79	0.655
522.99	0.657
523.19	0.655
523.39	0.653
523.59	0.650
523.79	0.653
523.99	0.656
524.19	0.655
524.38	0.653
524.58	0.655
524.78	0.655
524.98	0.653
525.18	0.656
525.38	0.657
525.58	0.657
525.78	0.656
525.98	0.654
526.18	0.654
526.37	0.654
526.57	0.656
526.77	0.656
526.97	0.656
527.17	0.656
527.37	0.653
527.57	0.655
527.77	0.657
527.96	0.658
528.16	0.657
528.36	0.657
528.56	0.659
528.76	0.656
528.96	0.656
529.16	0.657
529.36	0.659
529.55	0.659
529.75	0.656
529.95	0.656
530.15	0.657
530.35	0.659
530.55	0.658
530.75	0.658
530.94	0.660
531.14	0.660
531.34	0.658
531.54	0.657
531.74	0.659
531.94	0.662
532.13	0.660
532.33	0.662
532.53	0.661
532.73	0.661
532.93	0.659
533.13	0.660
533.33	0.660
533.52	0.661
533.72	0.664
533.92	0.663
534.12	0.661
534.32	0.661
534.52	0.659
534.71	0.660
534.91	0.663
535.11	0.665
535.31	0.663
535.51	0.664
535.71	0.666
535.90	0.663
536.10	0.664
536.30	0.666
536.50	0.667
536.70	0.667
536.89	0.665
537.09	0.664
537.29	0.666
537.49	0.667
537.69	0.664
537.89	0.665
538.08	0.665
538.28	0.663
538.48	0.664
538.68	0.665
538.88	0.666
539.07	0.666
539.27	0.665
539.47	0.663
539.67	0.663
539.87	0.665
540.06	0.662
540.26	0.663
540.46	0.665
540.66	0.662
540.86	0.660
541.05	0.660
541.25	0.662
541.45	0.662
541.65	0.661
541.84	0.663
542.04	0.663
542.24	0.664
542.44	0.663
542.64	0.664
542.83	0.666
543.03	0.666
543.23	0.665
543.43	0.665
543.62	0.666
543.82	0.667
544.02	0.666
544.22	0.665
544.42	0.669
544.61	0.669
544.81	0.666
545.01	0.665
545.21	0.668
545.40	0.669
545.60	0.667
545.80	0.670
546.00	0.670
546.19	0.669
546.39	0.669
546.59	0.666
546.79	0.667
546.98	0.668
547.18	0.667
547.38	0.668
547.58	0.670
547.77	0.670
547.97	0.667
548.17	0.668
548.37	0.669
548.56	0.670
548.76	0.669
548.96	0.671
549.16	0.672
549.35	0.672
549.55	0.670
549.75	0.671
549.95	0.673
550.14	0.674
550.34	0.673
550.54	0.677
550.73	0.680
550.93	0.681
551.13	0.678
551.33	0.677
551.52	0.677
551.72	0.677
551.92	0.676
552.12	0.676
552.31	0.677
552.51	0.677
552.71	0.673
552.90	0.673
553.10	0.674
553.30	0.675
553.50	0.674
553.69	0.675
553.89	0.675
554.09	0.675
554.28	0.672
554.48	0.674
554.68	0.676
554.87	0.675
555.07	0.672
555.27	0.672
555.47	0.673
555.66	0.674
555.86	0.673
556.06	0.674
556.25	0.676
556.45	0.683
556.65	0.681
556.84	0.684
557.04	0.687
557.24	0.689
557.43	0.688
557.63	0.691
557.83	0.693
558.02	0.694
558.22	0.699
558.42	0.700
558.61	0.693
558.81	0.695
559.01	0.691
559.21	0.690
559.40	0.691
559.60	0.691
559.80	0.688
559.99	0.689
560.19	0.690
560.39	0.684
560.58	0.682
560.78	0.682
560.97	0.684
561.17	0.683
561.37	0.681
561.56	0.682
561.76	0.683
561.96	0.682
562.15	0.679
562.35	0.681
562.55	0.681
562.74	0.681
562.94	0.680
563.14	0.679
563.33	0.679
563.53	0.679
563.73	0.678
563.92	0.680
564.12	0.683
564.31	0.685
564.51	0.683
564.71	0.685
564.90	0.687
565.10	0.688
565.30	0.691
565.49	0.692
565.69	0.694
565.89	0.694
566.08	0.691
566.28	0.693
566.47	0.694
566.67	0.693
566.87	0.691
567.06	0.693
567.26	0.700
567.46	0.695
567.65	0.695
567.85	0.697
568.04	0.699
568.24	0.698
568.44	0.695
568.63	0.694
568.83	0.695
569.02	0.693
569.22	0.689
569.42	0.685
569.61	0.687
569.81	0.685
570.00	0.684
570.20	0.686
570.40	0.687
570.59	0.687
570.79	0.685
570.98	0.683
571.18	0.684
571.38	0.684
571.57	0.681
571.77	0.679
571.96	0.682
572.16	0.680
572.35	0.675
572.55	0.675
572.75	0.673
572.94	0.673
573.14	0.671
573.33	0.671
573.53	0.671
573.73	0.671
573.92	0.669
574.12	0.668
574.31	0.670
574.51	0.671
574.70	0.668
574.90	0.670
575.09	0.672
575.29	0.673
575.49	0.670
575.68	0.671
575.88	0.672
576.07	0.673
576.27	0.671
576.46	0.670
576.66	0.669
576.86	0.668
577.05	0.666
577.25	0.664
577.44	0.665
577.64	0.665
577.83	0.663
578.03	0.665
578.22	0.664
578.42	0.664
578.61	0.662
578.81	0.662
579.00	0.663
579.20	0.662
579.40	0.662
579.59	0.660
579.79	0.660
579.98	0.659
580.18	0.659
580.37	0.659
580.57	0.661
580.76	0.665
580.96	0.663
581.15	0.664
581.35	0.666
581.54	0.666
581.74	0.666
581.93	0.668
582.13	0.669
582.32	0.666
582.52	0.664
582.71	0.663
582.91	0.659
583.10	0.659
583.30	0.658
583.49	0.657
583.69	0.660
583.88	0.661
584.08	0.660
584.27	0.662
584.47	0.666
584.66	0.666
584.86	0.666
585.05	0.668
585.25	0.670
585.44	0.670
585.64	0.669
585.83	0.666
586.03	0.666
586.22	0.664
586.42	0.660
586.61	0.661
586.81	0.663
587.00	0.662
587.20	0.660
587.39	0.660
587.59	0.662
587.78	0.663
587.98	0.664
588.17	0.665
588.37	0.667
588.56	0.668
588.76	0.665
588.95	0.665
589.15	0.669
589.34	0.671
589.54	0.670
589.73	0.671
589.92	0.675
590.12	0.674
590.31	0.673
590.51	0.678
590.70	0.680
590.90	0.681
591.09	0.679
591.29	0.678
591.48	0.678
591.68	0.679
591.87	0.677
592.06	0.676
592.26	0.679
592.45	0.678
592.65	0.672
592.84	0.671
593.04	0.673
593.23	0.675
593.43	0.673
593.62	0.672
593.81	0.672
594.01	0.672
594.20	0.669
594.40	0.668
594.59	0.670
594.79	0.670
594.98	0.669
595.17	0.668
595.37	0.669
595.56	0.671
595.76	0.671
595.95	0.673
596.14	0.676
596.34	0.678
596.53	0.676
596.73	0.678
596.92	0.680
597.12	0.682
597.31	0.682
597.50	0.681
597.70	0.683
597.89	0.682
598.09	0.678
598.28	0.678
598.47	0.681
598.67	0.679
598.86	0.676
599.06	0.678
599.25	0.678
599.44	0.676
599.64	0.673
599.83	0.671
600.03	0.674
600.22	0.674
600.41	0.674
600.61	0.672
600.80	0.674
601.00	0.674
601.19	0.669
601.38	0.668
601.58	0.671
601.77	0.672
601.96	0.675
602.16	0.675
602.35	0.683
602.55	0.681
602.74	0.682
602.93	0.684
603.13	0.689
603.32	0.691
603.51	0.691
603.71	0.694
603.90	0.696
604.09	0.696
604.29	0.694
604.48	0.688
604.68	0.690
604.87	0.688
605.06	0.685
605.26	0.682
605.45	0.682
605.64	0.681
605.84	0.676
606.03	0.675
606.22	0.673
606.42	0.672
606.61	0.669
606.80	0.669
607.00	0.670
607.19	0.670
607.38	0.669
607.58	0.671
607.77	0.673
607.96	0.672
608.16	0.671
608.35	0.675
608.54	0.678
608.74	0.681
608.93	0.686
609.12	0.689
609.32	0.691
609.51	0.694
609.70	0.693
609.90	0.695
610.09	0.699
610.28	0.705
610.48	0.699
610.67	0.701
610.86	0.702
611.06	0.696
611.25	0.695
611.44	0.695
611.64	0.695
611.83	0.698
612.02	0.695
612.21	0.694
612.41	0.693
612.60	0.692
612.79	0.688
612.99	0.688
613.18	0.690
613.37	0.688
613.57	0.686
613.76	0.687
613.95	0.684
614.14	0.683
614.34	0.681
614.53	0.681
614.72	0.684
614.92	0.684
615.11	0.681
615.30	0.677
615.49	0.678
615.69	0.680
615.88	0.676
616.07	0.677
616.26	0.679
616.46	0.680
616.65	0.678
616.84	0.676
617.04	0.677
617.23	0.681
617.42	0.682
617.61	0.685
617.81	0.687
618.00	0.688
618.19	0.687
618.38	0.691
618.58	0.694
618.77	0.695
618.96	0.694
619.15	0.696
619.35	0.698
619.54	0.699
619.73	0.695
619.92	0.697
620.12	0.702
620.31	0.703
620.50	0.698
620.69	0.698
620.89	0.701
621.08	0.702
621.27	0.702
621.46	0.701
621.66	0.704
621.85	0.704
622.04	0.701
622.23	0.701
622.43	0.701
622.62	0.700
622.81	0.699
623.00	0.698
623.19	0.701
623.39	0.700
623.58	0.697
623.77	0.696
623.96	0.698
624.16	0.698
624.35	0.694
624.54	0.696
624.73	0.699
624.92	0.698
625.12	0.695
625.31	0.696
625.50	0.698
625.69	0.700
625.88	0.696
626.08	0.696
626.27	0.697
626.46	0.697
626.65	0.694
626.84	0.695
627.04	0.700
627.23	0.700
627.42	0.695
627.61	0.697
627.80	0.700
628.00	0.701
628.19	0.699
628.38	0.702
628.57	0.703
628.76	0.703
628.96	0.699
629.15	0.700
629.34	0.702
629.53	0.703
629.72	0.698
629.91	0.699
630.11	0.703
630.30	0.704
630.49	0.707
630.68	0.707
630.87	0.710
631.06	0.713
631.26	0.708
631.45	0.709
631.64	0.717
631.83	0.720
632.02	0.717
632.21	0.714
632.41	0.720
632.60	0.715
632.79	0.714
632.98	0.715
633.17	0.715
633.36	0.718
633.55	0.715
633.75	0.711
633.94	0.711
634.13	0.712
634.32	0.711
634.51	0.705
634.70	0.707
634.89	0.707
635.09	0.704
635.28	0.705
635.47	0.705
635.66	0.707
635.85	0.703
636.04	0.705
636.23	0.709
636.43	0.711
636.62	0.710
636.81	0.708
637.00	0.710
637.19	0.712
637.38	0.709
637.57	0.709
637.76	0.709
637.95	0.710
638.15	0.706
638.34	0.702
638.53	0.704
638.72	0.705
638.91	0.703
639.10	0.702
639.29	0.702
639.48	0.703
639.67	0.704
639.87	0.703
640.06	0.709
640.25	0.709
640.44	0.711
640.63	0.711
640.82	0.713
641.01	0.713
641.20	0.713
641.39	0.715
641.58	0.717
641.78	0.715
641.97	0.712
642.16	0.725
642.35	0.726
642.54	0.725
642.73	0.721
642.92	0.719
643.11	0.722
643.30	0.721
643.49	0.716
643.68	0.718
643.87	0.720
644.06	0.720
644.25	0.701
644.45	0.702
644.64	0.703
644.83	0.705
645.02	0.702
645.21	0.701
645.40	0.703
645.59	0.702
645.78	0.697
645.97	0.699
646.16	0.700
646.35	0.700
646.54	0.699
646.73	0.700
646.92	0.700
647.11	0.700
647.30	0.697
647.49	0.698
647.68	0.698
647.88	0.697
648.07	0.689
648.26	0.692
648.45	0.693
648.64	0.689
648.83	0.687
649.02	0.690
649.21	0.699
649.40	0.698
649.59	0.694
649.78	0.696
649.97	0.709
650.16	0.710
650.35	0.705
650.54	0.707
650.73	0.715
650.92	0.712
651.11	0.705
651.30	0.703
651.49	0.707
651.68	0.708
651.87	0.704
652.06	0.694
652.25	0.698
652.44	0.701
652.63	0.700
652.82	0.703
653.01	0.703
653.20	0.702
653.39	0.691
653.58	0.689
653.77	0.687
653.96	0.683
654.15	0.675
654.34	0.673
654.53	0.668
654.72	0.661
654.91	0.651
655.10	0.647
655.29	0.644
655.48	0.642
655.67	0.637
655.86	0.634
656.05	0.632
656.24	0.631
656.43	0.627
656.62	0.625
656.81	0.625
657.00	0.622
657.19	0.618
657.38	0.617
657.57	0.616
657.76	0.617
657.95	0.614
658.14	0.618
658.33	0.619
658.51	0.623
658.70	0.623
658.89	0.624
659.08	0.634
659.27	0.643
659.46	0.644
659.65	0.651
659.84	0.654
660.03	0.658
660.22	0.659
660.41	0.663
660.60	0.662
660.79	0.664
660.98	0.670
661.17	0.668
661.36	0.667
661.55	0.669
661.74	0.666
661.92	0.670
662.11	0.672
662.30	0.671
662.49	0.666
662.68	0.665
662.87	0.669
663.06	0.662
663.25	0.664
663.44	0.665
663.63	0.666
663.82	0.664
664.01	0.658
664.20	0.657
664.38	0.658
664.57	0.659
664.76	0.659
664.95	0.659
665.14	0.664
665.33	0.659
665.52	0.666
665.71	0.670
665.90	0.670
666.09	0.671
666.28	0.669
666.46	0.670
666.65	0.669
666.84	0.668
667.03	0.662
667.22	0.661
667.41	0.663
667.60	0.653
667.79	0.646
667.98	0.648
668.16	0.649
668.35	0.649
668.54	0.644
668.73	0.645
668.92	0.646
669.11	0.645
669.30	0.640
669.49	0.636
669.67	0.638
669.86	0.640
670.05	0.637
670.24	0.634
670.43	0.631
670.62	0.631
670.81	0.627
671.00	0.627
671.18	0.627
671.37	0.626
671.56	0.624
671.75	0.622
671.94	0.619
672.13	0.617
672.32	0.613
672.50	0.612
672.69	0.612
672.88	0.612
673.07	0.608
673.26	0.610
673.45	0.611
673.63	0.610
673.82	0.607
674.01	0.608
674.20	0.608
674.39	0.608
674.58	0.607
674.76	0.607
674.95	0.606
675.14	0.606
675.33	0.601
675.52	0.601
675.71	0.601
675.89	0.600
676.08	0.597
676.27	0.597
676.46	0.598
676.65	0.597
676.84	0.597
677.02	0.598
677.21	0.601
677.40	0.600
677.59	0.597
677.78	0.597
677.96	0.599
678.15	0.599
678.34	0.597
678.53	0.598
678.72	0.597
678.90	0.594
679.09	0.590
679.28	0.586
679.47	0.586
679.66	0.586
679.84	0.583
680.03	0.580
680.22	0.578
680.41	0.580
680.60	0.576
680.78	0.575
680.97	0.577
681.16	0.578
681.35	0.576
681.53	0.576
681.72	0.577
681.91	0.579
682.10	0.578
682.29	0.580
682.47	0.577
682.66	0.576
682.85	0.575
683.04	0.573
683.22	0.573
683.41	0.575
683.60	0.574
683.79	0.574
683.97	0.573
684.16	0.572
684.35	0.569
684.54	0.571
684.72	0.572
684.91	0.573
685.10	0.571
685.29	0.572
685.47	0.569
685.66	0.568
685.85	0.565
686.04	0.564
686.22	0.567
686.41	0.569
686.60	0.566
686.79	0.569
686.97	0.570
687.16	0.571
687.35	0.569
687.54	0.572
687.72	0.576
687.91	0.576
688.10	0.577
688.29	0.576
688.47	0.574
688.66	0.574
688.85	0.570
689.03	0.568
689.22	0.572
689.41	0.573
689.60	0.569
689.78	0.566
689.97	0.567
690.16	0.564
690.34	0.561
690.53	0.561
690.72	0.561
690.91	0.559
691.09	0.556
691.28	0.550
691.47	0.548
691.65	0.547
691.84	0.544
692.03	0.543
692.21	0.541
692.40	0.541
692.59	0.538
692.77	0.537
692.96	0.538
693.15	0.538
693.34	0.536
693.52	0.536
693.71	0.537
693.90	0.539
694.08	0.539
694.27	0.539
694.46	0.549
694.64	0.549
694.83	0.549
695.02	0.548
695.20	0.548
695.39	0.548
695.58	0.548
695.76	0.548
695.95	0.547
696.14	0.547
696.32	0.544
696.51	0.535
696.70	0.535
696.88	0.536
697.07	0.535
697.26	0.536
697.44	0.537
697.63	0.536
697.81	0.534
698.00	0.533
698.19	0.533
698.37	0.533
698.56	0.532
698.75	0.532
698.93	0.532
699.12	0.532
699.31	0.531
699.49	0.530
699.68	0.531
699.87	0.533
700.05	0.534
700.24	0.534
700.42	0.535
700.61	0.535
700.80	0.533
700.98	0.534
701.17	0.535
701.36	0.534
701.54	0.533
701.73	0.535
701.91	0.532
702.10	0.531
702.29	0.529
702.47	0.528
702.66	0.530
702.84	0.531
703.03	0.529
703.22	0.530
703.40	0.530
703.59	0.531
703.77	0.530
703.96	0.530
704.15	0.530
704.33	0.530
704.52	0.530
704.70	0.529
704.89	0.528
705.08	0.527
705.26	0.523
705.45	0.524
705.63	0.524
705.82	0.521
706.00	0.520
706.19	0.519
706.38	0.519
706.56	0.519
706.75	0.517
706.93	0.516
707.12	0.517
707.30	0.517
707.49	0.515
707.68	0.512
707.86	0.512
708.05	0.512
708.23	0.509
708.42	0.509
708.60	0.510
708.79	0.510
708.98	0.509
709.16	0.508
709.35	0.510
709.53	0.514
709.72	0.513
709.90	0.515
710.09	0.517
710.27	0.519
710.46	0.522
710.64	0.522
710.83	0.523
711.02	0.525
711.20	0.524
711.39	0.523
711.57	0.521
711.76	0.522
711.94	0.519
712.13	0.521
712.31	0.520
712.50	0.515
712.68	0.513
712.87	0.514
713.05	0.513
713.24	0.513
713.42	0.513
713.61	0.513
713.79	0.514
713.98	0.515
714.16	0.515
714.35	0.515
714.54	0.516
714.72	0.516
714.91	0.514
715.09	0.521
715.28	0.524
715.46	0.524
715.65	0.522
715.83	0.521
716.02	0.523
716.20	0.519
716.39	0.519
716.57	0.520
716.76	0.522
716.94	0.523
717.12	0.514
717.31	0.516
717.49	0.519
717.68	0.521
717.86	0.521
718.05	0.522
718.23	0.525
718.42	0.526
718.60	0.527
718.79	0.534
718.97	0.537
719.16	0.537
719.34	0.536
719.53	0.534
719.71	0.533
719.90	0.535
720.08	0.532
720.27	0.532
720.45	0.532
720.63	0.532
720.82	0.526
721.00	0.528
721.19	0.531
721.37	0.530
721.56	0.531
721.74	0.534
721.93	0.542
722.11	0.549
722.30	0.548
722.48	0.553
722.66	0.554
722.85	0.554
723.03	0.554
723.22	0.553
723.40	0.556
723.59	0.556
723.77	0.561
723.95	0.554
724.14	0.556
724.32	0.558
724.51	0.557
724.69	0.558
724.88	0.557
725.06	0.556
725.24	0.557
725.43	0.559
725.61	0.561
725.80	0.553
725.98	0.552
726.16	0.548
726.35	0.553
726.53	0.553
726.72	0.552
726.90	0.563
727.09	0.564
727.27	0.569
727.45	0.566
727.64	0.575
727.82	0.585
728.01	0.590
728.19	0.589
728.37	0.593
728.56	0.596
728.74	0.603
728.92	0.591
729.11	0.593
729.29	0.591
729.48	0.594
729.66	0.584
729.84	0.583
730.03	0.585
730.21	0.586
730.40	0.577
730.58	0.579
730.76	0.577
730.95	0.579
731.13	0.578
731.31	0.592
731.50	0.601
731.68	0.605
731.86	0.601
732.05	0.615
732.23	0.618
732.42	0.621
732.60	0.625
732.78	0.630
732.97	0.649
733.15	0.657
733.33	0.645
733.52	0.651
733.70	0.661
733.88	0.671
734.07	0.657
734.25	0.680
734.43	0.689
734.62	0.690
734.80	0.686
734.98	0.676
735.17	0.682
735.35	0.687
735.53	0.677
735.72	0.679
735.90	0.698
736.08	0.717
736.27	0.696
736.45	0.701
736.63	0.713
736.82	0.721
737.00	0.722
737.18	0.733
737.37	0.761
737.55	0.782
737.73	0.778
737.92	0.777
738.10	0.772
738.28	0.791
738.46	0.783
738.65	0.794
738.83	0.816
739.01	0.865
739.20	0.858
739.38	0.841
739.56	0.830
739.75	0.836
739.93	0.807
740.11	0.833
740.29	0.831
740.48	0.836
740.66	0.815
740.84	0.810
741.03	0.771
741.21	0.780
741.39	0.765
741.57	0.776
741.76	0.787
741.94	0.793
742.12	0.763
742.31	0.770
742.49	0.786
742.67	0.809
742.85	0.821
743.04	0.830
743.22	0.836
743.40	0.889
743.58	0.877
743.77	0.895
743.95	0.923
744.13	0.963
744.31	0.947
744.50	0.946
744.68	0.939
744.86	0.913
745.04	0.926
745.23	0.984
745.41	0.956
745.59	0.958
745.77	0.925
745.96	0.920
746.14	0.932
746.32	0.929
746.50	0.918
746.69	0.909
746.87	0.917
747.05	0.900
747.23	0.837
747.42	0.828
747.60	0.842
747.78	0.847
747.96	0.869
748.14	0.828
748.33	0.848
748.51	0.845
748.69	0.837
748.87	0.860
749.06	0.857
749.24	0.855
749.42	0.845
749.60	0.834
749.78	0.840
749.97	0.802
750.15	0.796
750.33	0.798
750.51	0.819
750.69	0.827
750.88	0.831
751.06	0.843
751.24	0.868
751.42	0.858
751.60	0.855
751.79	0.924
751.97	0.961
752.15	0.962
752.33	0.939
752.51	0.998
752.69	1.003
752.88	0.975
753.06	1.019
753.24	0.993
753.42	1.019
753.60	1.167
753.78	1.043
753.97	1.065
754.15	1.079
754.33	1.104
754.51	0.993
754.69	0.985
754.87	1.009
755.06	0.942
755.24	0.946
755.42	0.959
755.60	0.867
755.78	0.873
755.96	0.823
756.15	0.821
756.33	0.825
756.51	0.843
756.69	0.830
756.87	0.799
757.05	0.816
757.23	0.800
757.42	0.766
757.60	0.765
757.78	0.755
757.96	0.756
758.14	0.743
758.32	0.731
758.50	0.738
758.69	0.737
758.87	0.732
759.05	0.732
759.23	0.740
759.41	0.744
759.59	0.737
759.77	0.755
759.95	0.776
760.13	0.821
760.32	0.818
760.50	0.817
760.68	0.833
760.86	0.832
761.04	0.812
761.22	0.817
761.40	0.858
761.58	0.859
761.76	0.837
761.95	0.819
762.13	0.778
762.31	0.779
762.49	0.752
762.67	0.773
762.85	0.783
763.03	0.780
763.21	0.764
763.39	0.748
763.57	0.750
763.75	0.745
763.94	0.735
764.12	0.738
764.30	0.757
764.48	0.760
764.66	0.726
764.84	0.725
765.02	0.759
765.20	0.765
765.38	0.746
765.56	0.754
765.74	0.789
765.92	0.788
766.10	0.794
766.28	0.787
766.46	0.810
766.65	0.813
766.83	0.801
767.01	0.785
767.19	0.789
767.37	0.790
767.55	0.778
767.73	0.761
767.91	0.762
768.09	0.748
768.27	0.742
768.45	0.734
768.63	0.738
768.81	0.741
768.99	0.717
769.17	0.739
769.35	0.751
769.53	0.746
769.71	0.729
769.89	0.737
770.07	0.743
770.25	0.727
770.43	0.707
770.61	0.725
770.79	0.728
770.97	0.739
771.15	0.711
771.33	0.712
771.51	0.714
771.69	0.724
771.87	0.732
772.05	0.735
772.24	0.741
772.42	0.751
772.60	0.732
772.78	0.784
772.96	0.806
773.14	0.801
773.32	0.783
773.49	0.789
773.67	0.785
773.85	0.766
774.03	0.759
774.21	0.785
774.39	0.792
774.57	0.814
774.75	0.755
774.93	0.749
775.11	0.770
775.29	0.774
775.47	0.775
775.65	0.783
775.83	0.797
776.01	0.815
776.19	0.777
776.37	0.779
776.55	0.776
776.73	0.773
776.91	0.771
777.09	0.755
777.27	0.753
777.45	0.741
777.63	0.722
777.81	0.720
777.99	0.710
778.17	0.709
778.35	0.690
778.53	0.680
778.71	0.682
778.89	0.671
779.07	0.664
779.24	0.666
779.42	0.669
779.60	0.688
779.78	0.685
779.96	0.686
780.14	0.692
780.32	0.711
780.50	0.697
780.68	0.695
780.86	0.689
781.04	0.706
781.22	0.713
781.40	0.722
781.58	0.711
781.75	0.705
781.93	0.690
782.11	0.688
782.29	0.675
782.47	0.676
782.65	0.667
782.83	0.691
783.01	0.679
783.19	0.673
783.37	0.660
783.55	0.663
783.72	0.678
783.90	0.690
784.08	0.686
784.26	0.695
784.44	0.714
784.62	0.717
784.80	0.690
784.98	0.698
785.16	0.703
785.33	0.714
785.51	0.704
785.69	0.689
785.87	0.688
786.05	0.699
786.23	0.697
786.41	0.693
786.59	0.701
786.77	0.700
786.94	0.691
787.12	0.695
787.30	0.695
787.48	0.693
787.66	0.685
787.84	0.684
788.02	0.674
788.19	0.672
788.37	0.661
788.55	0.660
788.73	0.659
788.91	0.655
789.09	0.640
789.27	0.630
789.44	0.640
789.62	0.644
789.80	0.654
789.98	0.676
790.16	0.663
790.34	0.660
790.51	0.650
790.69	0.668
790.87	0.671
791.05	0.669
791.23	0.665
791.41	0.665
791.58	0.672
791.76	0.653
791.94	0.627
792.12	0.634
792.30	0.637
792.48	0.634
792.65	0.628
792.83	0.634
793.01	0.641
793.19	0.637
793.37	0.624
793.54	0.620
793.72	0.630
793.90	0.627
794.08	0.619
794.26	0.616
794.43	0.624
794.61	0.609
794.79	0.600
794.97	0.598
795.15	0.603
795.32	0.607
795.50	0.597
795.68	0.592
795.86	0.596
796.04	0.598
796.21	0.593
796.39	0.591
796.57	0.602
796.75	0.610
796.92	0.611
797.10	0.615
797.28	0.616
797.46	0.620
797.64	0.622
797.81	0.629
797.99	0.631
798.17	0.636
798.35	0.633
798.52	0.637
798.70	0.631
798.88	0.639
799.06	0.639
799.23	0.642
799.41	0.649
799.59	0.643
799.77	0.633
799.94	0.642
800.12	0.648
800.30	0.663
800.48	0.660
800.65	0.662
800.83	0.652
801.01	0.645
801.19	0.645
801.36	0.642
801.54	0.643
801.72	0.653
801.90	0.642
802.07	0.638
802.25	0.624
802.43	0.609
802.60	0.604
802.78	0.610
802.96	0.615
803.14	0.609
803.31	0.608
803.49	0.608
803.67	0.603
803.84	0.608
804.02	0.602
804.20	0.605
804.38	0.611
804.55	0.613
804.73	0.600
804.91	0.599
805.08	0.610
805.26	0.607
805.44	0.669
805.61	0.672
805.79	0.669
805.97	0.669
806.15	0.662
806.32	0.656
806.50	0.660
806.68	0.661
806.85	0.654
807.03	0.645
807.21	0.658
807.38	0.594
807.56	0.585
807.74	0.596
807.91	0.599
808.09	0.603
808.27	0.622
808.44	0.647
808.62	0.655
808.80	0.657
808.97	0.653
809.15	0.649
809.33	0.663
809.50	0.668
809.68	0.654
809.86	0.662
810.03	0.689
810.21	0.666
810.39	0.650
810.56	0.657
810.74	0.678
810.91	0.745
811.09	0.736
811.27	0.756
811.44	0.762
811.62	0.764
811.80	0.749
811.97	0.721
812.15	0.723
812.33	0.718
812.50	0.702
812.68	0.688
812.85	0.638
813.03	0.640
813.21	0.612
813.38	0.606
813.56	0.609
813.74	0.619
813.91	0.626
814.09	0.653
814.26	0.647
814.44	0.654
814.62	0.646
814.79	0.647
814.97	0.650
815.14	0.655
815.32	0.663
815.50	0.677
815.67	0.678
815.85	0.671
816.02	0.660
816.20	0.665
816.38	0.676
816.55	0.682
816.73	0.682
816.90	0.689
817.08	0.715
817.26	0.715
817.43	0.697
817.61	0.718
817.78	0.736
817.96	0.719
818.13	0.710
818.31	0.708
818.49	0.719
818.66	0.711
818.84	0.701
819.01	0.682
819.19	0.685
819.36	0.687
819.54	0.661
819.71	0.699
819.89	0.709
820.07	0.722
820.24	0.719
820.42	0.717
820.59	0.732
820.77	0.754
820.94	0.747
821.12	0.765
821.29	0.777
821.47	0.779
821.64	0.723
821.82	0.736
822.00	0.733
822.17	0.730
822.35	0.725
822.52	0.730
822.70	0.720
822.87	0.732
823.05	0.713
823.22	0.724
823.40	0.748
823.57	0.770
823.75	0.752
823.92	0.772
824.10	0.789
824.27	0.832
824.45	0.822
824.62	0.878
824.80	0.888
824.97	0.904
825.15	0.899
825.32	0.911
825.50	0.906
825.67	0.917
825.85	0.898
826.02	0.912
826.20	0.917
826.37	1.021
826.55	0.954
826.72	1.111
826.90	1.163
827.07	1.203
827.25	1.158
827.42	1.296
827.60	1.391
827.77	1.507
827.95	1.505
828.12	1.592
828.30	1.304
828.47	1.385
828.65	1.112
828.82	1.141
829.00	1.165
829.17	1.227
829.34	1.210
829.52	1.244
829.69	-0.000
829.87	-0.000
830.04	-0.000
830.22	-0.000
830.39	-0.000
830.57	-0.000
830.74	-0.000
830.92	-0.000
831.09	-0.000
831.26	-0.000
831.44	-0.000
831.61	-0.000
831.79	-0.000
831.96	-0.000
832.14	-0.000
832.31	-0.000
832.49	-0.000
832.66	-0.000
832.83	-0.000
833.01	-0.000
833.18	-0.000
833.36	-0.000
833.53	-0.000
833.70	-0.000
833.88	-0.000
834.05	-0.000
834.23	-0.000
834.40	-0.000
834.58	-0.000
834.75	-0.000
834.92	-0.000
835.10	-0.000
835.27	-0.000
835.45	-0.000
835.62	-0.000
835.79	-0.000
835.97	-0.000
836.14	-0.000
836.32	-0.000
836.49	-0.000
836.66	-0.000
836.84	-0.000
837.01	-0.000
837.18	-0.000
837.36	-0.000
837.53	-0.000
837.71	-0.000
837.88	-0.000
838.05	-0.000
838.23	-0.000
838.40	-0.000
838.58	-0.000
838.75	-0.000
838.92	-0.000
839.10	-0.000
839.27	-0.000
839.44	-0.000
839.62	-0.000
839.79	-0.000
839.96	-0.000
840.14	-0.000
840.31	-0.000
840.48	-0.000
840.66	-0.000
840.83	-0.000
841.01	-0.000
841.18	-0.000
841.35	-0.000
841.53	-0.000
841.70	-0.000
841.87	-0.000
842.05	-0.000
842.22	-0.000
842.39	-0.000
842.57	-0.000
842.74	-0.000
842.91	-0.000
843.09	-0.000
843.26	-0.000
843.43	-0.000
843.60	-0.000
843.78	-0.000
843.95	-0.000
844.12	-0.000
844.30	-0.000
844.47	-0.000
844.64	-0.000
844.82	-0.000
844.99	-0.000
845.16	-0.000
845.34	-0.000
845.51	-0.000
845.68	-0.000
845.85	-0.000
846.03	-0.000
846.20	-0.000
846.37	-0.000
846.55	-0.000
846.72	-0.000
846.89	-0.000
847.06	-0.000
847.24	-0.000
847.41	-0.000
847.58	-0.000
847.76	-0.000
847.93	-0.000
848.10	-0.000
848.27	-0.000
848.45	-0.000
848.62	-0.000
848.79	-0.000
848.97	-0.000
849.14	-0.000
849.31	-0.000
849.48	-0.000
849.66	-0.000
849.83	-0.000
850.00	-0.000
850.17	-0.000
850.35	-0.000
850.52	-0.000
850.69	-0.000
850.86	-0.000
851.04	-0.000
851.21	-0.000
851.38	-0.000
851.55	-0.000
851.72	-0.000
851.90	-0.000
852.07	-0.000
852.24	-0.000
852.41	-0.000
852.59	-0.000
852.76	-0.000
852.93	-0.000
853.10	-0.000
853.28	-0.000
853.45	-0.000
853.62	-0.000
853.79	-0.000
853.96	-0.000
854.14	-0.000
854.31	-0.000
854.48	-0.000
854.65	-0.000
854.82	-0.000
855.00	-0.000
855.17	-0.000
855.34	-0.000
855.51	-0.000
855.68	-0.000
855.86	-0.000
856.03	-0.000
856.20	-0.000
856.37	-0.000
856.54	-0.000
856.72	-0.000
856.89	-0.000
857.06	-0.000
857.23	-0.000
857.40	-0.000
857.57	-0.000
857.75	-0.000
857.92	-0.000
858.09	-0.000
858.26	-0.000
858.43	-0.000
858.60	-0.000
858.78	-0.000
858.95	-0.000
859.12	-0.000
859.29	-0.000
859.46	-0.000
859.63	-0.000
859.81	-0.000
859.98	-0.000
860.15	-0.000
860.32	-0.000
860.49	-0.000
860.66	-0.000
860.83	-0.000
861.01	-0.000
861.18	-0.000
861.35	-0.000
861.52	-0.000
861.69	-0.000
861.86	-0.000
862.03	-0.000
862.21	-0.000
862.38	-0.000
862.55	-0.000
862.72	-0.000
862.89	-0.000
863.06	-0.000
863.23	-0.000
863.40	-0.000
863.58	-0.000
863.75	-0.000
863.92	-0.000
864.09	-0.000
864.26	-0.000
864.43	-0.000
864.60	-0.000
864.77	-0.000
864.94	-0.000
865.11	-0.000
865.29	-0.000
865.46	-0.000
865.63	-0.000
865.80	-0.000
865.97	-0.000
866.14	-0.000
866.31	-0.000
866.48	-0.000
866.65	-0.000
866.82	-0.000
866.99	-0.000
867.16	-0.000
867.34	-0.000
867.51	-0.000
867.68	-0.000
867.85	-0.000
868.02	-0.000
868.19	-0.000
868.36	-0.000
868.53	-0.000
868.70	-0.000
868.87	-0.000
869.04	-0.000
869.21	-0.000
869.38	-0.000
869.55	-0.000
869.72	-0.000
869.89	-0.000
870.06	-0.000
870.24	-0.000
870.41	-0.000
870.58	-0.000
870.75	-0.000
870.92	-0.000
871.09	-0.000
871.26	-0.000
871.43	-0.000
871.60	-0.000
871.77	-0.000
871.94	-0.000
872.11	-0.000
872.28	-0.000
872.45	-0.000
872.62	-0.000
872.79	-0.000
872.96	-0.000
873.13	-0.000
873.30	-0.000
873.47	-0.000
873.64	-0.000
873.81	-0.000
873.98	-0.000
874.15	-0.000
874.32	-0.000
874.49	-0.000
874.66	-0.000
874.83	-0.000
875.00	-0.000
875.17	-0.000
875.34	-0.000
875.51	-0.000
875.68	-0.000
875.85	-0.000
876.02	-0.000
876.19	-0.000
876.36	-0.000
876.53	-0.000
876.70	-0.000
876.87	-0.000
877.04	-0.000
877.21	-0.000
877.38	-0.000
877.55	-0.000
877.72	-0.000
877.89	-0.000
878.06	-0.000
878.23	-0.000
878.39	-0.000
878.56	-0.000
878.73	-0.000
878.90	-0.000
879.07	-0.000
879.24	-0.000
879.41	-0.000
879.58	-0.000
879.75	-0.000
879.92	-0.000
880.09	-0.000
880.26	-0.000
880.43	-0.000
880.60	-0.000
880.77	-0.000
880.94	-0.000
881.11	-0.000
881.27	-0.000
881.44	-0.000
881.61	-0.000
881.78	-0.000
881.95	-0.000
882.12	-0.000
882.29	-0.000
882.46	-0.000
882.63	-0.000
882.80	-0.000
882.97	-0.000
883.14	-0.000
883.30	-0.000
883.47	-0.000
883.64	-0.000
883.81	-0.000
883.98	-0.000
884.15	-0.000
884.32	-0.000
884.49	-0.000
884.66	-0.000
884.82	-0.000
884.99	-0.000
885.16	-0.000
885.33	-0.000
885.50	-0.000
885.67	-0.000
885.84	-0.000
886.01	-0.000
886.17	-0.000
886.34	-0.000
886.51	-0.000
886.68	-0.000
886.85	-0.000
887.02	-0.000
887.19	-0.000
887.36	-0.000
887.52	-0.000
887.69	-0.000
887.86	-0.000
888.03	-0.000
888.20	-0.000
888.37	-0.000
888.54	-0.000
888.70	-0.000
888.87	-0.000
889.04	-0.000
889.21	-0.000
889.38	-0.000
889.55	-0.000
889.71	-0.000
889.88	-0.000
890.05	-0.000
890.22	-0.000
890.39	-0.000
>>>>>End Processed Spectral Data<<<<<
