SpectraSuite Data File
++++++++++++++++++++++++++++++++++++
Date: Fri Jun 19 14:54:28 CEST 2015
User: introlabs
Dark Spectrum Present: Yes
Reference Spectrum Present: Yes
Number of Sampled Component Spectra: 1
Spectrometers: USB4H08886
Integration Time (usec): 745692 (USB4H08886)
Spectra Averaged: 5 (USB4H08886)
Boxcar Smoothing: 5 (USB4H08886)
Correct for Electrical Dark: Yes (USB4H08886)
Strobe/Lamp Enabled: No (USB4H08886)
Correct for Detector Non-linearity: Yes (USB4H08886)
Correct for Stray Light: Yes (USB4H08886)
Number of Pixels in Processed Spectrum: 3648
>>>>>Begin Processed Spectral Data<<<<<
178.14	-0.000
178.36	-0.000
178.57	-0.000
178.79	-0.000
179.01	-0.000
179.22	-0.000
179.44	-0.000
179.65	-0.000
179.87	-0.000
180.08	-0.000
180.30	-0.000
180.52	-0.000
180.73	-0.000
180.95	-0.000
181.16	-0.000
181.38	-0.000
181.59	-0.000
181.81	-0.000
182.03	-0.000
182.24	-0.000
182.46	-0.000
182.67	-0.000
182.89	-0.000
183.10	-0.000
183.32	-0.000
183.54	-0.000
183.75	-0.000
183.97	-0.000
184.18	-0.000
184.40	-0.000
184.61	-0.000
184.83	-0.000
185.04	-0.000
185.26	-0.000
185.48	-0.000
185.69	-0.000
185.91	-0.000
186.12	-0.000
186.34	-0.000
186.55	-0.000
186.77	-0.000
186.98	-0.000
187.20	-0.000
187.42	-0.000
187.63	-0.000
187.85	-0.000
188.06	-0.000
188.28	-0.000
188.49	-0.000
188.71	-0.000
188.92	-0.000
189.14	-0.000
189.36	-0.000
189.57	-0.000
189.79	-0.000
190.00	-0.000
190.22	-0.000
190.43	-0.000
190.65	-0.000
190.86	-0.000
191.08	-0.000
191.29	-0.000
191.51	-0.000
191.72	-0.000
191.94	-0.000
192.16	-0.000
192.37	-0.000
192.59	-0.000
192.80	-0.000
193.02	-0.000
193.23	-0.000
193.45	-0.000
193.66	-0.000
193.88	-0.000
194.09	-0.000
194.31	-0.000
194.52	-0.000
194.74	-0.000
194.95	-0.000
195.17	-0.000
195.38	-0.000
195.60	-0.000
195.81	-0.000
196.03	-0.000
196.25	-0.000
196.46	-0.000
196.68	-0.000
196.89	-0.000
197.11	-0.000
197.32	-0.000
197.54	-0.000
197.75	-0.000
197.97	-0.000
198.18	-0.000
198.40	-0.000
198.61	-0.000
198.83	-0.000
199.04	-0.000
199.26	-0.000
199.47	-0.000
199.69	-0.000
199.90	-0.000
200.12	-0.000
200.33	-0.000
200.55	-0.000
200.76	-0.000
200.98	-0.000
201.19	-0.000
201.41	-0.000
201.62	-0.000
201.84	-0.000
202.05	-0.000
202.27	-0.000
202.48	-0.000
202.70	-0.000
202.91	-0.000
203.13	-0.000
203.34	-0.000
203.56	-0.000
203.77	-0.000
203.99	-0.000
204.20	-0.000
204.42	-0.000
204.63	-0.000
204.85	-0.000
205.06	-0.000
205.28	-0.000
205.49	-0.000
205.71	-0.000
205.92	-0.000
206.14	-0.000
206.35	-0.000
206.56	-0.000
206.78	-0.000
206.99	-0.000
207.21	-0.000
207.42	-0.000
207.64	-0.000
207.85	-0.000
208.07	-0.000
208.28	-0.000
208.50	-0.000
208.71	-0.000
208.93	-0.000
209.14	-0.000
209.36	-0.000
209.57	-0.000
209.79	-0.000
210.00	-0.000
210.22	-0.000
210.43	-0.000
210.64	-0.000
210.86	-0.000
211.07	-0.000
211.29	-0.000
211.50	-0.000
211.72	-0.000
211.93	-0.000
212.15	-0.000
212.36	-0.000
212.58	-0.000
212.79	-0.000
213.01	-0.000
213.22	-0.000
213.43	-0.000
213.65	-0.000
213.86	-0.000
214.08	-0.000
214.29	-0.000
214.51	-0.000
214.72	-0.000
214.94	-0.000
215.15	-0.000
215.36	-0.000
215.58	-0.000
215.79	-0.000
216.01	-0.000
216.22	-0.000
216.44	-0.000
216.65	-0.000
216.87	-0.000
217.08	-0.000
217.29	-0.000
217.51	-0.000
217.72	-0.000
217.94	-0.000
218.15	-0.000
218.37	-0.000
218.58	-0.000
218.80	-0.000
219.01	-0.000
219.22	-0.000
219.44	-0.000
219.65	-0.000
219.87	-0.000
220.08	-0.000
220.30	-0.000
220.51	-0.000
220.72	-0.000
220.94	-0.000
221.15	-0.000
221.37	-0.000
221.58	-0.000
221.79	-0.000
222.01	-0.000
222.22	-0.000
222.44	-0.000
222.65	-0.000
222.87	-0.000
223.08	-0.000
223.29	-0.000
223.51	-0.000
223.72	-0.000
223.94	-0.000
224.15	-0.000
224.36	-0.000
224.58	-0.000
224.79	-0.000
225.01	-0.000
225.22	-0.000
225.44	-0.000
225.65	-0.000
225.86	-0.000
226.08	-0.000
226.29	-0.000
226.51	-0.000
226.72	-0.000
226.93	-0.000
227.15	-0.000
227.36	-0.000
227.58	-0.000
227.79	-0.000
228.00	-0.000
228.22	-0.000
228.43	-0.000
228.65	-0.000
228.86	-0.000
229.07	-0.000
229.29	-0.000
229.50	-0.000
229.72	-0.000
229.93	-0.000
230.14	-0.000
230.36	-0.000
230.57	-0.000
230.78	-0.000
231.00	-0.000
231.21	-0.000
231.43	-0.000
231.64	-0.000
231.85	-0.000
232.07	-0.000
232.28	-0.000
232.50	-0.000
232.71	-0.000
232.92	-0.000
233.14	-0.000
233.35	-0.000
233.56	-0.000
233.78	-0.000
233.99	-0.000
234.21	-0.000
234.42	-0.000
234.63	-0.000
234.85	-0.000
235.06	-0.000
235.27	-0.000
235.49	-0.000
235.70	-0.000
235.91	-0.000
236.13	-0.000
236.34	-0.000
236.56	-0.000
236.77	-0.000
236.98	-0.000
237.20	-0.000
237.41	-0.000
237.62	-0.000
237.84	-0.000
238.05	-0.000
238.26	-0.000
238.48	-0.000
238.69	-0.000
238.91	-0.000
239.12	-0.000
239.33	-0.000
239.55	-0.000
239.76	-0.000
239.97	-0.000
240.19	-0.000
240.40	-0.000
240.61	-0.000
240.83	-0.000
241.04	-0.000
241.25	-0.000
241.47	-0.000
241.68	-0.000
241.89	-0.000
242.11	-0.000
242.32	-0.000
242.53	-0.000
242.75	-0.000
242.96	-0.000
243.17	-0.000
243.39	-0.000
243.60	-0.000
243.81	-0.000
244.03	-0.000
244.24	-0.000
244.45	-0.000
244.67	-0.000
244.88	-0.000
245.09	-0.000
245.31	-0.000
245.52	-0.000
245.73	-0.000
245.95	-0.000
246.16	-0.000
246.37	-0.000
246.59	-0.000
246.80	-0.000
247.01	-0.000
247.23	-0.000
247.44	-0.000
247.65	-0.000
247.87	-0.000
248.08	-0.000
248.29	-0.000
248.51	-0.000
248.72	-0.000
248.93	-0.000
249.15	-0.000
249.36	-0.000
249.57	-0.000
249.78	-0.000
250.00	-0.000
250.21	-0.000
250.42	-0.000
250.64	-0.000
250.85	-0.000
251.06	-0.000
251.28	-0.000
251.49	-0.000
251.70	-0.000
251.92	-0.000
252.13	-0.000
252.34	-0.000
252.55	-0.000
252.77	-0.000
252.98	-0.000
253.19	-0.000
253.41	-0.000
253.62	-0.000
253.83	-0.000
254.05	-0.000
254.26	-0.000
254.47	-0.000
254.68	-0.000
254.90	-0.000
255.11	-0.000
255.32	-0.000
255.54	-0.000
255.75	-0.000
255.96	-0.000
256.17	-0.000
256.39	-0.000
256.60	-0.000
256.81	-0.000
257.03	-0.000
257.24	-0.000
257.45	-0.000
257.66	-0.000
257.88	-0.000
258.09	-0.000
258.30	-0.000
258.51	-0.000
258.73	-0.000
258.94	-0.000
259.15	-0.000
259.37	-0.000
259.58	-0.000
259.79	-0.000
260.00	-0.000
260.22	-0.000
260.43	-0.000
260.64	-0.000
260.85	-0.000
261.07	-0.000
261.28	-0.000
261.49	-0.000
261.71	-0.000
261.92	-0.000
262.13	-0.000
262.34	-0.000
262.56	-0.000
262.77	-0.000
262.98	-0.000
263.19	-0.000
263.41	-0.000
263.62	-0.000
263.83	-0.000
264.04	-0.000
264.26	-0.000
264.47	-0.000
264.68	-0.000
264.89	-0.000
265.11	-0.000
265.32	-0.000
265.53	-0.000
265.74	-0.000
265.96	-0.000
266.17	-0.000
266.38	-0.000
266.59	-0.000
266.81	-0.000
267.02	-0.000
267.23	-0.000
267.44	-0.000
267.65	-0.000
267.87	-0.000
268.08	-0.000
268.29	-0.000
268.50	-0.000
268.72	-0.000
268.93	-0.000
269.14	-0.000
269.35	-0.000
269.57	-0.000
269.78	-0.000
269.99	-0.000
270.20	-0.000
270.41	-0.000
270.63	-0.000
270.84	-0.000
271.05	-0.000
271.26	-0.000
271.48	-0.000
271.69	-0.000
271.90	-0.000
272.11	-0.000
272.32	-0.000
272.54	-0.000
272.75	-0.000
272.96	-0.000
273.17	-0.000
273.39	-0.000
273.60	-0.000
273.81	-0.000
274.02	-0.000
274.23	-0.000
274.45	-0.000
274.66	-0.000
274.87	-0.000
275.08	-0.000
275.29	-0.000
275.51	-0.000
275.72	-0.000
275.93	-0.000
276.14	-0.000
276.35	-0.000
276.57	-0.000
276.78	-0.000
276.99	-0.000
277.20	-0.000
277.41	-0.000
277.63	-0.000
277.84	-0.000
278.05	-0.000
278.26	-0.000
278.47	-0.000
278.69	-0.000
278.90	-0.000
279.11	-0.000
279.32	-0.000
279.53	-0.000
279.74	-0.000
279.96	-0.000
280.17	-0.000
280.38	-0.000
280.59	-0.000
280.80	-0.000
281.02	-0.000
281.23	-0.000
281.44	-0.000
281.65	-0.000
281.86	-0.000
282.07	-0.000
282.29	-0.000
282.50	-0.000
282.71	-0.000
282.92	-0.000
283.13	-0.000
283.35	-0.000
283.56	-0.000
283.77	-0.000
283.98	-0.000
284.19	-0.000
284.40	-0.000
284.62	-0.000
284.83	-0.000
285.04	-0.000
285.25	-0.000
285.46	-0.000
285.67	-0.000
285.88	-0.000
286.10	-0.000
286.31	-0.000
286.52	-0.000
286.73	-0.000
286.94	-0.000
287.15	-0.000
287.37	-0.000
287.58	-0.000
287.79	-0.000
288.00	-0.000
288.21	-0.000
288.42	-0.000
288.63	-0.000
288.85	-0.000
289.06	-0.000
289.27	-0.000
289.48	-0.000
289.69	-0.000
289.90	-0.000
290.11	-0.000
290.33	-0.000
290.54	-0.000
290.75	-0.000
290.96	-0.000
291.17	-0.000
291.38	-0.000
291.59	-0.000
291.81	-0.000
292.02	-0.000
292.23	-0.000
292.44	-0.000
292.65	-0.000
292.86	-0.000
293.07	-0.000
293.28	-0.000
293.50	-0.000
293.71	-0.000
293.92	-0.000
294.13	-0.000
294.34	-0.000
294.55	-0.000
294.76	-0.000
294.97	-0.000
295.19	-0.000
295.40	-0.000
295.61	-0.000
295.82	-0.000
296.03	-0.000
296.24	-0.000
296.45	2.750
296.66	1.946
296.87	1.959
297.09	2.065
297.30	2.488
297.51	1.837
297.72	1.787
297.93	1.915
298.14	1.860
298.35	1.796
298.56	1.775
298.77	1.938
298.99	1.909
299.20	1.865
299.41	1.829
299.62	1.762
299.83	1.754
300.04	1.678
300.25	1.657
300.46	1.697
300.67	1.665
300.88	1.601
301.10	1.604
301.31	1.690
301.52	1.620
301.73	1.567
301.94	1.566
302.15	1.578
302.36	1.527
302.57	1.462
302.78	1.475
302.99	1.526
303.20	1.557
303.41	1.455
303.63	1.435
303.84	1.436
304.05	1.425
304.26	1.364
304.47	1.374
304.68	1.376
304.89	1.365
305.10	1.322
305.31	1.306
305.52	1.351
305.73	1.348
305.94	1.301
306.15	1.298
306.37	1.326
306.58	1.334
306.79	1.302
307.00	1.326
307.21	1.367
307.42	1.357
307.63	1.321
307.84	1.285
308.05	1.322
308.26	1.325
308.47	1.302
308.68	1.300
308.89	1.301
309.10	1.299
309.31	1.258
309.52	1.250
309.73	1.264
309.95	1.257
310.16	1.225
310.37	1.211
310.58	1.229
310.79	1.224
311.00	1.219
311.21	1.222
311.42	1.223
311.63	1.217
311.84	1.199
312.05	1.198
312.26	1.220
312.47	1.232
312.68	1.206
312.89	1.190
313.10	1.198
313.31	1.168
313.52	1.168
313.73	1.167
313.94	1.170
314.15	1.150
314.36	1.131
314.57	1.124
314.78	1.111
314.99	1.107
315.21	1.094
315.42	1.099
315.63	1.113
315.84	1.089
316.05	1.076
316.26	1.083
316.47	1.100
316.68	1.096
316.89	1.075
317.10	1.096
317.31	1.099
317.52	1.102
317.73	1.081
317.94	1.080
318.15	1.123
318.36	1.124
318.57	1.106
318.78	1.094
318.99	1.132
319.20	1.129
319.41	1.095
319.62	1.096
319.83	1.106
320.04	1.103
320.25	1.090
320.46	1.057
320.67	1.060
320.88	1.057
321.09	1.043
321.30	1.025
321.51	1.041
321.72	1.040
321.93	1.024
322.14	1.017
322.35	1.043
322.56	1.043
322.77	1.031
322.98	1.041
323.19	1.050
323.40	1.057
323.61	1.037
323.82	1.030
324.03	1.036
324.24	1.034
324.45	1.020
324.66	1.000
324.87	0.997
325.08	0.996
325.29	0.977
325.50	0.972
325.71	0.976
325.92	0.985
326.13	0.971
326.34	0.971
326.55	0.979
326.76	0.979
326.97	0.971
327.18	0.965
327.39	0.991
327.60	0.994
327.80	0.990
328.01	0.989
328.22	0.987
328.43	0.990
328.64	0.977
328.85	0.983
329.06	0.984
329.27	0.981
329.48	0.976
329.69	0.958
329.90	0.968
330.11	0.960
330.32	0.954
330.53	0.947
330.74	0.946
330.95	0.946
331.16	0.930
331.37	0.937
331.58	0.937
331.79	0.936
332.00	0.927
332.21	0.919
332.42	0.923
332.63	0.913
332.83	0.910
333.04	0.914
333.25	0.924
333.46	0.924
333.67	0.911
333.88	0.913
334.09	0.924
334.30	0.921
334.51	0.913
334.72	0.908
334.93	0.910
335.14	0.910
335.35	0.902
335.56	0.897
335.77	0.904
335.98	0.903
336.18	0.896
336.39	0.887
336.60	0.892
336.81	0.889
337.02	0.889
337.23	0.895
337.44	0.897
337.65	0.898
337.86	0.889
338.07	0.885
338.28	0.889
338.49	0.888
338.70	0.881
338.91	0.887
339.11	0.896
339.32	0.891
339.53	0.880
339.74	0.876
339.95	0.872
340.16	0.870
340.37	0.863
340.58	0.863
340.79	0.866
341.00	0.866
341.21	0.857
341.41	0.856
341.62	0.858
341.83	0.858
342.04	0.855
342.25	0.867
342.46	0.871
342.67	0.870
342.88	0.862
343.09	0.862
343.30	0.869
343.50	0.872
343.71	0.862
343.92	0.860
344.13	0.864
344.34	0.863
344.55	0.845
344.76	0.845
344.97	0.847
345.18	0.846
345.38	0.843
345.59	0.837
345.80	0.836
346.01	0.834
346.22	0.830
346.43	0.826
346.64	0.834
346.85	0.834
347.06	0.828
347.26	0.828
347.47	0.832
347.68	0.828
347.89	0.824
348.10	0.819
348.31	0.824
348.52	0.824
348.73	0.820
348.93	0.817
349.14	0.819
349.35	0.818
349.56	0.812
349.77	0.807
349.98	0.812
350.19	0.810
350.39	0.805
350.60	0.802
350.81	0.817
351.02	0.817
351.23	0.812
351.44	0.816
351.65	0.819
351.86	0.816
352.06	0.815
352.27	0.814
352.48	0.816
352.69	0.815
352.90	0.809
353.11	0.795
353.31	0.802
353.52	0.797
353.73	0.789
353.94	0.790
354.15	0.796
354.36	0.795
354.57	0.787
354.77	0.789
354.98	0.788
355.19	0.788
355.40	0.788
355.61	0.793
355.82	0.798
356.02	0.797
356.23	0.790
356.44	0.791
356.65	0.794
356.86	0.794
357.07	0.788
357.27	0.792
357.48	0.794
357.69	0.789
357.90	0.774
358.11	0.771
358.32	0.774
358.52	0.776
358.73	0.767
358.94	0.769
359.15	0.774
359.36	0.773
359.56	0.769
359.77	0.766
359.98	0.772
360.19	0.771
360.40	0.769
360.61	0.770
360.81	0.769
361.02	0.769
361.23	0.762
361.44	0.760
361.65	0.760
361.85	0.760
362.06	0.759
362.27	0.761
362.48	0.761
362.69	0.763
362.89	0.756
363.10	0.758
363.31	0.763
363.52	0.767
363.73	0.761
363.93	0.762
364.14	0.764
364.35	0.764
364.56	0.754
364.77	0.756
364.97	0.758
365.18	0.759
365.39	0.754
365.60	0.751
365.81	0.750
366.01	0.751
366.22	0.747
366.43	0.746
366.64	0.748
366.84	0.755
367.05	0.751
367.26	0.750
367.47	0.752
367.68	0.751
367.88	0.747
368.09	0.745
368.30	0.747
368.51	0.748
368.71	0.747
368.92	0.752
369.13	0.749
369.34	0.748
369.55	0.748
369.75	0.747
369.96	0.754
370.17	0.754
370.38	0.752
370.58	0.750
370.79	0.756
371.00	0.753
371.21	0.745
371.41	0.750
371.62	0.755
371.83	0.750
372.04	0.747
372.24	0.740
372.45	0.741
372.66	0.741
372.87	0.739
373.07	0.735
373.28	0.737
373.49	0.740
373.70	0.731
373.90	0.730
374.11	0.739
374.32	0.739
374.53	0.739
374.73	0.739
374.94	0.742
375.15	0.742
375.36	0.740
375.56	0.749
375.77	0.749
375.98	0.749
376.19	0.745
376.39	0.739
376.60	0.742
376.81	0.743
377.02	0.741
377.22	0.739
377.43	0.740
377.64	0.740
377.84	0.731
378.05	0.735
378.26	0.742
378.47	0.742
378.67	0.739
378.88	0.736
379.09	0.737
379.30	0.736
379.50	0.734
379.71	0.735
379.92	0.738
380.12	0.736
380.33	0.728
380.54	0.724
380.75	0.730
380.95	0.731
381.16	0.728
381.37	0.729
381.57	0.730
381.78	0.730
381.99	0.730
382.20	0.730
382.40	0.732
382.61	0.733
382.82	0.730
383.02	0.724
383.23	0.727
383.44	0.727
383.64	0.726
383.85	0.728
384.06	0.731
384.27	0.729
384.47	0.727
384.68	0.728
384.89	0.734
385.09	0.733
385.30	0.732
385.51	0.731
385.71	0.734
385.92	0.735
386.13	0.734
386.33	0.736
386.54	0.736
386.75	0.736
386.95	0.732
387.16	0.728
387.37	0.731
387.58	0.730
387.78	0.729
387.99	0.726
388.20	0.728
388.40	0.725
388.61	0.721
388.82	0.723
389.02	0.725
389.23	0.725
389.44	0.723
389.64	0.723
389.85	0.734
390.06	0.733
390.26	0.734
390.47	0.733
390.68	0.736
390.88	0.734
391.09	0.730
391.30	0.730
391.50	0.730
391.71	0.730
391.92	0.727
392.12	0.720
392.33	0.721
392.53	0.720
392.74	0.721
392.95	0.720
393.15	0.722
393.36	0.723
393.57	0.721
393.77	0.725
393.98	0.727
394.19	0.727
394.39	0.726
394.60	0.727
394.81	0.729
395.01	0.727
395.22	0.725
395.43	0.727
395.63	0.732
395.84	0.733
396.04	0.729
396.25	0.731
396.46	0.733
396.66	0.731
396.87	0.729
397.08	0.726
397.28	0.728
397.49	0.730
397.69	0.726
397.90	0.721
398.11	0.723
398.31	0.723
398.52	0.719
398.73	0.721
398.93	0.720
399.14	0.719
399.34	0.718
399.55	0.719
399.76	0.719
399.96	0.720
400.17	0.718
400.37	0.716
400.58	0.723
400.79	0.725
400.99	0.722
401.20	0.728
401.41	0.731
401.61	0.732
401.82	0.738
402.02	0.737
402.23	0.738
402.44	0.737
402.64	0.737
402.85	0.732
403.05	0.731
403.26	0.730
403.47	0.723
403.67	0.723
403.88	0.723
404.08	0.717
404.29	0.716
404.50	0.716
404.70	0.717
404.91	0.716
405.11	0.713
405.32	0.713
405.52	0.714
405.73	0.713
405.94	0.711
406.14	0.713
406.35	0.715
406.55	0.715
406.76	0.712
406.97	0.713
407.17	0.716
407.38	0.716
407.58	0.714
407.79	0.717
407.99	0.720
408.20	0.720
408.41	0.716
408.61	0.714
408.82	0.715
409.02	0.715
409.23	0.713
409.43	0.711
409.64	0.712
409.84	0.712
410.05	0.708
410.26	0.707
410.46	0.707
410.67	0.707
410.87	0.708
411.08	0.710
411.28	0.711
411.49	0.713
411.69	0.711
411.90	0.713
412.11	0.714
412.31	0.714
412.52	0.712
412.72	0.713
412.93	0.714
413.13	0.713
413.34	0.708
413.54	0.710
413.75	0.711
413.95	0.711
414.16	0.708
414.37	0.711
414.57	0.712
414.78	0.714
414.98	0.713
415.19	0.714
415.39	0.711
415.60	0.714
415.80	0.713
416.01	0.712
416.21	0.713
416.42	0.713
416.62	0.708
416.83	0.707
417.03	0.707
417.24	0.706
417.44	0.705
417.65	0.705
417.86	0.705
418.06	0.703
418.27	0.700
418.47	0.702
418.68	0.703
418.88	0.704
419.09	0.702
419.29	0.703
419.50	0.704
419.70	0.703
419.91	0.701
420.11	0.699
420.32	0.701
420.52	0.701
420.73	0.701
420.93	0.702
421.14	0.704
421.34	0.702
421.55	0.698
421.75	0.699
421.96	0.699
422.16	0.699
422.37	0.699
422.57	0.696
422.78	0.697
422.98	0.694
423.19	0.691
423.39	0.689
423.60	0.692
423.80	0.694
424.01	0.692
424.21	0.695
424.42	0.696
424.62	0.696
424.83	0.695
425.03	0.695
425.23	0.697
425.44	0.697
425.64	0.697
425.85	0.696
426.05	0.697
426.26	0.697
426.46	0.694
426.67	0.693
426.87	0.699
427.08	0.699
427.28	0.697
427.49	0.698
427.69	0.699
427.90	0.698
428.10	0.695
428.31	0.694
428.51	0.696
428.71	0.694
428.92	0.696
429.12	0.693
429.33	0.694
429.53	0.698
429.74	0.702
429.94	0.702
430.15	0.701
430.35	0.702
430.56	0.699
430.76	0.698
430.96	0.698
431.17	0.695
431.37	0.692
431.58	0.689
431.78	0.686
431.99	0.679
432.19	0.681
432.40	0.683
432.60	0.684
432.80	0.685
433.01	0.684
433.21	0.684
433.42	0.686
433.62	0.687
433.83	0.687
434.03	0.689
434.23	0.692
434.44	0.691
434.64	0.688
434.85	0.693
435.05	0.694
435.26	0.694
435.46	0.692
435.66	0.692
435.87	0.692
436.07	0.693
436.28	0.688
436.48	0.686
436.69	0.685
436.89	0.685
437.09	0.679
437.30	0.678
437.50	0.679
437.71	0.691
437.91	0.690
438.11	0.690
438.32	0.694
438.52	0.695
438.73	0.693
438.93	0.691
439.13	0.691
439.34	0.695
439.54	0.692
439.75	0.691
439.95	0.681
440.15	0.686
440.36	0.685
440.56	0.682
440.77	0.683
440.97	0.683
441.17	0.682
441.38	0.684
441.58	0.681
441.79	0.680
441.99	0.679
442.19	0.678
442.40	0.676
442.60	0.675
442.81	0.672
443.01	0.672
443.21	0.673
443.42	0.672
443.62	0.670
443.82	0.670
444.03	0.672
444.23	0.671
444.44	0.671
444.64	0.670
444.84	0.672
445.05	0.671
445.25	0.669
445.45	0.669
445.66	0.672
445.86	0.671
446.06	0.673
446.27	0.671
446.47	0.675
446.68	0.673
446.88	0.671
447.08	0.671
447.29	0.673
447.49	0.673
447.69	0.673
447.90	0.671
448.10	0.675
448.30	0.672
448.51	0.673
448.71	0.670
448.91	0.673
449.12	0.672
449.32	0.673
449.52	0.672
449.73	0.676
449.93	0.675
450.14	0.675
450.34	0.675
450.54	0.677
450.75	0.674
450.95	0.674
451.15	0.673
451.36	0.675
451.56	0.672
451.76	0.672
451.97	0.669
452.17	0.669
452.37	0.667
452.58	0.664
452.78	0.664
452.98	0.666
453.19	0.665
453.39	0.666
453.59	0.666
453.79	0.666
454.00	0.666
454.20	0.664
454.40	0.665
454.61	0.667
454.81	0.668
455.01	0.666
455.22	0.667
455.42	0.668
455.62	0.666
455.83	0.665
456.03	0.668
456.23	0.670
456.44	0.671
456.64	0.669
456.84	0.669
457.04	0.669
457.25	0.669
457.45	0.666
457.65	0.665
457.86	0.666
458.06	0.665
458.26	0.661
458.47	0.660
458.67	0.660
458.87	0.661
459.07	0.659
459.28	0.661
459.48	0.663
459.68	0.662
459.89	0.661
460.09	0.660
460.29	0.661
460.49	0.662
460.70	0.661
460.90	0.662
461.10	0.662
461.31	0.662
461.51	0.659
461.71	0.661
461.91	0.663
462.12	0.663
462.32	0.662
462.52	0.662
462.72	0.665
462.93	0.665
463.13	0.663
463.33	0.664
463.53	0.665
463.74	0.665
463.94	0.660
464.14	0.660
464.35	0.662
464.55	0.662
464.75	0.660
464.95	0.657
465.16	0.659
465.36	0.658
465.56	0.657
465.76	0.656
465.97	0.657
466.17	0.658
466.37	0.656
466.57	0.657
466.78	0.658
466.98	0.659
467.18	0.658
467.38	0.657
467.59	0.658
467.79	0.660
467.99	0.658
468.19	0.659
468.39	0.661
468.60	0.661
468.80	0.659
469.00	0.660
469.20	0.661
469.41	0.661
469.61	0.660
469.81	0.660
470.01	0.660
470.22	0.660
470.42	0.659
470.62	0.657
470.82	0.658
471.02	0.657
471.23	0.656
471.43	0.656
471.63	0.658
471.83	0.658
472.04	0.656
472.24	0.655
472.44	0.661
472.64	0.661
472.84	0.659
473.05	0.659
473.25	0.662
473.45	0.660
473.65	0.659
473.85	0.660
474.06	0.661
474.26	0.661
474.46	0.662
474.66	0.658
474.86	0.659
475.07	0.659
475.27	0.658
475.47	0.655
475.67	0.655
475.87	0.658
476.08	0.654
476.28	0.655
476.48	0.656
476.68	0.654
476.88	0.653
477.09	0.654
477.29	0.655
477.49	0.656
477.69	0.655
477.89	0.656
478.09	0.654
478.30	0.657
478.50	0.654
478.70	0.653
478.90	0.654
479.10	0.657
479.31	0.658
479.51	0.656
479.71	0.657
479.91	0.657
480.11	0.656
480.31	0.655
480.52	0.654
480.72	0.655
480.92	0.654
481.12	0.652
481.32	0.649
481.52	0.647
481.72	0.647
481.93	0.650
482.13	0.651
482.33	0.650
482.53	0.649
482.73	0.649
482.93	0.650
483.14	0.649
483.34	0.649
483.54	0.650
483.74	0.649
483.94	0.648
484.14	0.644
484.34	0.644
484.55	0.645
484.75	0.645
484.95	0.642
485.15	0.642
485.35	0.642
485.55	0.642
485.75	0.640
485.96	0.640
486.16	0.642
486.36	0.641
486.56	0.639
486.76	0.639
486.96	0.640
487.16	0.639
487.36	0.637
487.57	0.637
487.77	0.638
487.97	0.638
488.17	0.636
488.37	0.635
488.57	0.635
488.77	0.636
488.97	0.634
489.18	0.634
489.38	0.636
489.58	0.637
489.78	0.636
489.98	0.636
490.18	0.636
490.38	0.637
490.58	0.636
490.78	0.636
490.98	0.637
491.19	0.638
491.39	0.637
491.59	0.636
491.79	0.639
491.99	0.640
492.19	0.639
492.39	0.642
492.59	0.642
492.79	0.644
492.99	0.645
493.20	0.645
493.40	0.644
493.60	0.646
493.80	0.645
494.00	0.642
494.20	0.642
494.40	0.642
494.60	0.639
494.80	0.644
495.00	0.644
495.20	0.642
495.40	0.641
495.61	0.643
495.81	0.642
496.01	0.646
496.21	0.647
496.41	0.646
496.61	0.647
496.81	0.645
497.01	0.640
497.21	0.639
497.41	0.640
497.61	0.639
497.81	0.636
498.01	0.637
498.21	0.635
498.41	0.632
498.61	0.632
498.82	0.634
499.02	0.636
499.22	0.637
499.42	0.636
499.62	0.637
499.82	0.639
500.02	0.640
500.22	0.639
500.42	0.640
500.62	0.641
500.82	0.641
501.02	0.639
501.22	0.639
501.42	0.639
501.62	0.641
501.82	0.640
502.02	0.640
502.22	0.640
502.42	0.641
502.62	0.639
502.82	0.639
503.02	0.640
503.22	0.640
503.42	0.638
503.63	0.638
503.83	0.636
504.03	0.635
504.23	0.634
504.43	0.635
504.63	0.635
504.83	0.635
505.03	0.634
505.23	0.635
505.43	0.637
505.63	0.637
505.83	0.637
506.03	0.639
506.23	0.641
506.43	0.641
506.63	0.640
506.83	0.639
507.03	0.641
507.23	0.641
507.43	0.639
507.63	0.640
507.83	0.640
508.03	0.640
508.23	0.640
508.43	0.638
508.63	0.640
508.83	0.640
509.03	0.641
509.23	0.640
509.43	0.642
509.63	0.642
509.83	0.640
510.03	0.643
510.23	0.644
510.43	0.644
510.63	0.645
510.83	0.644
511.03	0.646
511.23	0.644
511.43	0.643
511.63	0.644
511.83	0.646
512.03	0.646
512.22	0.643
512.42	0.643
512.62	0.644
512.82	0.643
513.02	0.643
513.22	0.642
513.42	0.644
513.62	0.647
513.82	0.645
514.02	0.644
514.22	0.646
514.42	0.646
514.62	0.646
514.82	0.646
515.02	0.649
515.22	0.653
515.42	0.651
515.62	0.654
515.82	0.653
516.02	0.654
516.22	0.654
516.42	0.655
516.62	0.657
516.82	0.658
517.01	0.655
517.21	0.654
517.41	0.657
517.61	0.658
517.81	0.653
518.01	0.653
518.21	0.653
518.41	0.651
518.61	0.651
518.81	0.651
519.01	0.651
519.21	0.651
519.41	0.651
519.61	0.645
519.81	0.647
520.00	0.648
520.20	0.648
520.40	0.651
520.60	0.652
520.80	0.651
521.00	0.652
521.20	0.652
521.40	0.658
521.60	0.658
521.80	0.657
522.00	0.658
522.20	0.659
522.39	0.659
522.59	0.656
522.79	0.658
522.99	0.660
523.19	0.657
523.39	0.656
523.59	0.654
523.79	0.657
523.99	0.659
524.19	0.658
524.38	0.657
524.58	0.658
524.78	0.659
524.98	0.657
525.18	0.659
525.38	0.660
525.58	0.661
525.78	0.659
525.98	0.657
526.18	0.658
526.37	0.657
526.57	0.659
526.77	0.658
526.97	0.659
527.17	0.659
527.37	0.656
527.57	0.659
527.77	0.660
527.96	0.660
528.16	0.659
528.36	0.659
528.56	0.661
528.76	0.659
528.96	0.658
529.16	0.659
529.36	0.662
529.55	0.661
529.75	0.658
529.95	0.658
530.15	0.659
530.35	0.662
530.55	0.660
530.75	0.661
530.94	0.663
531.14	0.663
531.34	0.662
531.54	0.660
531.74	0.663
531.94	0.666
532.13	0.664
532.33	0.666
532.53	0.663
532.73	0.663
532.93	0.661
533.13	0.662
533.33	0.663
533.52	0.663
533.72	0.666
533.92	0.664
534.12	0.662
534.32	0.663
534.52	0.661
534.71	0.663
534.91	0.666
535.11	0.667
535.31	0.665
535.51	0.666
535.71	0.668
535.90	0.666
536.10	0.667
536.30	0.669
536.50	0.669
536.70	0.670
536.89	0.668
537.09	0.667
537.29	0.669
537.49	0.670
537.69	0.668
537.89	0.669
538.08	0.669
538.28	0.667
538.48	0.667
538.68	0.668
538.88	0.670
539.07	0.670
539.27	0.668
539.47	0.667
539.67	0.667
539.87	0.668
540.06	0.666
540.26	0.666
540.46	0.668
540.66	0.666
540.86	0.663
541.05	0.664
541.25	0.666
541.45	0.666
541.65	0.665
541.84	0.667
542.04	0.667
542.24	0.668
542.44	0.668
542.64	0.669
542.83	0.672
543.03	0.673
543.23	0.669
543.43	0.669
543.62	0.671
543.82	0.671
544.02	0.669
544.22	0.669
544.42	0.672
544.61	0.672
544.81	0.669
545.01	0.667
545.21	0.670
545.40	0.671
545.60	0.669
545.80	0.672
546.00	0.672
546.19	0.672
546.39	0.672
546.59	0.669
546.79	0.670
546.98	0.671
547.18	0.670
547.38	0.671
547.58	0.674
547.77	0.674
547.97	0.670
548.17	0.672
548.37	0.672
548.56	0.672
548.76	0.672
548.96	0.673
549.16	0.675
549.35	0.675
549.55	0.672
549.75	0.673
549.95	0.676
550.14	0.676
550.34	0.674
550.54	0.679
550.73	0.682
550.93	0.683
551.13	0.680
551.33	0.679
551.52	0.680
551.72	0.680
551.92	0.678
552.12	0.679
552.31	0.680
552.51	0.680
552.71	0.675
552.90	0.675
553.10	0.676
553.30	0.675
553.50	0.675
553.69	0.676
553.89	0.677
554.09	0.677
554.28	0.674
554.48	0.676
554.68	0.677
554.87	0.678
555.07	0.675
555.27	0.675
555.47	0.676
555.66	0.677
555.86	0.676
556.06	0.678
556.25	0.679
556.45	0.686
556.65	0.684
556.84	0.687
557.04	0.691
557.24	0.692
557.43	0.691
557.63	0.694
557.83	0.696
558.02	0.696
558.22	0.700
558.42	0.700
558.61	0.693
558.81	0.694
559.01	0.690
559.21	0.690
559.40	0.690
559.60	0.691
559.80	0.687
559.99	0.689
560.19	0.691
560.39	0.685
560.58	0.683
560.78	0.683
560.97	0.687
561.17	0.685
561.37	0.683
561.56	0.684
561.76	0.685
561.96	0.686
562.15	0.683
562.35	0.685
562.55	0.686
562.74	0.687
562.94	0.685
563.14	0.683
563.33	0.684
563.53	0.684
563.73	0.682
563.92	0.683
564.12	0.685
564.31	0.688
564.51	0.686
564.71	0.687
564.90	0.690
565.10	0.691
565.30	0.694
565.49	0.695
565.69	0.697
565.89	0.698
566.08	0.695
566.28	0.697
566.47	0.698
566.67	0.697
566.87	0.694
567.06	0.695
567.26	0.702
567.46	0.697
567.65	0.696
567.85	0.698
568.04	0.701
568.24	0.700
568.44	0.697
568.63	0.696
568.83	0.697
569.02	0.695
569.22	0.691
569.42	0.687
569.61	0.690
569.81	0.688
570.00	0.686
570.20	0.687
570.40	0.688
570.59	0.687
570.79	0.685
570.98	0.683
571.18	0.685
571.38	0.685
571.57	0.682
571.77	0.680
571.96	0.684
572.16	0.681
572.35	0.676
572.55	0.678
572.75	0.676
572.94	0.675
573.14	0.673
573.33	0.673
573.53	0.674
573.73	0.673
573.92	0.671
574.12	0.669
574.31	0.672
574.51	0.673
574.70	0.670
574.90	0.672
575.09	0.675
575.29	0.676
575.49	0.673
575.68	0.673
575.88	0.674
576.07	0.676
576.27	0.673
576.46	0.672
576.66	0.671
576.86	0.670
577.05	0.667
577.25	0.665
577.44	0.666
577.64	0.666
577.83	0.665
578.03	0.666
578.22	0.665
578.42	0.665
578.61	0.663
578.81	0.664
579.00	0.664
579.20	0.664
579.40	0.663
579.59	0.662
579.79	0.662
579.98	0.662
580.18	0.661
580.37	0.661
580.57	0.663
580.76	0.667
580.96	0.666
581.15	0.666
581.35	0.668
581.54	0.668
581.74	0.667
581.93	0.669
582.13	0.669
582.32	0.667
582.52	0.665
582.71	0.664
582.91	0.660
583.10	0.660
583.30	0.659
583.49	0.658
583.69	0.662
583.88	0.663
584.08	0.662
584.27	0.664
584.47	0.668
584.66	0.669
584.86	0.668
585.05	0.670
585.25	0.672
585.44	0.672
585.64	0.671
585.83	0.667
586.03	0.668
586.22	0.667
586.42	0.663
586.61	0.664
586.81	0.666
587.00	0.666
587.20	0.664
587.39	0.664
587.59	0.665
587.78	0.667
587.98	0.667
588.17	0.669
588.37	0.671
588.56	0.673
588.76	0.669
588.95	0.669
589.15	0.673
589.34	0.676
589.54	0.674
589.73	0.676
589.92	0.678
590.12	0.678
590.31	0.676
590.51	0.681
590.70	0.683
590.90	0.683
591.09	0.682
591.29	0.680
591.48	0.680
591.68	0.680
591.87	0.679
592.06	0.678
592.26	0.681
592.45	0.680
592.65	0.673
592.84	0.673
593.04	0.676
593.23	0.678
593.43	0.675
593.62	0.675
593.81	0.675
594.01	0.674
594.20	0.672
594.40	0.671
594.59	0.672
594.79	0.674
594.98	0.672
595.17	0.671
595.37	0.672
595.56	0.675
595.76	0.674
595.95	0.676
596.14	0.679
596.34	0.681
596.53	0.679
596.73	0.681
596.92	0.681
597.12	0.684
597.31	0.684
597.50	0.682
597.70	0.684
597.89	0.683
598.09	0.681
598.28	0.681
598.47	0.684
598.67	0.682
598.86	0.679
599.06	0.680
599.25	0.680
599.44	0.678
599.64	0.676
599.83	0.674
600.03	0.676
600.22	0.676
600.41	0.676
600.61	0.674
600.80	0.677
601.00	0.678
601.19	0.674
601.38	0.673
601.58	0.675
601.77	0.675
601.96	0.677
602.16	0.677
602.35	0.686
602.55	0.684
602.74	0.685
602.93	0.686
603.13	0.691
603.32	0.693
603.51	0.693
603.71	0.697
603.90	0.698
604.09	0.699
604.29	0.697
604.48	0.691
604.68	0.692
604.87	0.690
605.06	0.687
605.26	0.684
605.45	0.685
605.64	0.683
605.84	0.678
606.03	0.677
606.22	0.676
606.42	0.675
606.61	0.672
606.80	0.672
607.00	0.674
607.19	0.675
607.38	0.673
607.58	0.673
607.77	0.676
607.96	0.677
608.16	0.675
608.35	0.680
608.54	0.683
608.74	0.686
608.93	0.692
609.12	0.694
609.32	0.695
609.51	0.699
609.70	0.698
609.90	0.700
610.09	0.704
610.28	0.709
610.48	0.703
610.67	0.704
610.86	0.705
611.06	0.699
611.25	0.697
611.44	0.699
611.64	0.698
611.83	0.701
612.02	0.698
612.21	0.696
612.41	0.694
612.60	0.693
612.79	0.689
612.99	0.689
613.18	0.691
613.37	0.689
613.57	0.686
613.76	0.688
613.95	0.685
614.14	0.685
614.34	0.683
614.53	0.684
614.72	0.686
614.92	0.687
615.11	0.684
615.30	0.680
615.49	0.681
615.69	0.684
615.88	0.680
616.07	0.681
616.26	0.684
616.46	0.684
616.65	0.681
616.84	0.680
617.04	0.682
617.23	0.685
617.42	0.686
617.61	0.689
617.81	0.690
618.00	0.691
618.19	0.689
618.38	0.692
618.58	0.696
618.77	0.698
618.96	0.697
619.15	0.699
619.35	0.701
619.54	0.701
619.73	0.697
619.92	0.699
620.12	0.704
620.31	0.705
620.50	0.701
620.69	0.702
620.89	0.705
621.08	0.704
621.27	0.704
621.46	0.702
621.66	0.706
621.85	0.706
622.04	0.703
622.23	0.704
622.43	0.704
622.62	0.703
622.81	0.702
623.00	0.702
623.19	0.706
623.39	0.704
623.58	0.702
623.77	0.700
623.96	0.703
624.16	0.703
624.35	0.697
624.54	0.700
624.73	0.704
624.92	0.701
625.12	0.698
625.31	0.698
625.50	0.701
625.69	0.702
625.88	0.699
626.08	0.698
626.27	0.699
626.46	0.700
626.65	0.697
626.84	0.698
627.04	0.703
627.23	0.703
627.42	0.699
627.61	0.701
627.80	0.704
628.00	0.704
628.19	0.703
628.38	0.706
628.57	0.709
628.76	0.708
628.96	0.705
629.15	0.706
629.34	0.709
629.53	0.710
629.72	0.704
629.91	0.703
630.11	0.708
630.30	0.708
630.49	0.711
630.68	0.712
630.87	0.715
631.06	0.717
631.26	0.711
631.45	0.713
631.64	0.720
631.83	0.724
632.02	0.722
632.21	0.721
632.41	0.727
632.60	0.721
632.79	0.719
632.98	0.719
633.17	0.720
633.36	0.723
633.55	0.719
633.75	0.716
633.94	0.716
634.13	0.716
634.32	0.714
634.51	0.708
634.70	0.710
634.89	0.710
635.09	0.707
635.28	0.706
635.47	0.707
635.66	0.709
635.85	0.704
636.04	0.705
636.23	0.711
636.43	0.712
636.62	0.712
636.81	0.711
637.00	0.714
637.19	0.718
637.38	0.714
637.57	0.714
637.76	0.716
637.95	0.717
638.15	0.713
638.34	0.709
638.53	0.712
638.72	0.714
638.91	0.711
639.10	0.708
639.29	0.708
639.48	0.709
639.67	0.710
639.87	0.709
640.06	0.715
640.25	0.714
640.44	0.714
640.63	0.715
640.82	0.717
641.01	0.717
641.20	0.717
641.39	0.719
641.58	0.721
641.78	0.719
641.97	0.714
642.16	0.728
642.35	0.730
642.54	0.729
642.73	0.723
642.92	0.722
643.11	0.726
643.30	0.726
643.49	0.721
643.68	0.723
643.87	0.725
644.06	0.725
644.25	0.705
644.45	0.708
644.64	0.709
644.83	0.710
645.02	0.706
645.21	0.706
645.40	0.707
645.59	0.707
645.78	0.702
645.97	0.703
646.16	0.705
646.35	0.704
646.54	0.702
646.73	0.703
646.92	0.705
647.11	0.705
647.30	0.700
647.49	0.701
647.68	0.700
647.88	0.699
648.07	0.692
648.26	0.695
648.45	0.697
648.64	0.694
648.83	0.691
649.02	0.694
649.21	0.703
649.40	0.703
649.59	0.698
649.78	0.699
649.97	0.713
650.16	0.712
650.35	0.707
650.54	0.709
650.73	0.718
650.92	0.714
651.11	0.707
651.30	0.705
651.49	0.709
651.68	0.710
651.87	0.706
652.06	0.697
652.25	0.701
652.44	0.704
652.63	0.702
652.82	0.702
653.01	0.704
653.20	0.702
653.39	0.692
653.58	0.689
653.77	0.689
653.96	0.684
654.15	0.677
654.34	0.674
654.53	0.670
654.72	0.663
654.91	0.653
655.10	0.649
655.29	0.647
655.48	0.645
655.67	0.640
655.86	0.637
656.05	0.635
656.24	0.635
656.43	0.630
656.62	0.629
656.81	0.629
657.00	0.626
657.19	0.623
657.38	0.621
657.57	0.620
657.76	0.622
657.95	0.619
658.14	0.622
658.33	0.623
658.51	0.628
658.70	0.628
658.89	0.629
659.08	0.639
659.27	0.647
659.46	0.648
659.65	0.655
659.84	0.659
660.03	0.663
660.22	0.664
660.41	0.669
660.60	0.668
660.79	0.669
660.98	0.674
661.17	0.674
661.36	0.673
661.55	0.673
661.74	0.670
661.92	0.673
662.11	0.675
662.30	0.675
662.49	0.668
662.68	0.668
662.87	0.671
663.06	0.666
663.25	0.667
663.44	0.667
663.63	0.669
663.82	0.668
664.01	0.663
664.20	0.662
664.38	0.662
664.57	0.662
664.76	0.661
664.95	0.662
665.14	0.667
665.33	0.662
665.52	0.669
665.71	0.673
665.90	0.673
666.09	0.674
666.28	0.671
666.46	0.671
666.65	0.671
666.84	0.669
667.03	0.663
667.22	0.662
667.41	0.664
667.60	0.654
667.79	0.646
667.98	0.648
668.16	0.649
668.35	0.649
668.54	0.645
668.73	0.647
668.92	0.648
669.11	0.647
669.30	0.641
669.49	0.638
669.67	0.640
669.86	0.642
670.05	0.640
670.24	0.638
670.43	0.635
670.62	0.635
670.81	0.630
671.00	0.630
671.18	0.631
671.37	0.630
671.56	0.629
671.75	0.628
671.94	0.625
672.13	0.622
672.32	0.617
672.50	0.617
672.69	0.616
672.88	0.616
673.07	0.612
673.26	0.614
673.45	0.615
673.63	0.614
673.82	0.611
674.01	0.612
674.20	0.611
674.39	0.611
674.58	0.610
674.76	0.610
674.95	0.609
675.14	0.609
675.33	0.604
675.52	0.603
675.71	0.603
675.89	0.603
676.08	0.599
676.27	0.599
676.46	0.600
676.65	0.599
676.84	0.599
677.02	0.601
677.21	0.603
677.40	0.603
677.59	0.600
677.78	0.601
677.96	0.603
678.15	0.603
678.34	0.601
678.53	0.602
678.72	0.602
678.90	0.599
679.09	0.594
679.28	0.591
679.47	0.590
679.66	0.589
679.84	0.586
680.03	0.583
680.22	0.583
680.41	0.584
680.60	0.580
680.78	0.579
680.97	0.581
681.16	0.581
681.35	0.580
681.53	0.580
681.72	0.582
681.91	0.583
682.10	0.582
682.29	0.584
682.47	0.581
682.66	0.581
682.85	0.580
683.04	0.578
683.22	0.577
683.41	0.579
683.60	0.578
683.79	0.578
683.97	0.577
684.16	0.576
684.35	0.572
684.54	0.574
684.72	0.574
684.91	0.575
685.10	0.573
685.29	0.574
685.47	0.571
685.66	0.570
685.85	0.568
686.04	0.566
686.22	0.569
686.41	0.571
686.60	0.568
686.79	0.571
686.97	0.571
687.16	0.573
687.35	0.570
687.54	0.574
687.72	0.578
687.91	0.578
688.10	0.580
688.29	0.580
688.47	0.579
688.66	0.579
688.85	0.575
689.03	0.573
689.22	0.577
689.41	0.578
689.60	0.573
689.78	0.569
689.97	0.570
690.16	0.567
690.34	0.563
690.53	0.563
690.72	0.563
690.91	0.561
691.09	0.559
691.28	0.553
691.47	0.551
691.65	0.550
691.84	0.548
692.03	0.547
692.21	0.545
692.40	0.545
692.59	0.543
692.77	0.542
692.96	0.543
693.15	0.543
693.34	0.541
693.52	0.541
693.71	0.542
693.90	0.543
694.08	0.543
694.27	0.544
694.46	0.553
694.64	0.554
694.83	0.554
695.02	0.553
695.20	0.553
695.39	0.552
695.58	0.552
695.76	0.553
695.95	0.552
696.14	0.551
696.32	0.549
696.51	0.539
696.70	0.538
696.88	0.539
697.07	0.538
697.26	0.539
697.44	0.541
697.63	0.539
697.81	0.537
698.00	0.537
698.19	0.536
698.37	0.536
698.56	0.535
698.75	0.536
698.93	0.535
699.12	0.535
699.31	0.533
699.49	0.533
699.68	0.534
699.87	0.537
700.05	0.537
700.24	0.536
700.42	0.538
700.61	0.538
700.80	0.536
700.98	0.536
701.17	0.538
701.36	0.537
701.54	0.536
701.73	0.537
701.91	0.535
702.10	0.534
702.29	0.532
702.47	0.531
702.66	0.533
702.84	0.533
703.03	0.532
703.22	0.533
703.40	0.532
703.59	0.533
703.77	0.533
703.96	0.533
704.15	0.534
704.33	0.534
704.52	0.533
704.70	0.532
704.89	0.532
705.08	0.531
705.26	0.527
705.45	0.527
705.63	0.526
705.82	0.523
706.00	0.521
706.19	0.521
706.38	0.521
706.56	0.520
706.75	0.518
706.93	0.517
707.12	0.518
707.30	0.519
707.49	0.516
707.68	0.514
707.86	0.514
708.05	0.514
708.23	0.511
708.42	0.511
708.60	0.514
708.79	0.513
708.98	0.511
709.16	0.511
709.35	0.513
709.53	0.517
709.72	0.516
709.90	0.518
710.09	0.520
710.27	0.522
710.46	0.526
710.64	0.525
710.83	0.527
711.02	0.529
711.20	0.527
711.39	0.526
711.57	0.524
711.76	0.524
711.94	0.522
712.13	0.523
712.31	0.523
712.50	0.519
712.68	0.516
712.87	0.517
713.05	0.517
713.24	0.517
713.42	0.517
713.61	0.517
713.79	0.518
713.98	0.518
714.16	0.518
714.35	0.518
714.54	0.518
714.72	0.519
714.91	0.517
715.09	0.523
715.28	0.526
715.46	0.525
715.65	0.523
715.83	0.523
716.02	0.525
716.20	0.522
716.39	0.521
716.57	0.523
716.76	0.524
716.94	0.524
717.12	0.517
717.31	0.518
717.49	0.521
717.68	0.523
717.86	0.523
718.05	0.525
718.23	0.527
718.42	0.529
718.60	0.530
718.79	0.538
718.97	0.541
719.16	0.541
719.34	0.538
719.53	0.538
719.71	0.538
719.90	0.539
720.08	0.535
720.27	0.535
720.45	0.535
720.63	0.534
720.82	0.528
721.00	0.530
721.19	0.533
721.37	0.532
721.56	0.532
721.74	0.536
721.93	0.544
722.11	0.552
722.30	0.552
722.48	0.556
722.66	0.557
722.85	0.556
723.03	0.557
723.22	0.555
723.40	0.560
723.59	0.561
723.77	0.564
723.95	0.558
724.14	0.558
724.32	0.560
724.51	0.559
724.69	0.561
724.88	0.561
725.06	0.559
725.24	0.560
725.43	0.560
725.61	0.561
725.80	0.555
725.98	0.553
726.16	0.550
726.35	0.556
726.53	0.554
726.72	0.553
726.90	0.564
727.09	0.565
727.27	0.570
727.45	0.567
727.64	0.577
727.82	0.586
728.01	0.590
728.19	0.587
728.37	0.592
728.56	0.596
728.74	0.602
728.92	0.590
729.11	0.593
729.29	0.591
729.48	0.593
729.66	0.583
729.84	0.583
730.03	0.586
730.21	0.589
730.40	0.579
730.58	0.581
730.76	0.581
730.95	0.583
731.13	0.584
731.31	0.597
731.50	0.607
731.68	0.608
731.86	0.605
732.05	0.619
732.23	0.622
732.42	0.624
732.60	0.627
732.78	0.631
732.97	0.648
733.15	0.654
733.33	0.643
733.52	0.648
733.70	0.659
733.88	0.667
734.07	0.655
734.25	0.680
734.43	0.688
734.62	0.690
734.80	0.687
734.98	0.677
735.17	0.685
735.35	0.691
735.53	0.680
735.72	0.683
735.90	0.703
736.08	0.718
736.27	0.695
736.45	0.704
736.63	0.717
736.82	0.727
737.00	0.727
737.18	0.734
737.37	0.762
737.55	0.785
737.73	0.782
737.92	0.784
738.10	0.784
738.28	0.803
738.46	0.793
738.65	0.803
738.83	0.823
739.01	0.875
739.20	0.866
739.38	0.849
739.56	0.837
739.75	0.841
739.93	0.810
740.11	0.833
740.29	0.831
740.48	0.837
740.66	0.817
740.84	0.811
741.03	0.776
741.21	0.790
741.39	0.773
741.57	0.789
741.76	0.804
741.94	0.809
742.12	0.773
742.31	0.781
742.49	0.799
742.67	0.821
742.85	0.835
743.04	0.841
743.22	0.842
743.40	0.894
743.58	0.874
743.77	0.889
743.95	0.926
744.13	0.973
744.31	0.955
744.50	0.948
744.68	0.945
744.86	0.919
745.04	0.931
745.23	0.995
745.41	0.980
745.59	0.982
745.77	0.953
745.96	0.942
746.14	0.950
746.32	0.944
746.50	0.937
746.69	0.918
746.87	0.924
747.05	0.907
747.23	0.840
747.42	0.824
747.60	0.851
747.78	0.853
747.96	0.878
748.14	0.841
748.33	0.865
748.51	0.862
748.69	0.857
748.87	0.885
749.06	0.883
749.24	0.884
749.42	0.870
749.60	0.850
749.78	0.858
749.97	0.815
750.15	0.808
750.33	0.811
750.51	0.831
750.69	0.835
750.88	0.840
751.06	0.851
751.24	0.872
751.42	0.861
751.60	0.854
751.79	0.920
751.97	0.958
752.15	0.960
752.33	0.933
752.51	0.995
752.69	1.011
752.88	0.983
753.06	1.031
753.24	1.015
753.42	1.051
753.60	1.211
753.78	1.074
753.97	1.094
754.15	1.109
754.33	1.142
754.51	1.022
754.69	1.003
754.87	1.027
755.06	0.955
755.24	0.956
755.42	0.962
755.60	0.868
755.78	0.877
755.96	0.825
756.15	0.826
756.33	0.826
756.51	0.843
756.69	0.833
756.87	0.803
757.05	0.821
757.23	0.805
757.42	0.778
757.60	0.777
757.78	0.766
757.96	0.766
758.14	0.750
758.32	0.735
758.50	0.746
758.69	0.743
758.87	0.733
759.05	0.734
759.23	0.741
759.41	0.741
759.59	0.736
759.77	0.756
759.95	0.777
760.13	0.821
760.32	0.823
760.50	0.819
760.68	0.841
760.86	0.843
761.04	0.822
761.22	0.827
761.40	0.869
761.58	0.870
761.76	0.844
761.95	0.830
762.13	0.789
762.31	0.792
762.49	0.763
762.67	0.781
762.85	0.793
763.03	0.786
763.21	0.769
763.39	0.752
763.57	0.755
763.75	0.751
763.94	0.737
764.12	0.737
764.30	0.758
764.48	0.761
764.66	0.728
764.84	0.728
765.02	0.762
765.20	0.769
765.38	0.750
765.56	0.755
765.74	0.794
765.92	0.793
766.10	0.800
766.28	0.794
766.46	0.820
766.65	0.818
766.83	0.806
767.01	0.792
767.19	0.801
767.37	0.801
767.55	0.790
767.73	0.769
767.91	0.773
768.09	0.764
768.27	0.754
768.45	0.745
768.63	0.751
768.81	0.752
768.99	0.729
769.17	0.749
769.35	0.761
769.53	0.757
769.71	0.741
769.89	0.746
770.07	0.749
770.25	0.733
770.43	0.713
770.61	0.734
770.79	0.738
770.97	0.746
771.15	0.718
771.33	0.720
771.51	0.723
771.69	0.731
771.87	0.743
772.05	0.748
772.24	0.754
772.42	0.763
772.60	0.743
772.78	0.799
772.96	0.825
773.14	0.820
773.32	0.802
773.49	0.805
773.67	0.803
773.85	0.783
774.03	0.773
774.21	0.803
774.39	0.812
774.57	0.833
774.75	0.768
774.93	0.760
775.11	0.783
775.29	0.789
775.47	0.793
775.65	0.805
775.83	0.823
776.01	0.842
776.19	0.799
776.37	0.801
776.55	0.800
776.73	0.795
776.91	0.789
777.09	0.771
777.27	0.769
777.45	0.759
777.63	0.736
777.81	0.731
777.99	0.719
778.17	0.718
778.35	0.698
778.53	0.689
778.71	0.694
778.89	0.685
779.07	0.675
779.24	0.680
779.42	0.682
779.60	0.701
779.78	0.697
779.96	0.700
780.14	0.705
780.32	0.722
780.50	0.704
780.68	0.704
780.86	0.697
781.04	0.712
781.22	0.718
781.40	0.726
781.58	0.714
781.75	0.707
781.93	0.693
782.11	0.696
782.29	0.684
782.47	0.686
782.65	0.674
782.83	0.702
783.01	0.695
783.19	0.687
783.37	0.674
783.55	0.677
783.72	0.693
783.90	0.704
784.08	0.696
784.26	0.709
784.44	0.727
784.62	0.730
784.80	0.698
784.98	0.705
785.16	0.712
785.33	0.727
785.51	0.714
785.69	0.702
785.87	0.701
786.05	0.713
786.23	0.711
786.41	0.708
786.59	0.715
786.77	0.715
786.94	0.703
787.12	0.706
787.30	0.708
787.48	0.705
787.66	0.694
787.84	0.697
788.02	0.686
788.19	0.680
788.37	0.668
788.55	0.670
788.73	0.669
788.91	0.664
789.09	0.647
789.27	0.635
789.44	0.648
789.62	0.654
789.80	0.660
789.98	0.684
790.16	0.672
790.34	0.668
790.51	0.654
790.69	0.675
790.87	0.680
791.05	0.676
791.23	0.671
791.41	0.669
791.58	0.675
791.76	0.656
791.94	0.629
792.12	0.637
792.30	0.639
792.48	0.635
792.65	0.627
792.83	0.635
793.01	0.642
793.19	0.640
793.37	0.627
793.54	0.623
793.72	0.632
793.90	0.631
794.08	0.621
794.26	0.623
794.43	0.632
794.61	0.617
794.79	0.605
794.97	0.606
795.15	0.611
795.32	0.616
795.50	0.606
795.68	0.604
795.86	0.608
796.04	0.610
796.21	0.604
796.39	0.602
796.57	0.616
796.75	0.625
796.92	0.624
797.10	0.629
797.28	0.629
797.46	0.634
797.64	0.635
797.81	0.640
797.99	0.645
798.17	0.651
798.35	0.647
798.52	0.648
798.70	0.642
798.88	0.652
799.06	0.650
799.23	0.654
799.41	0.660
799.59	0.653
799.77	0.643
799.94	0.650
800.12	0.657
800.30	0.674
800.48	0.673
800.65	0.674
800.83	0.663
801.01	0.657
801.19	0.658
801.36	0.653
801.54	0.656
801.72	0.665
801.90	0.653
802.07	0.649
802.25	0.634
802.43	0.619
802.60	0.616
802.78	0.623
802.96	0.626
803.14	0.620
803.31	0.619
803.49	0.620
803.67	0.617
803.84	0.621
804.02	0.611
804.20	0.614
804.38	0.620
804.55	0.618
804.73	0.605
804.91	0.607
805.08	0.618
805.26	0.614
805.44	0.675
805.61	0.677
805.79	0.676
805.97	0.677
806.15	0.670
806.32	0.662
806.50	0.669
806.68	0.669
806.85	0.661
807.03	0.653
807.21	0.668
807.38	0.603
807.56	0.593
807.74	0.602
807.91	0.606
808.09	0.610
808.27	0.628
808.44	0.653
808.62	0.660
808.80	0.661
808.97	0.656
809.15	0.651
809.33	0.667
809.50	0.676
809.68	0.663
809.86	0.671
810.03	0.699
810.21	0.682
810.39	0.664
810.56	0.669
810.74	0.693
810.91	0.762
811.09	0.753
811.27	0.773
811.44	0.777
811.62	0.780
811.80	0.765
811.97	0.734
812.15	0.733
812.33	0.731
812.50	0.718
812.68	0.706
812.85	0.653
813.03	0.655
813.21	0.625
813.38	0.617
813.56	0.622
813.74	0.632
813.91	0.642
814.09	0.670
814.26	0.663
814.44	0.666
814.62	0.655
814.79	0.657
814.97	0.660
815.14	0.664
815.32	0.667
815.50	0.681
815.67	0.681
815.85	0.670
816.02	0.661
816.20	0.667
816.38	0.681
816.55	0.686
816.73	0.688
816.90	0.700
817.08	0.727
817.26	0.734
817.43	0.715
817.61	0.740
817.78	0.762
817.96	0.742
818.13	0.733
818.31	0.734
818.49	0.745
818.66	0.735
818.84	0.722
819.01	0.701
819.19	0.706
819.36	0.708
819.54	0.681
819.71	0.717
819.89	0.727
820.07	0.740
820.24	0.733
820.42	0.735
820.59	0.754
820.77	0.774
820.94	0.766
821.12	0.785
821.29	0.798
821.47	0.799
821.64	0.739
821.82	0.753
822.00	0.748
822.17	0.744
822.35	0.737
822.52	0.738
822.70	0.728
822.87	0.735
823.05	0.717
823.22	0.725
823.40	0.748
823.57	0.771
823.75	0.753
823.92	0.780
824.10	0.797
824.27	0.838
824.45	0.829
824.62	0.889
824.80	0.906
824.97	0.915
825.15	0.912
825.32	0.927
825.50	0.928
825.67	0.937
825.85	0.914
826.02	0.927
826.20	0.940
826.37	1.058
826.55	0.978
826.72	1.147
826.90	1.209
827.07	1.259
827.25	1.207
827.42	1.357
827.60	1.486
827.77	1.629
827.95	1.620
828.12	1.736
828.30	1.368
828.47	1.474
828.65	1.160
828.82	1.210
829.00	1.247
829.17	1.293
829.34	1.271
829.52	1.289
829.69	-0.000
829.87	-0.000
830.04	-0.000
830.22	-0.000
830.39	-0.000
830.57	-0.000
830.74	-0.000
830.92	-0.000
831.09	-0.000
831.26	-0.000
831.44	-0.000
831.61	-0.000
831.79	-0.000
831.96	-0.000
832.14	-0.000
832.31	-0.000
832.49	-0.000
832.66	-0.000
832.83	-0.000
833.01	-0.000
833.18	-0.000
833.36	-0.000
833.53	-0.000
833.70	-0.000
833.88	-0.000
834.05	-0.000
834.23	-0.000
834.40	-0.000
834.58	-0.000
834.75	-0.000
834.92	-0.000
835.10	-0.000
835.27	-0.000
835.45	-0.000
835.62	-0.000
835.79	-0.000
835.97	-0.000
836.14	-0.000
836.32	-0.000
836.49	-0.000
836.66	-0.000
836.84	-0.000
837.01	-0.000
837.18	-0.000
837.36	-0.000
837.53	-0.000
837.71	-0.000
837.88	-0.000
838.05	-0.000
838.23	-0.000
838.40	-0.000
838.58	-0.000
838.75	-0.000
838.92	-0.000
839.10	-0.000
839.27	-0.000
839.44	-0.000
839.62	-0.000
839.79	-0.000
839.96	-0.000
840.14	-0.000
840.31	-0.000
840.48	-0.000
840.66	-0.000
840.83	-0.000
841.01	-0.000
841.18	-0.000
841.35	-0.000
841.53	-0.000
841.70	-0.000
841.87	-0.000
842.05	-0.000
842.22	-0.000
842.39	-0.000
842.57	-0.000
842.74	-0.000
842.91	-0.000
843.09	-0.000
843.26	-0.000
843.43	-0.000
843.60	-0.000
843.78	-0.000
843.95	-0.000
844.12	-0.000
844.30	-0.000
844.47	-0.000
844.64	-0.000
844.82	-0.000
844.99	-0.000
845.16	-0.000
845.34	-0.000
845.51	-0.000
845.68	-0.000
845.85	-0.000
846.03	-0.000
846.20	-0.000
846.37	-0.000
846.55	-0.000
846.72	-0.000
846.89	-0.000
847.06	-0.000
847.24	-0.000
847.41	-0.000
847.58	-0.000
847.76	-0.000
847.93	-0.000
848.10	-0.000
848.27	-0.000
848.45	-0.000
848.62	-0.000
848.79	-0.000
848.97	-0.000
849.14	-0.000
849.31	-0.000
849.48	-0.000
849.66	-0.000
849.83	-0.000
850.00	-0.000
850.17	-0.000
850.35	-0.000
850.52	-0.000
850.69	-0.000
850.86	-0.000
851.04	-0.000
851.21	-0.000
851.38	-0.000
851.55	-0.000
851.72	-0.000
851.90	-0.000
852.07	-0.000
852.24	-0.000
852.41	-0.000
852.59	-0.000
852.76	-0.000
852.93	-0.000
853.10	-0.000
853.28	-0.000
853.45	-0.000
853.62	-0.000
853.79	-0.000
853.96	-0.000
854.14	-0.000
854.31	-0.000
854.48	-0.000
854.65	-0.000
854.82	-0.000
855.00	-0.000
855.17	-0.000
855.34	-0.000
855.51	-0.000
855.68	-0.000
855.86	-0.000
856.03	-0.000
856.20	-0.000
856.37	-0.000
856.54	-0.000
856.72	-0.000
856.89	-0.000
857.06	-0.000
857.23	-0.000
857.40	-0.000
857.57	-0.000
857.75	-0.000
857.92	-0.000
858.09	-0.000
858.26	-0.000
858.43	-0.000
858.60	-0.000
858.78	-0.000
858.95	-0.000
859.12	-0.000
859.29	-0.000
859.46	-0.000
859.63	-0.000
859.81	-0.000
859.98	-0.000
860.15	-0.000
860.32	-0.000
860.49	-0.000
860.66	-0.000
860.83	-0.000
861.01	-0.000
861.18	-0.000
861.35	-0.000
861.52	-0.000
861.69	-0.000
861.86	-0.000
862.03	-0.000
862.21	-0.000
862.38	-0.000
862.55	-0.000
862.72	-0.000
862.89	-0.000
863.06	-0.000
863.23	-0.000
863.40	-0.000
863.58	-0.000
863.75	-0.000
863.92	-0.000
864.09	-0.000
864.26	-0.000
864.43	-0.000
864.60	-0.000
864.77	-0.000
864.94	-0.000
865.11	-0.000
865.29	-0.000
865.46	-0.000
865.63	-0.000
865.80	-0.000
865.97	-0.000
866.14	-0.000
866.31	-0.000
866.48	-0.000
866.65	-0.000
866.82	-0.000
866.99	-0.000
867.16	-0.000
867.34	-0.000
867.51	-0.000
867.68	-0.000
867.85	-0.000
868.02	-0.000
868.19	-0.000
868.36	-0.000
868.53	-0.000
868.70	-0.000
868.87	-0.000
869.04	-0.000
869.21	-0.000
869.38	-0.000
869.55	-0.000
869.72	-0.000
869.89	-0.000
870.06	-0.000
870.24	-0.000
870.41	-0.000
870.58	-0.000
870.75	-0.000
870.92	-0.000
871.09	-0.000
871.26	-0.000
871.43	-0.000
871.60	-0.000
871.77	-0.000
871.94	-0.000
872.11	-0.000
872.28	-0.000
872.45	-0.000
872.62	-0.000
872.79	-0.000
872.96	-0.000
873.13	-0.000
873.30	-0.000
873.47	-0.000
873.64	-0.000
873.81	-0.000
873.98	-0.000
874.15	-0.000
874.32	-0.000
874.49	-0.000
874.66	-0.000
874.83	-0.000
875.00	-0.000
875.17	-0.000
875.34	-0.000
875.51	-0.000
875.68	-0.000
875.85	-0.000
876.02	-0.000
876.19	-0.000
876.36	-0.000
876.53	-0.000
876.70	-0.000
876.87	-0.000
877.04	-0.000
877.21	-0.000
877.38	-0.000
877.55	-0.000
877.72	-0.000
877.89	-0.000
878.06	-0.000
878.23	-0.000
878.39	-0.000
878.56	-0.000
878.73	-0.000
878.90	-0.000
879.07	-0.000
879.24	-0.000
879.41	-0.000
879.58	-0.000
879.75	-0.000
879.92	-0.000
880.09	-0.000
880.26	-0.000
880.43	-0.000
880.60	-0.000
880.77	-0.000
880.94	-0.000
881.11	-0.000
881.27	-0.000
881.44	-0.000
881.61	-0.000
881.78	-0.000
881.95	-0.000
882.12	-0.000
882.29	-0.000
882.46	-0.000
882.63	-0.000
882.80	-0.000
882.97	-0.000
883.14	-0.000
883.30	-0.000
883.47	-0.000
883.64	-0.000
883.81	-0.000
883.98	-0.000
884.15	-0.000
884.32	-0.000
884.49	-0.000
884.66	-0.000
884.82	-0.000
884.99	-0.000
885.16	-0.000
885.33	-0.000
885.50	-0.000
885.67	-0.000
885.84	-0.000
886.01	-0.000
886.17	-0.000
886.34	-0.000
886.51	-0.000
886.68	-0.000
886.85	-0.000
887.02	-0.000
887.19	-0.000
887.36	-0.000
887.52	-0.000
887.69	-0.000
887.86	-0.000
888.03	-0.000
888.20	-0.000
888.37	-0.000
888.54	-0.000
888.70	-0.000
888.87	-0.000
889.04	-0.000
889.21	-0.000
889.38	-0.000
889.55	-0.000
889.71	-0.000
889.88	-0.000
890.05	-0.000
890.22	-0.000
890.39	-0.000
>>>>>End Processed Spectral Data<<<<<
