SpectraSuite Data File
++++++++++++++++++++++++++++++++++++
Date: Fri Jun 19 12:42:26 CEST 2015
User: introlabs
Dark Spectrum Present: Yes
Reference Spectrum Present: Yes
Number of Sampled Component Spectra: 1
Spectrometers: USB4H08886
Integration Time (usec): 745692 (USB4H08886)
Spectra Averaged: 5 (USB4H08886)
Boxcar Smoothing: 5 (USB4H08886)
Correct for Electrical Dark: Yes (USB4H08886)
Strobe/Lamp Enabled: No (USB4H08886)
Correct for Detector Non-linearity: Yes (USB4H08886)
Correct for Stray Light: Yes (USB4H08886)
Number of Pixels in Processed Spectrum: 3648
>>>>>Begin Processed Spectral Data<<<<<
178.14	-0.000
178.36	-0.000
178.57	-0.000
178.79	-0.000
179.01	-0.000
179.22	-0.000
179.44	-0.000
179.65	-0.000
179.87	-0.000
180.08	-0.000
180.30	-0.000
180.52	-0.000
180.73	-0.000
180.95	-0.000
181.16	-0.000
181.38	-0.000
181.59	-0.000
181.81	-0.000
182.03	-0.000
182.24	-0.000
182.46	-0.000
182.67	-0.000
182.89	-0.000
183.10	-0.000
183.32	-0.000
183.54	-0.000
183.75	-0.000
183.97	-0.000
184.18	-0.000
184.40	-0.000
184.61	-0.000
184.83	-0.000
185.04	-0.000
185.26	-0.000
185.48	-0.000
185.69	-0.000
185.91	-0.000
186.12	-0.000
186.34	-0.000
186.55	-0.000
186.77	-0.000
186.98	-0.000
187.20	-0.000
187.42	-0.000
187.63	-0.000
187.85	-0.000
188.06	-0.000
188.28	-0.000
188.49	-0.000
188.71	-0.000
188.92	-0.000
189.14	-0.000
189.36	-0.000
189.57	-0.000
189.79	-0.000
190.00	-0.000
190.22	-0.000
190.43	-0.000
190.65	-0.000
190.86	-0.000
191.08	-0.000
191.29	-0.000
191.51	-0.000
191.72	-0.000
191.94	-0.000
192.16	-0.000
192.37	-0.000
192.59	-0.000
192.80	-0.000
193.02	-0.000
193.23	-0.000
193.45	-0.000
193.66	-0.000
193.88	-0.000
194.09	-0.000
194.31	-0.000
194.52	-0.000
194.74	-0.000
194.95	-0.000
195.17	-0.000
195.38	-0.000
195.60	-0.000
195.81	-0.000
196.03	-0.000
196.25	-0.000
196.46	-0.000
196.68	-0.000
196.89	-0.000
197.11	-0.000
197.32	-0.000
197.54	-0.000
197.75	-0.000
197.97	-0.000
198.18	-0.000
198.40	-0.000
198.61	-0.000
198.83	-0.000
199.04	-0.000
199.26	-0.000
199.47	-0.000
199.69	-0.000
199.90	-0.000
200.12	-0.000
200.33	-0.000
200.55	-0.000
200.76	-0.000
200.98	-0.000
201.19	-0.000
201.41	-0.000
201.62	-0.000
201.84	-0.000
202.05	-0.000
202.27	-0.000
202.48	-0.000
202.70	-0.000
202.91	-0.000
203.13	-0.000
203.34	-0.000
203.56	-0.000
203.77	-0.000
203.99	-0.000
204.20	-0.000
204.42	-0.000
204.63	-0.000
204.85	-0.000
205.06	-0.000
205.28	-0.000
205.49	-0.000
205.71	-0.000
205.92	-0.000
206.14	-0.000
206.35	-0.000
206.56	-0.000
206.78	-0.000
206.99	-0.000
207.21	-0.000
207.42	-0.000
207.64	-0.000
207.85	-0.000
208.07	-0.000
208.28	-0.000
208.50	-0.000
208.71	-0.000
208.93	-0.000
209.14	-0.000
209.36	-0.000
209.57	-0.000
209.79	-0.000
210.00	-0.000
210.22	-0.000
210.43	-0.000
210.64	-0.000
210.86	-0.000
211.07	-0.000
211.29	-0.000
211.50	-0.000
211.72	-0.000
211.93	-0.000
212.15	-0.000
212.36	-0.000
212.58	-0.000
212.79	-0.000
213.01	-0.000
213.22	-0.000
213.43	-0.000
213.65	-0.000
213.86	-0.000
214.08	-0.000
214.29	-0.000
214.51	-0.000
214.72	-0.000
214.94	-0.000
215.15	-0.000
215.36	-0.000
215.58	-0.000
215.79	-0.000
216.01	-0.000
216.22	-0.000
216.44	-0.000
216.65	-0.000
216.87	-0.000
217.08	-0.000
217.29	-0.000
217.51	-0.000
217.72	-0.000
217.94	-0.000
218.15	-0.000
218.37	-0.000
218.58	-0.000
218.80	-0.000
219.01	-0.000
219.22	-0.000
219.44	-0.000
219.65	-0.000
219.87	-0.000
220.08	-0.000
220.30	-0.000
220.51	-0.000
220.72	-0.000
220.94	-0.000
221.15	-0.000
221.37	-0.000
221.58	-0.000
221.79	-0.000
222.01	-0.000
222.22	-0.000
222.44	-0.000
222.65	-0.000
222.87	-0.000
223.08	-0.000
223.29	-0.000
223.51	-0.000
223.72	-0.000
223.94	-0.000
224.15	-0.000
224.36	-0.000
224.58	-0.000
224.79	-0.000
225.01	-0.000
225.22	-0.000
225.44	-0.000
225.65	-0.000
225.86	-0.000
226.08	-0.000
226.29	-0.000
226.51	-0.000
226.72	-0.000
226.93	-0.000
227.15	-0.000
227.36	-0.000
227.58	-0.000
227.79	-0.000
228.00	-0.000
228.22	-0.000
228.43	-0.000
228.65	-0.000
228.86	-0.000
229.07	-0.000
229.29	-0.000
229.50	-0.000
229.72	-0.000
229.93	-0.000
230.14	-0.000
230.36	-0.000
230.57	-0.000
230.78	-0.000
231.00	-0.000
231.21	-0.000
231.43	-0.000
231.64	-0.000
231.85	-0.000
232.07	-0.000
232.28	-0.000
232.50	-0.000
232.71	-0.000
232.92	-0.000
233.14	-0.000
233.35	-0.000
233.56	-0.000
233.78	-0.000
233.99	-0.000
234.21	-0.000
234.42	-0.000
234.63	-0.000
234.85	-0.000
235.06	-0.000
235.27	-0.000
235.49	-0.000
235.70	-0.000
235.91	-0.000
236.13	-0.000
236.34	-0.000
236.56	-0.000
236.77	-0.000
236.98	-0.000
237.20	-0.000
237.41	-0.000
237.62	-0.000
237.84	-0.000
238.05	-0.000
238.26	-0.000
238.48	-0.000
238.69	-0.000
238.91	-0.000
239.12	-0.000
239.33	-0.000
239.55	-0.000
239.76	-0.000
239.97	-0.000
240.19	-0.000
240.40	-0.000
240.61	-0.000
240.83	-0.000
241.04	-0.000
241.25	-0.000
241.47	-0.000
241.68	-0.000
241.89	-0.000
242.11	-0.000
242.32	-0.000
242.53	-0.000
242.75	-0.000
242.96	-0.000
243.17	-0.000
243.39	-0.000
243.60	-0.000
243.81	-0.000
244.03	-0.000
244.24	-0.000
244.45	-0.000
244.67	-0.000
244.88	-0.000
245.09	-0.000
245.31	-0.000
245.52	-0.000
245.73	-0.000
245.95	-0.000
246.16	-0.000
246.37	-0.000
246.59	-0.000
246.80	-0.000
247.01	-0.000
247.23	-0.000
247.44	-0.000
247.65	-0.000
247.87	-0.000
248.08	-0.000
248.29	-0.000
248.51	-0.000
248.72	-0.000
248.93	-0.000
249.15	-0.000
249.36	-0.000
249.57	-0.000
249.78	-0.000
250.00	-0.000
250.21	-0.000
250.42	-0.000
250.64	-0.000
250.85	-0.000
251.06	-0.000
251.28	-0.000
251.49	-0.000
251.70	-0.000
251.92	-0.000
252.13	-0.000
252.34	-0.000
252.55	-0.000
252.77	-0.000
252.98	-0.000
253.19	-0.000
253.41	-0.000
253.62	-0.000
253.83	-0.000
254.05	-0.000
254.26	-0.000
254.47	-0.000
254.68	-0.000
254.90	-0.000
255.11	-0.000
255.32	-0.000
255.54	-0.000
255.75	-0.000
255.96	-0.000
256.17	-0.000
256.39	-0.000
256.60	-0.000
256.81	-0.000
257.03	-0.000
257.24	-0.000
257.45	-0.000
257.66	-0.000
257.88	-0.000
258.09	-0.000
258.30	-0.000
258.51	-0.000
258.73	-0.000
258.94	-0.000
259.15	-0.000
259.37	-0.000
259.58	-0.000
259.79	-0.000
260.00	-0.000
260.22	-0.000
260.43	-0.000
260.64	-0.000
260.85	-0.000
261.07	-0.000
261.28	-0.000
261.49	-0.000
261.71	-0.000
261.92	-0.000
262.13	-0.000
262.34	-0.000
262.56	-0.000
262.77	-0.000
262.98	-0.000
263.19	-0.000
263.41	-0.000
263.62	-0.000
263.83	-0.000
264.04	-0.000
264.26	-0.000
264.47	-0.000
264.68	-0.000
264.89	-0.000
265.11	-0.000
265.32	-0.000
265.53	-0.000
265.74	-0.000
265.96	-0.000
266.17	-0.000
266.38	-0.000
266.59	-0.000
266.81	-0.000
267.02	-0.000
267.23	-0.000
267.44	-0.000
267.65	-0.000
267.87	-0.000
268.08	-0.000
268.29	-0.000
268.50	-0.000
268.72	-0.000
268.93	-0.000
269.14	-0.000
269.35	-0.000
269.57	-0.000
269.78	-0.000
269.99	-0.000
270.20	-0.000
270.41	-0.000
270.63	-0.000
270.84	-0.000
271.05	-0.000
271.26	-0.000
271.48	-0.000
271.69	-0.000
271.90	-0.000
272.11	-0.000
272.32	-0.000
272.54	-0.000
272.75	-0.000
272.96	-0.000
273.17	-0.000
273.39	-0.000
273.60	-0.000
273.81	-0.000
274.02	-0.000
274.23	-0.000
274.45	-0.000
274.66	-0.000
274.87	-0.000
275.08	-0.000
275.29	-0.000
275.51	-0.000
275.72	-0.000
275.93	-0.000
276.14	-0.000
276.35	-0.000
276.57	-0.000
276.78	-0.000
276.99	-0.000
277.20	-0.000
277.41	-0.000
277.63	-0.000
277.84	-0.000
278.05	-0.000
278.26	-0.000
278.47	-0.000
278.69	-0.000
278.90	-0.000
279.11	-0.000
279.32	-0.000
279.53	-0.000
279.74	-0.000
279.96	-0.000
280.17	-0.000
280.38	-0.000
280.59	-0.000
280.80	-0.000
281.02	-0.000
281.23	-0.000
281.44	-0.000
281.65	-0.000
281.86	-0.000
282.07	-0.000
282.29	-0.000
282.50	-0.000
282.71	-0.000
282.92	-0.000
283.13	-0.000
283.35	-0.000
283.56	-0.000
283.77	-0.000
283.98	-0.000
284.19	-0.000
284.40	-0.000
284.62	-0.000
284.83	-0.000
285.04	-0.000
285.25	-0.000
285.46	-0.000
285.67	-0.000
285.88	-0.000
286.10	-0.000
286.31	-0.000
286.52	-0.000
286.73	-0.000
286.94	-0.000
287.15	-0.000
287.37	-0.000
287.58	-0.000
287.79	-0.000
288.00	-0.000
288.21	-0.000
288.42	-0.000
288.63	-0.000
288.85	-0.000
289.06	-0.000
289.27	-0.000
289.48	-0.000
289.69	-0.000
289.90	-0.000
290.11	-0.000
290.33	-0.000
290.54	-0.000
290.75	-0.000
290.96	-0.000
291.17	-0.000
291.38	-0.000
291.59	-0.000
291.81	-0.000
292.02	-0.000
292.23	-0.000
292.44	-0.000
292.65	-0.000
292.86	-0.000
293.07	-0.000
293.28	-0.000
293.50	-0.000
293.71	-0.000
293.92	-0.000
294.13	-0.000
294.34	-0.000
294.55	-0.000
294.76	-0.000
294.97	-0.000
295.19	-0.000
295.40	-0.000
295.61	-0.000
295.82	-0.000
296.03	-0.000
296.24	-0.000
296.45	2.402
296.66	1.838
296.87	1.845
297.09	1.969
297.30	2.251
297.51	1.733
297.72	1.683
297.93	1.793
298.14	1.746
298.35	1.683
298.56	1.650
298.77	1.793
298.99	1.742
299.20	1.691
299.41	1.661
299.62	1.634
299.83	1.625
300.04	1.549
300.25	1.541
300.46	1.600
300.67	1.572
300.88	1.511
301.10	1.505
301.31	1.598
301.52	1.541
301.73	1.469
301.94	1.474
302.15	1.491
302.36	1.446
302.57	1.380
302.78	1.384
302.99	1.428
303.20	1.445
303.41	1.354
303.63	1.332
303.84	1.339
304.05	1.339
304.26	1.277
304.47	1.289
304.68	1.295
304.89	1.285
305.10	1.234
305.31	1.221
305.52	1.261
305.73	1.256
305.94	1.216
306.15	1.210
306.37	1.232
306.58	1.236
306.79	1.201
307.00	1.217
307.21	1.256
307.42	1.255
307.63	1.220
307.84	1.191
308.05	1.226
308.26	1.227
308.47	1.203
308.68	1.200
308.89	1.207
309.10	1.202
309.31	1.161
309.52	1.152
309.73	1.170
309.95	1.161
310.16	1.131
310.37	1.123
310.58	1.140
310.79	1.138
311.00	1.128
311.21	1.127
311.42	1.134
311.63	1.129
311.84	1.109
312.05	1.105
312.26	1.130
312.47	1.142
312.68	1.115
312.89	1.100
313.10	1.110
313.31	1.087
313.52	1.084
313.73	1.083
313.94	1.089
314.15	1.072
314.36	1.049
314.57	1.041
314.78	1.031
314.99	1.026
315.21	1.012
315.42	1.015
315.63	1.030
315.84	1.009
316.05	0.995
316.26	1.002
316.47	1.021
316.68	1.017
316.89	0.999
317.10	1.017
317.31	1.023
317.52	1.024
317.73	1.003
317.94	1.001
318.15	1.042
318.36	1.040
318.57	1.021
318.78	1.010
318.99	1.046
319.20	1.042
319.41	1.008
319.62	1.008
319.83	1.020
320.04	1.015
320.25	1.002
320.46	0.973
320.67	0.978
320.88	0.974
321.09	0.959
321.30	0.945
321.51	0.961
321.72	0.959
321.93	0.945
322.14	0.940
322.35	0.967
322.56	0.967
322.77	0.954
322.98	0.964
323.19	0.975
323.40	0.981
323.61	0.960
323.82	0.955
324.03	0.962
324.24	0.958
324.45	0.944
324.66	0.925
324.87	0.924
325.08	0.923
325.29	0.904
325.50	0.901
325.71	0.907
325.92	0.915
326.13	0.901
326.34	0.901
326.55	0.911
326.76	0.909
326.97	0.899
327.18	0.894
327.39	0.919
327.60	0.919
327.80	0.914
328.01	0.913
328.22	0.912
328.43	0.916
328.64	0.904
328.85	0.908
329.06	0.911
329.27	0.909
329.48	0.903
329.69	0.886
329.90	0.897
330.11	0.889
330.32	0.881
330.53	0.876
330.74	0.877
330.95	0.875
331.16	0.859
331.37	0.866
331.58	0.869
331.79	0.868
332.00	0.859
332.21	0.852
332.42	0.858
332.63	0.851
332.83	0.843
333.04	0.845
333.25	0.859
333.46	0.857
333.67	0.844
333.88	0.845
334.09	0.854
334.30	0.852
334.51	0.844
334.72	0.839
334.93	0.842
335.14	0.843
335.35	0.836
335.56	0.830
335.77	0.839
335.98	0.837
336.18	0.829
336.39	0.824
336.60	0.828
336.81	0.826
337.02	0.824
337.23	0.828
337.44	0.831
337.65	0.832
337.86	0.823
338.07	0.819
338.28	0.825
338.49	0.823
338.70	0.815
338.91	0.822
339.11	0.829
339.32	0.826
339.53	0.813
339.74	0.811
339.95	0.810
340.16	0.808
340.37	0.800
340.58	0.798
340.79	0.803
341.00	0.804
341.21	0.793
341.41	0.794
341.62	0.796
341.83	0.798
342.04	0.792
342.25	0.801
342.46	0.806
342.67	0.805
342.88	0.797
343.09	0.797
343.30	0.804
343.50	0.806
343.71	0.796
343.92	0.796
344.13	0.802
344.34	0.801
344.55	0.785
344.76	0.785
344.97	0.790
345.18	0.789
345.38	0.786
345.59	0.780
345.80	0.781
346.01	0.779
346.22	0.773
346.43	0.767
346.64	0.776
346.85	0.775
347.06	0.768
347.26	0.768
347.47	0.773
347.68	0.768
347.89	0.765
348.10	0.760
348.31	0.769
348.52	0.768
348.73	0.765
348.93	0.762
349.14	0.765
349.35	0.764
349.56	0.758
349.77	0.754
349.98	0.760
350.19	0.757
350.39	0.752
350.60	0.747
350.81	0.762
351.02	0.761
351.23	0.757
351.44	0.758
351.65	0.762
351.86	0.760
352.06	0.758
352.27	0.758
352.48	0.760
352.69	0.760
352.90	0.755
353.11	0.743
353.31	0.749
353.52	0.745
353.73	0.737
353.94	0.739
354.15	0.746
354.36	0.746
354.57	0.737
354.77	0.739
354.98	0.739
355.19	0.739
355.40	0.738
355.61	0.744
355.82	0.749
356.02	0.748
356.23	0.741
356.44	0.743
356.65	0.747
356.86	0.748
357.07	0.741
357.27	0.745
357.48	0.747
357.69	0.744
357.90	0.729
358.11	0.726
358.32	0.731
358.52	0.734
358.73	0.723
358.94	0.726
359.15	0.731
359.36	0.732
359.56	0.726
359.77	0.723
359.98	0.730
360.19	0.730
360.40	0.727
360.61	0.727
360.81	0.727
361.02	0.728
361.23	0.719
361.44	0.718
361.65	0.719
361.85	0.718
362.06	0.716
362.27	0.718
362.48	0.719
362.69	0.721
362.89	0.714
363.10	0.716
363.31	0.721
363.52	0.725
363.73	0.719
363.93	0.718
364.14	0.722
364.35	0.724
364.56	0.713
364.77	0.715
364.97	0.718
365.18	0.719
365.39	0.713
365.60	0.710
365.81	0.711
366.01	0.710
366.22	0.708
366.43	0.707
366.64	0.709
366.84	0.715
367.05	0.711
367.26	0.711
367.47	0.713
367.68	0.714
367.88	0.710
368.09	0.709
368.30	0.712
368.51	0.712
368.71	0.711
368.92	0.715
369.13	0.714
369.34	0.713
369.55	0.712
369.75	0.713
369.96	0.720
370.17	0.720
370.38	0.715
370.58	0.714
370.79	0.720
371.00	0.718
371.21	0.709
371.41	0.714
371.62	0.719
371.83	0.714
372.04	0.711
372.24	0.704
372.45	0.706
372.66	0.707
372.87	0.703
373.07	0.700
373.28	0.702
373.49	0.704
373.70	0.695
373.90	0.694
374.11	0.703
374.32	0.702
374.53	0.701
374.73	0.701
374.94	0.705
375.15	0.705
375.36	0.702
375.56	0.711
375.77	0.712
375.98	0.712
376.19	0.709
376.39	0.703
376.60	0.708
376.81	0.708
377.02	0.705
377.22	0.703
377.43	0.704
377.64	0.703
377.84	0.694
378.05	0.698
378.26	0.704
378.47	0.703
378.67	0.700
378.88	0.697
379.09	0.698
379.30	0.698
379.50	0.695
379.71	0.697
379.92	0.701
380.12	0.701
380.33	0.692
380.54	0.688
380.75	0.695
380.95	0.696
381.16	0.693
381.37	0.694
381.57	0.696
381.78	0.697
381.99	0.696
382.20	0.695
382.40	0.699
382.61	0.699
382.82	0.695
383.02	0.688
383.23	0.691
383.44	0.691
383.64	0.688
383.85	0.690
384.06	0.693
384.27	0.691
384.47	0.688
384.68	0.687
384.89	0.693
385.09	0.693
385.30	0.693
385.51	0.692
385.71	0.696
385.92	0.696
386.13	0.694
386.33	0.695
386.54	0.697
386.75	0.696
386.95	0.691
387.16	0.687
387.37	0.690
387.58	0.689
387.78	0.686
387.99	0.683
388.20	0.686
388.40	0.684
388.61	0.680
388.82	0.682
389.02	0.685
389.23	0.686
389.44	0.683
389.64	0.683
389.85	0.695
390.06	0.694
390.26	0.694
390.47	0.693
390.68	0.695
390.88	0.694
391.09	0.689
391.30	0.687
391.50	0.687
391.71	0.687
391.92	0.684
392.12	0.677
392.33	0.677
392.53	0.677
392.74	0.677
392.95	0.676
393.15	0.679
393.36	0.681
393.57	0.679
393.77	0.681
393.98	0.683
394.19	0.683
394.39	0.682
394.60	0.684
394.81	0.686
395.01	0.684
395.22	0.681
395.43	0.682
395.63	0.686
395.84	0.687
396.04	0.683
396.25	0.685
396.46	0.687
396.66	0.685
396.87	0.681
397.08	0.677
397.28	0.680
397.49	0.681
397.69	0.677
397.90	0.672
398.11	0.674
398.31	0.674
398.52	0.670
398.73	0.671
398.93	0.671
399.14	0.670
399.34	0.669
399.55	0.670
399.76	0.670
399.96	0.671
400.17	0.669
400.37	0.666
400.58	0.673
400.79	0.674
400.99	0.671
401.20	0.676
401.41	0.679
401.61	0.679
401.82	0.684
402.02	0.684
402.23	0.685
402.44	0.686
402.64	0.685
402.85	0.680
403.05	0.680
403.26	0.679
403.47	0.672
403.67	0.672
403.88	0.673
404.08	0.666
404.29	0.663
404.50	0.663
404.70	0.663
404.91	0.662
405.11	0.659
405.32	0.659
405.52	0.659
405.73	0.659
405.94	0.656
406.14	0.658
406.35	0.661
406.55	0.661
406.76	0.658
406.97	0.659
407.17	0.662
407.38	0.661
407.58	0.659
407.79	0.663
407.99	0.665
408.20	0.667
408.41	0.662
408.61	0.661
408.82	0.662
409.02	0.662
409.23	0.660
409.43	0.659
409.64	0.661
409.84	0.661
410.05	0.657
410.26	0.656
410.46	0.655
410.67	0.655
410.87	0.656
411.08	0.657
411.28	0.658
411.49	0.659
411.69	0.657
411.90	0.657
412.11	0.659
412.31	0.660
412.52	0.658
412.72	0.660
412.93	0.661
413.13	0.659
413.34	0.656
413.54	0.657
413.75	0.658
413.95	0.658
414.16	0.655
414.37	0.657
414.57	0.657
414.78	0.660
414.98	0.657
415.19	0.658
415.39	0.657
415.60	0.659
415.80	0.658
416.01	0.656
416.21	0.659
416.42	0.659
416.62	0.654
416.83	0.655
417.03	0.655
417.24	0.655
417.44	0.653
417.65	0.652
417.86	0.652
418.06	0.651
418.27	0.649
418.47	0.651
418.68	0.651
418.88	0.651
419.09	0.649
419.29	0.650
419.50	0.651
419.70	0.651
419.91	0.649
420.11	0.647
420.32	0.649
420.52	0.649
420.73	0.647
420.93	0.648
421.14	0.650
421.34	0.649
421.55	0.645
421.75	0.644
421.96	0.646
422.16	0.646
422.37	0.645
422.57	0.643
422.78	0.645
422.98	0.642
423.19	0.640
423.39	0.639
423.60	0.642
423.80	0.644
424.01	0.642
424.21	0.644
424.42	0.645
424.62	0.646
424.83	0.644
425.03	0.644
425.23	0.647
425.44	0.647
425.64	0.647
425.85	0.646
426.05	0.647
426.26	0.648
426.46	0.644
426.67	0.644
426.87	0.649
427.08	0.649
427.28	0.647
427.49	0.648
427.69	0.649
427.90	0.648
428.10	0.646
428.31	0.646
428.51	0.648
428.71	0.647
428.92	0.649
429.12	0.646
429.33	0.647
429.53	0.651
429.74	0.655
429.94	0.654
430.15	0.654
430.35	0.655
430.56	0.651
430.76	0.651
430.96	0.653
431.17	0.650
431.37	0.647
431.58	0.645
431.78	0.643
431.99	0.636
432.19	0.639
432.40	0.640
432.60	0.641
432.80	0.644
433.01	0.642
433.21	0.642
433.42	0.644
433.62	0.645
433.83	0.645
434.03	0.647
434.23	0.651
434.44	0.649
434.64	0.647
434.85	0.652
435.05	0.652
435.26	0.653
435.46	0.651
435.66	0.651
435.87	0.651
436.07	0.651
436.28	0.647
436.48	0.644
436.69	0.644
436.89	0.644
437.09	0.639
437.30	0.638
437.50	0.639
437.71	0.650
437.91	0.649
438.11	0.650
438.32	0.655
438.52	0.655
438.73	0.654
438.93	0.653
439.13	0.653
439.34	0.656
439.54	0.654
439.75	0.654
439.95	0.645
440.15	0.649
440.36	0.648
440.56	0.646
440.77	0.646
440.97	0.647
441.17	0.645
441.38	0.646
441.58	0.644
441.79	0.644
441.99	0.642
442.19	0.641
442.40	0.639
442.60	0.639
442.81	0.636
443.01	0.637
443.21	0.638
443.42	0.638
443.62	0.636
443.82	0.636
444.03	0.638
444.23	0.638
444.44	0.638
444.64	0.637
444.84	0.639
445.05	0.639
445.25	0.636
445.45	0.637
445.66	0.640
445.86	0.639
446.06	0.640
446.27	0.639
446.47	0.643
446.68	0.642
446.88	0.640
447.08	0.639
447.29	0.642
447.49	0.642
447.69	0.642
447.90	0.640
448.10	0.644
448.30	0.642
448.51	0.643
448.71	0.641
448.91	0.644
449.12	0.643
449.32	0.644
449.52	0.643
449.73	0.648
449.93	0.647
450.14	0.647
450.34	0.647
450.54	0.649
450.75	0.646
450.95	0.645
451.15	0.645
451.36	0.648
451.56	0.645
451.76	0.644
451.97	0.640
452.17	0.641
452.37	0.640
452.58	0.636
452.78	0.636
452.98	0.639
453.19	0.638
453.39	0.638
453.59	0.637
453.79	0.638
454.00	0.639
454.20	0.639
454.40	0.639
454.61	0.641
454.81	0.642
455.01	0.640
455.22	0.641
455.42	0.643
455.62	0.641
455.83	0.641
456.03	0.644
456.23	0.645
456.44	0.646
456.64	0.644
456.84	0.644
457.04	0.646
457.25	0.645
457.45	0.641
457.65	0.640
457.86	0.642
458.06	0.640
458.26	0.636
458.47	0.635
458.67	0.637
458.87	0.637
459.07	0.634
459.28	0.636
459.48	0.639
459.68	0.640
459.89	0.639
460.09	0.638
460.29	0.639
460.49	0.641
460.70	0.640
460.90	0.639
461.10	0.641
461.31	0.640
461.51	0.637
461.71	0.638
461.91	0.640
462.12	0.639
462.32	0.637
462.52	0.638
462.72	0.642
462.93	0.642
463.13	0.640
463.33	0.640
463.53	0.643
463.74	0.642
463.94	0.637
464.14	0.637
464.35	0.640
464.55	0.640
464.75	0.638
464.95	0.636
465.16	0.638
465.36	0.637
465.56	0.636
465.76	0.635
465.97	0.636
466.17	0.637
466.37	0.635
466.57	0.636
466.78	0.637
466.98	0.637
467.18	0.635
467.38	0.634
467.59	0.636
467.79	0.637
467.99	0.637
468.19	0.637
468.39	0.641
468.60	0.641
468.80	0.639
469.00	0.640
469.20	0.642
469.41	0.643
469.61	0.641
469.81	0.642
470.01	0.642
470.22	0.642
470.42	0.640
470.62	0.637
470.82	0.639
471.02	0.639
471.23	0.636
471.43	0.637
471.63	0.639
471.83	0.639
472.04	0.636
472.24	0.635
472.44	0.641
472.64	0.642
472.84	0.639
473.05	0.639
473.25	0.642
473.45	0.641
473.65	0.640
473.85	0.640
474.06	0.642
474.26	0.642
474.46	0.642
474.66	0.638
474.86	0.640
475.07	0.640
475.27	0.638
475.47	0.635
475.67	0.636
475.87	0.638
476.08	0.633
476.28	0.635
476.48	0.637
476.68	0.635
476.88	0.633
477.09	0.634
477.29	0.636
477.49	0.636
477.69	0.635
477.89	0.635
478.09	0.634
478.30	0.637
478.50	0.633
478.70	0.633
478.90	0.633
479.10	0.635
479.31	0.636
479.51	0.634
479.71	0.635
479.91	0.636
480.11	0.635
480.31	0.635
480.52	0.634
480.72	0.634
480.92	0.633
481.12	0.632
481.32	0.630
481.52	0.628
481.72	0.628
481.93	0.632
482.13	0.632
482.33	0.632
482.53	0.630
482.73	0.630
482.93	0.632
483.14	0.631
483.34	0.630
483.54	0.630
483.74	0.630
483.94	0.629
484.14	0.625
484.34	0.625
484.55	0.626
484.75	0.626
484.95	0.624
485.15	0.624
485.35	0.625
485.55	0.624
485.75	0.622
485.96	0.623
486.16	0.625
486.36	0.624
486.56	0.622
486.76	0.623
486.96	0.623
487.16	0.622
487.36	0.620
487.57	0.620
487.77	0.621
487.97	0.622
488.17	0.620
488.37	0.618
488.57	0.619
488.77	0.620
488.97	0.618
489.18	0.617
489.38	0.620
489.58	0.620
489.78	0.620
489.98	0.619
490.18	0.620
490.38	0.620
490.58	0.619
490.78	0.619
490.98	0.621
491.19	0.622
491.39	0.621
491.59	0.620
491.79	0.624
491.99	0.624
492.19	0.624
492.39	0.627
492.59	0.627
492.79	0.629
492.99	0.629
493.20	0.629
493.40	0.630
493.60	0.631
493.80	0.629
494.00	0.627
494.20	0.628
494.40	0.627
494.60	0.625
494.80	0.629
495.00	0.628
495.20	0.627
495.40	0.626
495.61	0.627
495.81	0.628
496.01	0.632
496.21	0.632
496.41	0.631
496.61	0.632
496.81	0.631
497.01	0.626
497.21	0.626
497.41	0.627
497.61	0.626
497.81	0.623
498.01	0.623
498.21	0.621
498.41	0.619
498.61	0.620
498.82	0.620
499.02	0.623
499.22	0.624
499.42	0.623
499.62	0.624
499.82	0.625
500.02	0.626
500.22	0.625
500.42	0.627
500.62	0.628
500.82	0.628
501.02	0.625
501.22	0.625
501.42	0.626
501.62	0.628
501.82	0.627
502.02	0.627
502.22	0.627
502.42	0.629
502.62	0.626
502.82	0.626
503.02	0.627
503.22	0.627
503.42	0.625
503.63	0.624
503.83	0.623
504.03	0.621
504.23	0.620
504.43	0.620
504.63	0.621
504.83	0.621
505.03	0.620
505.23	0.621
505.43	0.624
505.63	0.625
505.83	0.624
506.03	0.626
506.23	0.629
506.43	0.629
506.63	0.628
506.83	0.627
507.03	0.629
507.23	0.630
507.43	0.627
507.63	0.627
507.83	0.628
508.03	0.628
508.23	0.627
508.43	0.625
508.63	0.627
508.83	0.628
509.03	0.629
509.23	0.627
509.43	0.628
509.63	0.629
509.83	0.627
510.03	0.630
510.23	0.632
510.43	0.632
510.63	0.632
510.83	0.632
511.03	0.634
511.23	0.631
511.43	0.631
511.63	0.633
511.83	0.635
512.03	0.635
512.22	0.631
512.42	0.631
512.62	0.632
512.82	0.632
513.02	0.630
513.22	0.630
513.42	0.632
513.62	0.634
513.82	0.632
514.02	0.632
514.22	0.633
514.42	0.635
514.62	0.634
514.82	0.634
515.02	0.637
515.22	0.641
515.42	0.639
515.62	0.642
515.82	0.641
516.02	0.642
516.22	0.641
516.42	0.642
516.62	0.645
516.82	0.646
517.01	0.644
517.21	0.643
517.41	0.647
517.61	0.647
517.81	0.643
518.01	0.642
518.21	0.643
518.41	0.641
518.61	0.640
518.81	0.640
519.01	0.641
519.21	0.641
519.41	0.639
519.61	0.634
519.81	0.637
520.00	0.637
520.20	0.637
520.40	0.640
520.60	0.642
520.80	0.641
521.00	0.641
521.20	0.642
521.40	0.647
521.60	0.647
521.80	0.646
522.00	0.646
522.20	0.649
522.39	0.649
522.59	0.645
522.79	0.647
522.99	0.651
523.19	0.649
523.39	0.646
523.59	0.645
523.79	0.648
523.99	0.651
524.19	0.650
524.38	0.649
524.58	0.651
524.78	0.651
524.98	0.648
525.18	0.650
525.38	0.651
525.58	0.652
525.78	0.649
525.98	0.648
526.18	0.648
526.37	0.648
526.57	0.649
526.77	0.649
526.97	0.650
527.17	0.650
527.37	0.646
527.57	0.649
527.77	0.651
527.96	0.652
528.16	0.650
528.36	0.651
528.56	0.654
528.76	0.651
528.96	0.650
529.16	0.651
529.36	0.654
529.55	0.654
529.75	0.651
529.95	0.651
530.15	0.653
530.35	0.655
530.55	0.652
530.75	0.652
530.94	0.655
531.14	0.655
531.34	0.654
531.54	0.652
531.74	0.655
531.94	0.658
532.13	0.656
532.33	0.657
532.53	0.656
532.73	0.656
532.93	0.653
533.13	0.654
533.33	0.654
533.52	0.655
533.72	0.658
533.92	0.656
534.12	0.655
534.32	0.655
534.52	0.653
534.71	0.655
534.91	0.659
535.11	0.660
535.31	0.658
535.51	0.660
535.71	0.662
535.90	0.658
536.10	0.659
536.30	0.661
536.50	0.662
536.70	0.662
536.89	0.659
537.09	0.658
537.29	0.660
537.49	0.660
537.69	0.658
537.89	0.659
538.08	0.659
538.28	0.657
538.48	0.656
538.68	0.658
538.88	0.661
539.07	0.661
539.27	0.659
539.47	0.658
539.67	0.659
539.87	0.661
540.06	0.658
540.26	0.659
540.46	0.662
540.66	0.659
540.86	0.656
541.05	0.656
541.25	0.658
541.45	0.658
541.65	0.655
541.84	0.657
542.04	0.658
542.24	0.658
542.44	0.657
542.64	0.658
542.83	0.661
543.03	0.662
543.23	0.659
543.43	0.659
543.62	0.662
543.82	0.663
544.02	0.661
544.22	0.662
544.42	0.666
544.61	0.666
544.81	0.663
545.01	0.662
545.21	0.665
545.40	0.666
545.60	0.663
545.80	0.666
546.00	0.667
546.19	0.666
546.39	0.664
546.59	0.661
546.79	0.663
546.98	0.663
547.18	0.662
547.38	0.663
547.58	0.665
547.77	0.666
547.97	0.662
548.17	0.663
548.37	0.664
548.56	0.664
548.76	0.663
548.96	0.665
549.16	0.668
549.35	0.668
549.55	0.666
549.75	0.667
549.95	0.671
550.14	0.672
550.34	0.669
550.54	0.675
550.73	0.679
550.93	0.680
551.13	0.676
551.33	0.674
551.52	0.676
551.72	0.676
551.92	0.673
552.12	0.673
552.31	0.674
552.51	0.675
552.71	0.669
552.90	0.669
553.10	0.670
553.30	0.671
553.50	0.670
553.69	0.672
553.89	0.673
554.09	0.673
554.28	0.670
554.48	0.672
554.68	0.674
554.87	0.674
555.07	0.670
555.27	0.670
555.47	0.672
555.66	0.673
555.86	0.671
556.06	0.674
556.25	0.676
556.45	0.684
556.65	0.681
556.84	0.684
557.04	0.687
557.24	0.689
557.43	0.687
557.63	0.690
557.83	0.692
558.02	0.692
558.22	0.695
558.42	0.695
558.61	0.688
558.81	0.688
559.01	0.684
559.21	0.684
559.40	0.686
559.60	0.686
559.80	0.681
559.99	0.682
560.19	0.685
560.39	0.679
560.58	0.677
560.78	0.677
560.97	0.681
561.17	0.681
561.37	0.678
561.56	0.678
561.76	0.680
561.96	0.679
562.15	0.676
562.35	0.679
562.55	0.682
562.74	0.681
562.94	0.679
563.14	0.678
563.33	0.679
563.53	0.679
563.73	0.676
563.92	0.678
564.12	0.682
564.31	0.684
564.51	0.681
564.71	0.682
564.90	0.685
565.10	0.686
565.30	0.688
565.49	0.689
565.69	0.692
565.89	0.693
566.08	0.689
566.28	0.690
566.47	0.693
566.67	0.690
566.87	0.687
567.06	0.689
567.26	0.695
567.46	0.691
567.65	0.690
567.85	0.690
568.04	0.694
568.24	0.692
568.44	0.689
568.63	0.687
568.83	0.689
569.02	0.687
569.22	0.682
569.42	0.679
569.61	0.681
569.81	0.679
570.00	0.677
570.20	0.678
570.40	0.680
570.59	0.680
570.79	0.677
570.98	0.675
571.18	0.677
571.38	0.677
571.57	0.673
571.77	0.671
571.96	0.675
572.16	0.673
572.35	0.667
572.55	0.668
572.75	0.667
572.94	0.667
573.14	0.666
573.33	0.666
573.53	0.668
573.73	0.667
573.92	0.665
574.12	0.662
574.31	0.666
574.51	0.666
574.70	0.663
574.90	0.664
575.09	0.667
575.29	0.667
575.49	0.663
575.68	0.664
575.88	0.666
576.07	0.668
576.27	0.665
576.46	0.664
576.66	0.664
576.86	0.663
577.05	0.661
577.25	0.659
577.44	0.661
577.64	0.661
577.83	0.659
578.03	0.659
578.22	0.659
578.42	0.658
578.61	0.656
578.81	0.657
579.00	0.658
579.20	0.658
579.40	0.656
579.59	0.655
579.79	0.656
579.98	0.656
580.18	0.655
580.37	0.655
580.57	0.658
580.76	0.663
580.96	0.660
581.15	0.661
581.35	0.664
581.54	0.663
581.74	0.662
581.93	0.663
582.13	0.664
582.32	0.661
582.52	0.660
582.71	0.659
582.91	0.656
583.10	0.656
583.30	0.655
583.49	0.654
583.69	0.658
583.88	0.660
584.08	0.659
584.27	0.661
584.47	0.664
584.66	0.665
584.86	0.663
585.05	0.665
585.25	0.668
585.44	0.667
585.64	0.665
585.83	0.662
586.03	0.663
586.22	0.662
586.42	0.658
586.61	0.660
586.81	0.664
587.00	0.664
587.20	0.661
587.39	0.661
587.59	0.664
587.78	0.665
587.98	0.665
588.17	0.666
588.37	0.669
588.56	0.671
588.76	0.666
588.95	0.666
589.15	0.670
589.34	0.672
589.54	0.671
589.73	0.671
589.92	0.675
590.12	0.674
590.31	0.671
590.51	0.676
590.70	0.678
590.90	0.679
591.09	0.676
591.29	0.675
591.48	0.675
591.68	0.676
591.87	0.674
592.06	0.673
592.26	0.676
592.45	0.675
592.65	0.669
592.84	0.669
593.04	0.672
593.23	0.674
593.43	0.671
593.62	0.670
593.81	0.672
594.01	0.672
594.20	0.669
594.40	0.669
594.59	0.671
594.79	0.672
594.98	0.670
595.17	0.669
595.37	0.670
595.56	0.672
595.76	0.670
595.95	0.671
596.14	0.674
596.34	0.675
596.53	0.672
596.73	0.674
596.92	0.675
597.12	0.678
597.31	0.677
597.50	0.676
597.70	0.679
597.89	0.678
598.09	0.675
598.28	0.676
598.47	0.679
598.67	0.678
598.86	0.674
599.06	0.676
599.25	0.677
599.44	0.675
599.64	0.673
599.83	0.670
600.03	0.674
600.22	0.675
600.41	0.674
600.61	0.672
600.80	0.675
601.00	0.676
601.19	0.671
601.38	0.670
601.58	0.673
601.77	0.674
601.96	0.675
602.16	0.675
602.35	0.685
602.55	0.682
602.74	0.682
602.93	0.683
603.13	0.688
603.32	0.690
603.51	0.688
603.71	0.690
603.90	0.693
604.09	0.693
604.29	0.690
604.48	0.684
604.68	0.686
604.87	0.685
605.06	0.681
605.26	0.678
605.45	0.679
605.64	0.678
605.84	0.674
606.03	0.673
606.22	0.673
606.42	0.672
606.61	0.668
606.80	0.669
607.00	0.672
607.19	0.672
607.38	0.670
607.58	0.672
607.77	0.675
607.96	0.675
608.16	0.673
608.35	0.678
608.54	0.682
608.74	0.685
608.93	0.689
609.12	0.691
609.32	0.694
609.51	0.698
609.70	0.696
609.90	0.698
610.09	0.704
610.28	0.709
610.48	0.701
610.67	0.702
610.86	0.704
611.06	0.698
611.25	0.696
611.44	0.696
611.64	0.695
611.83	0.698
612.02	0.693
612.21	0.692
612.41	0.691
612.60	0.690
612.79	0.686
612.99	0.686
613.18	0.688
613.37	0.686
613.57	0.682
613.76	0.685
613.95	0.683
614.14	0.684
614.34	0.680
614.53	0.681
614.72	0.686
614.92	0.685
615.11	0.682
615.30	0.680
615.49	0.682
615.69	0.685
615.88	0.681
616.07	0.683
616.26	0.686
616.46	0.688
616.65	0.684
616.84	0.682
617.04	0.685
617.23	0.689
617.42	0.689
617.61	0.693
617.81	0.693
618.00	0.695
618.19	0.692
618.38	0.696
618.58	0.700
618.77	0.701
618.96	0.699
619.15	0.701
619.35	0.703
619.54	0.704
619.73	0.699
619.92	0.701
620.12	0.705
620.31	0.705
620.50	0.699
620.69	0.699
620.89	0.703
621.08	0.703
621.27	0.702
621.46	0.701
621.66	0.705
621.85	0.705
622.04	0.702
622.23	0.703
622.43	0.705
622.62	0.705
622.81	0.703
623.00	0.703
623.19	0.707
623.39	0.706
623.58	0.703
623.77	0.702
623.96	0.705
624.16	0.704
624.35	0.698
624.54	0.701
624.73	0.706
624.92	0.704
625.12	0.701
625.31	0.702
625.50	0.706
625.69	0.707
625.88	0.702
626.08	0.702
626.27	0.705
626.46	0.706
626.65	0.703
626.84	0.703
627.04	0.710
627.23	0.709
627.42	0.704
627.61	0.706
627.80	0.710
628.00	0.711
628.19	0.709
628.38	0.712
628.57	0.715
628.76	0.714
628.96	0.709
629.15	0.709
629.34	0.713
629.53	0.714
629.72	0.706
629.91	0.707
630.11	0.713
630.30	0.714
630.49	0.716
630.68	0.717
630.87	0.721
631.06	0.724
631.26	0.718
631.45	0.721
631.64	0.729
631.83	0.732
632.02	0.728
632.21	0.726
632.41	0.735
632.60	0.728
632.79	0.726
632.98	0.726
633.17	0.727
633.36	0.730
633.55	0.724
633.75	0.721
633.94	0.724
634.13	0.725
634.32	0.721
634.51	0.714
634.70	0.718
634.89	0.718
635.09	0.714
635.28	0.715
635.47	0.717
635.66	0.720
635.85	0.715
636.04	0.716
636.23	0.721
636.43	0.723
636.62	0.722
636.81	0.721
637.00	0.724
637.19	0.727
637.38	0.722
637.57	0.722
637.76	0.726
637.95	0.726
638.15	0.722
638.34	0.719
638.53	0.724
638.72	0.725
638.91	0.722
639.10	0.719
639.29	0.720
639.48	0.721
639.67	0.720
639.87	0.717
640.06	0.723
640.25	0.722
640.44	0.721
640.63	0.720
640.82	0.724
641.01	0.723
641.20	0.722
641.39	0.724
641.58	0.727
641.78	0.726
641.97	0.721
642.16	0.736
642.35	0.738
642.54	0.737
642.73	0.731
642.92	0.730
643.11	0.736
643.30	0.735
643.49	0.730
643.68	0.733
643.87	0.736
644.06	0.737
644.25	0.715
644.45	0.718
644.64	0.721
644.83	0.722
645.02	0.716
645.21	0.715
645.40	0.719
645.59	0.718
645.78	0.711
645.97	0.714
646.16	0.715
646.35	0.715
646.54	0.712
646.73	0.712
646.92	0.714
647.11	0.714
647.30	0.709
647.49	0.709
647.68	0.710
647.88	0.708
648.07	0.699
648.26	0.702
648.45	0.705
648.64	0.700
648.83	0.697
649.02	0.699
649.21	0.711
649.40	0.709
649.59	0.703
649.78	0.704
649.97	0.721
650.16	0.722
650.35	0.715
650.54	0.717
650.73	0.727
650.92	0.724
651.11	0.717
651.30	0.714
651.49	0.720
651.68	0.721
651.87	0.716
652.06	0.705
652.25	0.709
652.44	0.710
652.63	0.704
652.82	0.702
653.01	0.701
653.20	0.698
653.39	0.686
653.58	0.683
653.77	0.682
653.96	0.677
654.15	0.668
654.34	0.666
654.53	0.663
654.72	0.658
654.91	0.649
655.10	0.646
655.29	0.645
655.48	0.643
655.67	0.638
655.86	0.636
656.05	0.634
656.24	0.634
656.43	0.629
656.62	0.628
656.81	0.630
657.00	0.629
657.19	0.627
657.38	0.628
657.57	0.628
657.76	0.631
657.95	0.629
658.14	0.634
658.33	0.638
658.51	0.644
658.70	0.644
658.89	0.645
659.08	0.653
659.27	0.661
659.46	0.660
659.65	0.667
659.84	0.671
660.03	0.674
660.22	0.673
660.41	0.678
660.60	0.677
660.79	0.678
660.98	0.684
661.17	0.683
661.36	0.682
661.55	0.683
661.74	0.679
661.92	0.682
662.11	0.685
662.30	0.683
662.49	0.675
662.68	0.675
662.87	0.679
663.06	0.673
663.25	0.672
663.44	0.673
663.63	0.674
663.82	0.673
664.01	0.666
664.20	0.665
664.38	0.667
664.57	0.668
664.76	0.668
664.95	0.667
665.14	0.673
665.33	0.668
665.52	0.675
665.71	0.679
665.90	0.678
666.09	0.680
666.28	0.677
666.46	0.676
666.65	0.677
666.84	0.675
667.03	0.669
667.22	0.666
667.41	0.670
667.60	0.659
667.79	0.652
667.98	0.654
668.16	0.656
668.35	0.655
668.54	0.651
668.73	0.651
668.92	0.652
669.11	0.651
669.30	0.644
669.49	0.641
669.67	0.643
669.86	0.645
670.05	0.642
670.24	0.640
670.43	0.638
670.62	0.637
670.81	0.631
671.00	0.633
671.18	0.634
671.37	0.634
671.56	0.631
671.75	0.631
671.94	0.629
672.13	0.627
672.32	0.622
672.50	0.622
672.69	0.622
672.88	0.623
673.07	0.617
673.26	0.619
673.45	0.620
673.63	0.620
673.82	0.615
674.01	0.617
674.20	0.617
674.39	0.616
674.58	0.615
674.76	0.615
674.95	0.614
675.14	0.614
675.33	0.609
675.52	0.608
675.71	0.608
675.89	0.607
676.08	0.602
676.27	0.602
676.46	0.603
676.65	0.602
676.84	0.600
677.02	0.602
677.21	0.605
677.40	0.604
677.59	0.601
677.78	0.602
677.96	0.605
678.15	0.605
678.34	0.602
678.53	0.603
678.72	0.604
678.90	0.601
679.09	0.596
679.28	0.593
679.47	0.594
679.66	0.593
679.84	0.589
680.03	0.587
680.22	0.587
680.41	0.588
680.60	0.584
680.78	0.584
680.97	0.587
681.16	0.587
681.35	0.586
681.53	0.584
681.72	0.587
681.91	0.589
682.10	0.586
682.29	0.589
682.47	0.587
682.66	0.586
682.85	0.584
683.04	0.582
683.22	0.582
683.41	0.583
683.60	0.582
683.79	0.583
683.97	0.582
684.16	0.581
684.35	0.577
684.54	0.579
684.72	0.579
684.91	0.580
685.10	0.578
685.29	0.579
685.47	0.577
685.66	0.576
685.85	0.572
686.04	0.571
686.22	0.573
686.41	0.575
686.60	0.572
686.79	0.574
686.97	0.577
687.16	0.578
687.35	0.575
687.54	0.579
687.72	0.583
687.91	0.583
688.10	0.584
688.29	0.584
688.47	0.583
688.66	0.582
688.85	0.578
689.03	0.575
689.22	0.579
689.41	0.580
689.60	0.574
689.78	0.571
689.97	0.572
690.16	0.569
690.34	0.565
690.53	0.565
690.72	0.566
690.91	0.564
691.09	0.562
691.28	0.556
691.47	0.555
691.65	0.554
691.84	0.551
692.03	0.550
692.21	0.549
692.40	0.549
692.59	0.546
692.77	0.545
692.96	0.547
693.15	0.547
693.34	0.544
693.52	0.544
693.71	0.544
693.90	0.545
694.08	0.546
694.27	0.547
694.46	0.557
694.64	0.558
694.83	0.557
695.02	0.555
695.20	0.555
695.39	0.556
695.58	0.555
695.76	0.556
695.95	0.557
696.14	0.555
696.32	0.553
696.51	0.543
696.70	0.543
696.88	0.544
697.07	0.542
697.26	0.543
697.44	0.545
697.63	0.544
697.81	0.541
698.00	0.541
698.19	0.540
698.37	0.541
698.56	0.540
698.75	0.541
698.93	0.541
699.12	0.542
699.31	0.540
699.49	0.540
699.68	0.541
699.87	0.543
700.05	0.542
700.24	0.541
700.42	0.543
700.61	0.542
700.80	0.539
700.98	0.539
701.17	0.540
701.36	0.539
701.54	0.538
701.73	0.539
701.91	0.538
702.10	0.537
702.29	0.534
702.47	0.534
702.66	0.535
702.84	0.536
703.03	0.534
703.22	0.536
703.40	0.536
703.59	0.538
703.77	0.536
703.96	0.536
704.15	0.538
704.33	0.538
704.52	0.536
704.70	0.536
704.89	0.536
705.08	0.535
705.26	0.530
705.45	0.531
705.63	0.531
705.82	0.528
706.00	0.526
706.19	0.525
706.38	0.525
706.56	0.524
706.75	0.522
706.93	0.521
707.12	0.522
707.30	0.523
707.49	0.521
707.68	0.518
707.86	0.518
708.05	0.518
708.23	0.516
708.42	0.517
708.60	0.520
708.79	0.521
708.98	0.519
709.16	0.519
709.35	0.521
709.53	0.525
709.72	0.523
709.90	0.525
710.09	0.528
710.27	0.530
710.46	0.533
710.64	0.531
710.83	0.532
711.02	0.534
711.20	0.532
711.39	0.530
711.57	0.527
711.76	0.528
711.94	0.525
712.13	0.525
712.31	0.525
712.50	0.521
712.68	0.517
712.87	0.518
713.05	0.518
713.24	0.519
713.42	0.517
713.61	0.518
713.79	0.520
713.98	0.520
714.16	0.521
714.35	0.521
714.54	0.522
714.72	0.523
714.91	0.520
715.09	0.526
715.28	0.531
715.46	0.531
715.65	0.528
715.83	0.528
716.02	0.531
716.20	0.526
716.39	0.525
716.57	0.526
716.76	0.529
716.94	0.530
717.12	0.522
717.31	0.522
717.49	0.525
717.68	0.528
717.86	0.527
718.05	0.528
718.23	0.532
718.42	0.534
718.60	0.535
718.79	0.543
718.97	0.546
719.16	0.546
719.34	0.543
719.53	0.543
719.71	0.543
719.90	0.545
720.08	0.543
720.27	0.543
720.45	0.543
720.63	0.542
720.82	0.535
721.00	0.539
721.19	0.542
721.37	0.542
721.56	0.541
721.74	0.544
721.93	0.553
722.11	0.558
722.30	0.557
722.48	0.562
722.66	0.564
722.85	0.562
723.03	0.561
723.22	0.560
723.40	0.564
723.59	0.563
723.77	0.566
723.95	0.560
724.14	0.563
724.32	0.564
724.51	0.563
724.69	0.564
724.88	0.566
725.06	0.564
725.24	0.564
725.43	0.565
725.61	0.568
725.80	0.563
725.98	0.560
726.16	0.556
726.35	0.563
726.53	0.563
726.72	0.560
726.90	0.571
727.09	0.572
727.27	0.579
727.45	0.576
727.64	0.585
727.82	0.595
728.01	0.600
728.19	0.598
728.37	0.603
728.56	0.608
728.74	0.614
728.92	0.601
729.11	0.604
729.29	0.604
729.48	0.608
729.66	0.596
729.84	0.595
730.03	0.599
730.21	0.600
730.40	0.588
730.58	0.589
730.76	0.592
730.95	0.594
731.13	0.591
731.31	0.605
731.50	0.615
731.68	0.619
731.86	0.612
732.05	0.627
732.23	0.633
732.42	0.637
732.60	0.640
732.78	0.644
732.97	0.665
733.15	0.673
733.33	0.658
733.52	0.666
733.70	0.679
733.88	0.690
734.07	0.673
734.25	0.699
734.43	0.709
734.62	0.711
734.80	0.703
734.98	0.692
735.17	0.702
735.35	0.710
735.53	0.697
735.72	0.701
735.90	0.728
736.08	0.748
736.27	0.724
736.45	0.735
736.63	0.752
736.82	0.764
737.00	0.763
737.18	0.775
737.37	0.812
737.55	0.836
737.73	0.826
737.92	0.826
738.10	0.824
738.28	0.844
738.46	0.826
738.65	0.839
738.83	0.865
739.01	0.923
739.20	0.907
739.38	0.891
739.56	0.887
739.75	0.895
739.93	0.857
740.11	0.888
740.29	0.900
740.48	0.908
740.66	0.881
740.84	0.876
741.03	0.844
741.21	0.858
741.39	0.833
741.57	0.845
741.76	0.862
741.94	0.872
742.12	0.827
742.31	0.834
742.49	0.864
742.67	0.887
742.85	0.898
743.04	0.900
743.22	0.913
743.40	0.975
743.58	0.946
743.77	0.968
743.95	1.016
744.13	1.079
744.31	1.044
744.50	1.034
744.68	1.049
744.86	1.024
745.04	1.041
745.23	1.129
745.41	1.112
745.59	1.127
745.77	1.075
745.96	1.052
746.14	1.073
746.32	1.070
746.50	1.056
746.69	1.033
746.87	1.055
747.05	1.030
747.23	0.933
747.42	0.918
747.60	0.955
747.78	0.959
747.96	0.992
748.14	0.931
748.33	0.968
748.51	0.962
748.69	0.948
748.87	0.978
749.06	0.982
749.24	0.982
749.42	0.957
749.60	0.936
749.78	0.956
749.97	0.902
750.15	0.897
750.33	0.903
750.51	0.940
750.69	0.944
750.88	0.941
751.06	0.950
751.24	0.988
751.42	0.978
751.60	0.960
751.79	1.049
751.97	1.120
752.15	1.117
752.33	1.060
752.51	1.141
752.69	1.177
752.88	1.134
753.06	1.185
753.24	1.153
753.42	1.207
753.60	1.473
753.78	1.226
753.97	1.235
754.15	1.261
754.33	1.312
754.51	1.124
754.69	1.104
754.87	1.148
755.06	1.062
755.24	1.058
755.42	1.068
755.60	0.955
755.78	0.962
755.96	0.900
756.15	0.903
756.33	0.907
756.51	0.929
756.69	0.905
756.87	0.864
757.05	0.887
757.23	0.865
757.42	0.823
757.60	0.820
757.78	0.812
757.96	0.810
758.14	0.788
758.32	0.775
758.50	0.794
758.69	0.793
758.87	0.784
759.05	0.789
759.23	0.805
759.41	0.812
759.59	0.799
759.77	0.823
759.95	0.858
760.13	0.919
760.32	0.912
760.50	0.904
760.68	0.939
760.86	0.940
761.04	0.904
761.22	0.906
761.40	0.961
761.58	0.966
761.76	0.928
761.95	0.904
762.13	0.854
762.31	0.857
762.49	0.818
762.67	0.836
762.85	0.855
763.03	0.846
763.21	0.821
763.39	0.800
763.57	0.807
763.75	0.802
763.94	0.785
764.12	0.783
764.30	0.813
764.48	0.820
764.66	0.777
764.84	0.774
765.02	0.821
765.20	0.831
765.38	0.809
765.56	0.813
765.74	0.861
765.92	0.864
766.10	0.875
766.28	0.866
766.46	0.897
766.65	0.899
766.83	0.878
767.01	0.859
767.19	0.868
767.37	0.868
767.55	0.851
767.73	0.829
767.91	0.836
768.09	0.821
768.27	0.804
768.45	0.795
768.63	0.804
768.81	0.807
768.99	0.778
769.17	0.805
769.35	0.824
769.53	0.822
769.71	0.800
769.89	0.809
770.07	0.818
770.25	0.800
770.43	0.775
770.61	0.801
770.79	0.812
770.97	0.823
771.15	0.782
771.33	0.785
771.51	0.793
771.69	0.802
771.87	0.808
772.05	0.814
772.24	0.827
772.42	0.840
772.60	0.811
772.78	0.876
772.96	0.912
773.14	0.915
773.32	0.884
773.49	0.895
773.67	0.901
773.85	0.878
774.03	0.862
774.21	0.899
774.39	0.913
774.57	0.943
774.75	0.854
774.93	0.850
775.11	0.877
775.29	0.886
775.47	0.880
775.65	0.889
775.83	0.913
776.01	0.940
776.19	0.879
776.37	0.882
776.55	0.882
776.73	0.877
776.91	0.865
777.09	0.848
777.27	0.847
777.45	0.836
777.63	0.808
777.81	0.800
777.99	0.790
778.17	0.790
778.35	0.763
778.53	0.751
778.71	0.763
778.89	0.750
779.07	0.735
779.24	0.743
779.42	0.745
779.60	0.764
779.78	0.760
779.96	0.768
780.14	0.780
780.32	0.801
780.50	0.782
780.68	0.781
780.86	0.775
781.04	0.794
781.22	0.796
781.40	0.810
781.58	0.804
781.75	0.796
781.93	0.772
782.11	0.770
782.29	0.757
782.47	0.753
782.65	0.740
782.83	0.771
783.01	0.767
783.19	0.758
783.37	0.739
783.55	0.741
783.72	0.762
783.90	0.772
784.08	0.760
784.26	0.774
784.44	0.801
784.62	0.803
784.80	0.762
784.98	0.767
785.16	0.775
785.33	0.790
785.51	0.770
785.69	0.755
785.87	0.758
786.05	0.771
786.23	0.761
786.41	0.758
786.59	0.765
786.77	0.764
786.94	0.748
787.12	0.752
787.30	0.757
787.48	0.757
787.66	0.744
787.84	0.745
788.02	0.737
788.19	0.734
788.37	0.718
788.55	0.721
788.73	0.724
788.91	0.719
789.09	0.699
789.27	0.687
789.44	0.699
789.62	0.704
789.80	0.712
789.98	0.737
790.16	0.724
790.34	0.720
790.51	0.702
790.69	0.722
790.87	0.732
791.05	0.729
791.23	0.719
791.41	0.720
791.58	0.733
791.76	0.708
791.94	0.673
792.12	0.685
792.30	0.688
792.48	0.686
792.65	0.679
792.83	0.684
793.01	0.694
793.19	0.692
793.37	0.675
793.54	0.671
793.72	0.685
793.90	0.685
794.08	0.673
794.26	0.677
794.43	0.689
794.61	0.671
794.79	0.659
794.97	0.658
795.15	0.667
795.32	0.670
795.50	0.655
795.68	0.649
795.86	0.654
796.04	0.653
796.21	0.643
796.39	0.642
796.57	0.658
796.75	0.667
796.92	0.665
797.10	0.670
797.28	0.673
797.46	0.678
797.64	0.680
797.81	0.690
797.99	0.697
798.17	0.702
798.35	0.694
798.52	0.697
798.70	0.694
798.88	0.702
799.06	0.701
799.23	0.705
799.41	0.716
799.59	0.708
799.77	0.692
799.94	0.702
800.12	0.715
800.30	0.732
800.48	0.729
800.65	0.726
800.83	0.718
801.01	0.708
801.19	0.706
801.36	0.701
801.54	0.706
801.72	0.718
801.90	0.700
802.07	0.695
802.25	0.684
802.43	0.667
802.60	0.663
802.78	0.670
802.96	0.678
803.14	0.671
803.31	0.668
803.49	0.668
803.67	0.666
803.84	0.671
804.02	0.658
804.20	0.660
804.38	0.668
804.55	0.665
804.73	0.648
804.91	0.649
805.08	0.664
805.26	0.659
805.44	0.721
805.61	0.723
805.79	0.724
805.97	0.723
806.15	0.713
806.32	0.708
806.50	0.718
806.68	0.718
806.85	0.708
807.03	0.696
807.21	0.719
807.38	0.653
807.56	0.640
807.74	0.652
807.91	0.662
808.09	0.664
808.27	0.681
808.44	0.709
808.62	0.719
808.80	0.717
808.97	0.712
809.15	0.703
809.33	0.723
809.50	0.730
809.68	0.712
809.86	0.720
810.03	0.757
810.21	0.736
810.39	0.715
810.56	0.724
810.74	0.753
810.91	0.834
811.09	0.819
811.27	0.844
811.44	0.852
811.62	0.856
811.80	0.835
811.97	0.799
812.15	0.800
812.33	0.793
812.50	0.771
812.68	0.759
812.85	0.700
813.03	0.703
813.21	0.667
813.38	0.662
813.56	0.666
813.74	0.675
813.91	0.680
814.09	0.713
814.26	0.711
814.44	0.717
814.62	0.704
814.79	0.708
814.97	0.715
815.14	0.721
815.32	0.720
815.50	0.738
815.67	0.744
815.85	0.735
816.02	0.722
816.20	0.729
816.38	0.747
816.55	0.755
816.73	0.753
816.90	0.766
817.08	0.803
817.26	0.810
817.43	0.785
817.61	0.816
817.78	0.842
817.96	0.814
818.13	0.799
818.31	0.801
818.49	0.816
818.66	0.802
818.84	0.784
819.01	0.759
819.19	0.772
819.36	0.773
819.54	0.738
819.71	0.785
819.89	0.806
820.07	0.822
820.24	0.810
820.42	0.812
820.59	0.841
820.77	0.869
820.94	0.857
821.12	0.877
821.29	0.902
821.47	0.900
821.64	0.820
821.82	0.840
822.00	0.840
822.17	0.836
822.35	0.824
822.52	0.826
822.70	0.814
822.87	0.824
823.05	0.796
823.22	0.808
823.40	0.843
823.57	0.873
823.75	0.843
823.92	0.874
824.10	0.905
824.27	0.955
824.45	0.935
824.62	1.015
824.80	1.048
824.97	1.064
825.15	1.047
825.32	1.064
825.50	1.068
825.67	1.088
825.85	1.052
826.02	1.079
826.20	1.126
826.37	1.327
826.55	1.189
826.72	1.537
826.90	1.832
827.07	2.138
827.25	1.832
827.42	-0.000
827.60	-0.000
827.77	-0.000
827.95	-0.000
828.12	-0.000
828.30	-0.000
828.47	-0.000
828.65	2.044
828.82	3.724
829.00	-0.000
829.17	-0.000
829.34	-0.000
829.52	-0.000
829.69	-0.000
829.87	-0.000
830.04	-0.000
830.22	-0.000
830.39	-0.000
830.57	-0.000
830.74	-0.000
830.92	-0.000
831.09	-0.000
831.26	-0.000
831.44	-0.000
831.61	-0.000
831.79	-0.000
831.96	-0.000
832.14	-0.000
832.31	-0.000
832.49	-0.000
832.66	-0.000
832.83	-0.000
833.01	-0.000
833.18	-0.000
833.36	-0.000
833.53	-0.000
833.70	-0.000
833.88	-0.000
834.05	-0.000
834.23	-0.000
834.40	-0.000
834.58	-0.000
834.75	-0.000
834.92	-0.000
835.10	-0.000
835.27	-0.000
835.45	-0.000
835.62	-0.000
835.79	-0.000
835.97	-0.000
836.14	-0.000
836.32	-0.000
836.49	-0.000
836.66	-0.000
836.84	-0.000
837.01	-0.000
837.18	-0.000
837.36	-0.000
837.53	-0.000
837.71	-0.000
837.88	-0.000
838.05	-0.000
838.23	-0.000
838.40	-0.000
838.58	-0.000
838.75	-0.000
838.92	-0.000
839.10	-0.000
839.27	-0.000
839.44	-0.000
839.62	-0.000
839.79	-0.000
839.96	-0.000
840.14	-0.000
840.31	-0.000
840.48	-0.000
840.66	-0.000
840.83	-0.000
841.01	-0.000
841.18	-0.000
841.35	-0.000
841.53	-0.000
841.70	-0.000
841.87	-0.000
842.05	-0.000
842.22	-0.000
842.39	-0.000
842.57	-0.000
842.74	-0.000
842.91	-0.000
843.09	-0.000
843.26	-0.000
843.43	-0.000
843.60	-0.000
843.78	-0.000
843.95	-0.000
844.12	-0.000
844.30	-0.000
844.47	-0.000
844.64	-0.000
844.82	-0.000
844.99	-0.000
845.16	-0.000
845.34	-0.000
845.51	-0.000
845.68	-0.000
845.85	-0.000
846.03	-0.000
846.20	-0.000
846.37	-0.000
846.55	-0.000
846.72	-0.000
846.89	-0.000
847.06	-0.000
847.24	-0.000
847.41	-0.000
847.58	-0.000
847.76	-0.000
847.93	-0.000
848.10	-0.000
848.27	-0.000
848.45	-0.000
848.62	-0.000
848.79	-0.000
848.97	-0.000
849.14	-0.000
849.31	-0.000
849.48	-0.000
849.66	-0.000
849.83	-0.000
850.00	-0.000
850.17	-0.000
850.35	-0.000
850.52	-0.000
850.69	-0.000
850.86	-0.000
851.04	-0.000
851.21	-0.000
851.38	-0.000
851.55	-0.000
851.72	-0.000
851.90	-0.000
852.07	-0.000
852.24	-0.000
852.41	-0.000
852.59	-0.000
852.76	-0.000
852.93	-0.000
853.10	-0.000
853.28	-0.000
853.45	-0.000
853.62	-0.000
853.79	-0.000
853.96	-0.000
854.14	-0.000
854.31	-0.000
854.48	-0.000
854.65	-0.000
854.82	-0.000
855.00	-0.000
855.17	-0.000
855.34	-0.000
855.51	-0.000
855.68	-0.000
855.86	-0.000
856.03	-0.000
856.20	-0.000
856.37	-0.000
856.54	-0.000
856.72	-0.000
856.89	-0.000
857.06	-0.000
857.23	-0.000
857.40	-0.000
857.57	-0.000
857.75	-0.000
857.92	-0.000
858.09	-0.000
858.26	-0.000
858.43	-0.000
858.60	-0.000
858.78	-0.000
858.95	-0.000
859.12	-0.000
859.29	-0.000
859.46	-0.000
859.63	-0.000
859.81	-0.000
859.98	-0.000
860.15	-0.000
860.32	-0.000
860.49	-0.000
860.66	-0.000
860.83	-0.000
861.01	-0.000
861.18	-0.000
861.35	-0.000
861.52	-0.000
861.69	-0.000
861.86	-0.000
862.03	-0.000
862.21	-0.000
862.38	-0.000
862.55	-0.000
862.72	-0.000
862.89	-0.000
863.06	-0.000
863.23	-0.000
863.40	-0.000
863.58	-0.000
863.75	-0.000
863.92	-0.000
864.09	-0.000
864.26	-0.000
864.43	-0.000
864.60	-0.000
864.77	-0.000
864.94	-0.000
865.11	-0.000
865.29	-0.000
865.46	-0.000
865.63	-0.000
865.80	-0.000
865.97	-0.000
866.14	-0.000
866.31	-0.000
866.48	-0.000
866.65	-0.000
866.82	-0.000
866.99	-0.000
867.16	-0.000
867.34	-0.000
867.51	-0.000
867.68	-0.000
867.85	-0.000
868.02	-0.000
868.19	-0.000
868.36	-0.000
868.53	-0.000
868.70	-0.000
868.87	-0.000
869.04	-0.000
869.21	-0.000
869.38	-0.000
869.55	-0.000
869.72	-0.000
869.89	-0.000
870.06	-0.000
870.24	-0.000
870.41	-0.000
870.58	-0.000
870.75	-0.000
870.92	-0.000
871.09	-0.000
871.26	-0.000
871.43	-0.000
871.60	-0.000
871.77	-0.000
871.94	-0.000
872.11	-0.000
872.28	-0.000
872.45	-0.000
872.62	-0.000
872.79	-0.000
872.96	-0.000
873.13	-0.000
873.30	-0.000
873.47	-0.000
873.64	-0.000
873.81	-0.000
873.98	-0.000
874.15	-0.000
874.32	-0.000
874.49	-0.000
874.66	-0.000
874.83	-0.000
875.00	-0.000
875.17	-0.000
875.34	-0.000
875.51	-0.000
875.68	-0.000
875.85	-0.000
876.02	-0.000
876.19	-0.000
876.36	-0.000
876.53	-0.000
876.70	-0.000
876.87	-0.000
877.04	-0.000
877.21	-0.000
877.38	-0.000
877.55	-0.000
877.72	-0.000
877.89	-0.000
878.06	-0.000
878.23	-0.000
878.39	-0.000
878.56	-0.000
878.73	-0.000
878.90	-0.000
879.07	-0.000
879.24	-0.000
879.41	-0.000
879.58	-0.000
879.75	-0.000
879.92	-0.000
880.09	-0.000
880.26	-0.000
880.43	-0.000
880.60	-0.000
880.77	-0.000
880.94	-0.000
881.11	-0.000
881.27	-0.000
881.44	-0.000
881.61	-0.000
881.78	-0.000
881.95	-0.000
882.12	-0.000
882.29	-0.000
882.46	-0.000
882.63	-0.000
882.80	-0.000
882.97	-0.000
883.14	-0.000
883.30	-0.000
883.47	-0.000
883.64	-0.000
883.81	-0.000
883.98	-0.000
884.15	-0.000
884.32	-0.000
884.49	-0.000
884.66	-0.000
884.82	-0.000
884.99	-0.000
885.16	-0.000
885.33	-0.000
885.50	-0.000
885.67	-0.000
885.84	-0.000
886.01	-0.000
886.17	-0.000
886.34	-0.000
886.51	-0.000
886.68	-0.000
886.85	-0.000
887.02	-0.000
887.19	-0.000
887.36	-0.000
887.52	-0.000
887.69	-0.000
887.86	-0.000
888.03	-0.000
888.20	-0.000
888.37	-0.000
888.54	-0.000
888.70	-0.000
888.87	-0.000
889.04	-0.000
889.21	-0.000
889.38	-0.000
889.55	-0.000
889.71	-0.000
889.88	-0.000
890.05	-0.000
890.22	-0.000
890.39	-0.000
>>>>>End Processed Spectral Data<<<<<
