SpectraSuite Data File
++++++++++++++++++++++++++++++++++++
Date: Fri Jun 19 13:36:11 CEST 2015
User: introlabs
Dark Spectrum Present: Yes
Reference Spectrum Present: Yes
Number of Sampled Component Spectra: 1
Spectrometers: USB4H08886
Integration Time (usec): 745692 (USB4H08886)
Spectra Averaged: 5 (USB4H08886)
Boxcar Smoothing: 5 (USB4H08886)
Correct for Electrical Dark: Yes (USB4H08886)
Strobe/Lamp Enabled: No (USB4H08886)
Correct for Detector Non-linearity: Yes (USB4H08886)
Correct for Stray Light: Yes (USB4H08886)
Number of Pixels in Processed Spectrum: 3648
>>>>>Begin Processed Spectral Data<<<<<
178.14	-0.000
178.36	-0.000
178.57	-0.000
178.79	-0.000
179.01	-0.000
179.22	-0.000
179.44	-0.000
179.65	-0.000
179.87	-0.000
180.08	-0.000
180.30	-0.000
180.52	-0.000
180.73	-0.000
180.95	-0.000
181.16	-0.000
181.38	-0.000
181.59	-0.000
181.81	-0.000
182.03	-0.000
182.24	-0.000
182.46	-0.000
182.67	-0.000
182.89	-0.000
183.10	-0.000
183.32	-0.000
183.54	-0.000
183.75	-0.000
183.97	-0.000
184.18	-0.000
184.40	-0.000
184.61	-0.000
184.83	-0.000
185.04	-0.000
185.26	-0.000
185.48	-0.000
185.69	-0.000
185.91	-0.000
186.12	-0.000
186.34	-0.000
186.55	-0.000
186.77	-0.000
186.98	-0.000
187.20	-0.000
187.42	-0.000
187.63	-0.000
187.85	-0.000
188.06	-0.000
188.28	-0.000
188.49	-0.000
188.71	-0.000
188.92	-0.000
189.14	-0.000
189.36	-0.000
189.57	-0.000
189.79	-0.000
190.00	-0.000
190.22	-0.000
190.43	-0.000
190.65	-0.000
190.86	-0.000
191.08	-0.000
191.29	-0.000
191.51	-0.000
191.72	-0.000
191.94	-0.000
192.16	-0.000
192.37	-0.000
192.59	-0.000
192.80	-0.000
193.02	-0.000
193.23	-0.000
193.45	-0.000
193.66	-0.000
193.88	-0.000
194.09	-0.000
194.31	-0.000
194.52	-0.000
194.74	-0.000
194.95	-0.000
195.17	-0.000
195.38	-0.000
195.60	-0.000
195.81	-0.000
196.03	-0.000
196.25	-0.000
196.46	-0.000
196.68	-0.000
196.89	-0.000
197.11	-0.000
197.32	-0.000
197.54	-0.000
197.75	-0.000
197.97	-0.000
198.18	-0.000
198.40	-0.000
198.61	-0.000
198.83	-0.000
199.04	-0.000
199.26	-0.000
199.47	-0.000
199.69	-0.000
199.90	-0.000
200.12	-0.000
200.33	-0.000
200.55	-0.000
200.76	-0.000
200.98	-0.000
201.19	-0.000
201.41	-0.000
201.62	-0.000
201.84	-0.000
202.05	-0.000
202.27	-0.000
202.48	-0.000
202.70	-0.000
202.91	-0.000
203.13	-0.000
203.34	-0.000
203.56	-0.000
203.77	-0.000
203.99	-0.000
204.20	-0.000
204.42	-0.000
204.63	-0.000
204.85	-0.000
205.06	-0.000
205.28	-0.000
205.49	-0.000
205.71	-0.000
205.92	-0.000
206.14	-0.000
206.35	-0.000
206.56	-0.000
206.78	-0.000
206.99	-0.000
207.21	-0.000
207.42	-0.000
207.64	-0.000
207.85	-0.000
208.07	-0.000
208.28	-0.000
208.50	-0.000
208.71	-0.000
208.93	-0.000
209.14	-0.000
209.36	-0.000
209.57	-0.000
209.79	-0.000
210.00	-0.000
210.22	-0.000
210.43	-0.000
210.64	-0.000
210.86	-0.000
211.07	-0.000
211.29	-0.000
211.50	-0.000
211.72	-0.000
211.93	-0.000
212.15	-0.000
212.36	-0.000
212.58	-0.000
212.79	-0.000
213.01	-0.000
213.22	-0.000
213.43	-0.000
213.65	-0.000
213.86	-0.000
214.08	-0.000
214.29	-0.000
214.51	-0.000
214.72	-0.000
214.94	-0.000
215.15	-0.000
215.36	-0.000
215.58	-0.000
215.79	-0.000
216.01	-0.000
216.22	-0.000
216.44	-0.000
216.65	-0.000
216.87	-0.000
217.08	-0.000
217.29	-0.000
217.51	-0.000
217.72	-0.000
217.94	-0.000
218.15	-0.000
218.37	-0.000
218.58	-0.000
218.80	-0.000
219.01	-0.000
219.22	-0.000
219.44	-0.000
219.65	-0.000
219.87	-0.000
220.08	-0.000
220.30	-0.000
220.51	-0.000
220.72	-0.000
220.94	-0.000
221.15	-0.000
221.37	-0.000
221.58	-0.000
221.79	-0.000
222.01	-0.000
222.22	-0.000
222.44	-0.000
222.65	-0.000
222.87	-0.000
223.08	-0.000
223.29	-0.000
223.51	-0.000
223.72	-0.000
223.94	-0.000
224.15	-0.000
224.36	-0.000
224.58	-0.000
224.79	-0.000
225.01	-0.000
225.22	-0.000
225.44	-0.000
225.65	-0.000
225.86	-0.000
226.08	-0.000
226.29	-0.000
226.51	-0.000
226.72	-0.000
226.93	-0.000
227.15	-0.000
227.36	-0.000
227.58	-0.000
227.79	-0.000
228.00	-0.000
228.22	-0.000
228.43	-0.000
228.65	-0.000
228.86	-0.000
229.07	-0.000
229.29	-0.000
229.50	-0.000
229.72	-0.000
229.93	-0.000
230.14	-0.000
230.36	-0.000
230.57	-0.000
230.78	-0.000
231.00	-0.000
231.21	-0.000
231.43	-0.000
231.64	-0.000
231.85	-0.000
232.07	-0.000
232.28	-0.000
232.50	-0.000
232.71	-0.000
232.92	-0.000
233.14	-0.000
233.35	-0.000
233.56	-0.000
233.78	-0.000
233.99	-0.000
234.21	-0.000
234.42	-0.000
234.63	-0.000
234.85	-0.000
235.06	-0.000
235.27	-0.000
235.49	-0.000
235.70	-0.000
235.91	-0.000
236.13	-0.000
236.34	-0.000
236.56	-0.000
236.77	-0.000
236.98	-0.000
237.20	-0.000
237.41	-0.000
237.62	-0.000
237.84	-0.000
238.05	-0.000
238.26	-0.000
238.48	-0.000
238.69	-0.000
238.91	-0.000
239.12	-0.000
239.33	-0.000
239.55	-0.000
239.76	-0.000
239.97	-0.000
240.19	-0.000
240.40	-0.000
240.61	-0.000
240.83	-0.000
241.04	-0.000
241.25	-0.000
241.47	-0.000
241.68	-0.000
241.89	-0.000
242.11	-0.000
242.32	-0.000
242.53	-0.000
242.75	-0.000
242.96	-0.000
243.17	-0.000
243.39	-0.000
243.60	-0.000
243.81	-0.000
244.03	-0.000
244.24	-0.000
244.45	-0.000
244.67	-0.000
244.88	-0.000
245.09	-0.000
245.31	-0.000
245.52	-0.000
245.73	-0.000
245.95	-0.000
246.16	-0.000
246.37	-0.000
246.59	-0.000
246.80	-0.000
247.01	-0.000
247.23	-0.000
247.44	-0.000
247.65	-0.000
247.87	-0.000
248.08	-0.000
248.29	-0.000
248.51	-0.000
248.72	-0.000
248.93	-0.000
249.15	-0.000
249.36	-0.000
249.57	-0.000
249.78	-0.000
250.00	-0.000
250.21	-0.000
250.42	-0.000
250.64	-0.000
250.85	-0.000
251.06	-0.000
251.28	-0.000
251.49	-0.000
251.70	-0.000
251.92	-0.000
252.13	-0.000
252.34	-0.000
252.55	-0.000
252.77	-0.000
252.98	-0.000
253.19	-0.000
253.41	-0.000
253.62	-0.000
253.83	-0.000
254.05	-0.000
254.26	-0.000
254.47	-0.000
254.68	-0.000
254.90	-0.000
255.11	-0.000
255.32	-0.000
255.54	-0.000
255.75	-0.000
255.96	-0.000
256.17	-0.000
256.39	-0.000
256.60	-0.000
256.81	-0.000
257.03	-0.000
257.24	-0.000
257.45	-0.000
257.66	-0.000
257.88	-0.000
258.09	-0.000
258.30	-0.000
258.51	-0.000
258.73	-0.000
258.94	-0.000
259.15	-0.000
259.37	-0.000
259.58	-0.000
259.79	-0.000
260.00	-0.000
260.22	-0.000
260.43	-0.000
260.64	-0.000
260.85	-0.000
261.07	-0.000
261.28	-0.000
261.49	-0.000
261.71	-0.000
261.92	-0.000
262.13	-0.000
262.34	-0.000
262.56	-0.000
262.77	-0.000
262.98	-0.000
263.19	-0.000
263.41	-0.000
263.62	-0.000
263.83	-0.000
264.04	-0.000
264.26	-0.000
264.47	-0.000
264.68	-0.000
264.89	-0.000
265.11	-0.000
265.32	-0.000
265.53	-0.000
265.74	-0.000
265.96	-0.000
266.17	-0.000
266.38	-0.000
266.59	-0.000
266.81	-0.000
267.02	-0.000
267.23	-0.000
267.44	-0.000
267.65	-0.000
267.87	-0.000
268.08	-0.000
268.29	-0.000
268.50	-0.000
268.72	-0.000
268.93	-0.000
269.14	-0.000
269.35	-0.000
269.57	-0.000
269.78	-0.000
269.99	-0.000
270.20	-0.000
270.41	-0.000
270.63	-0.000
270.84	-0.000
271.05	-0.000
271.26	-0.000
271.48	-0.000
271.69	-0.000
271.90	-0.000
272.11	-0.000
272.32	-0.000
272.54	-0.000
272.75	-0.000
272.96	-0.000
273.17	-0.000
273.39	-0.000
273.60	-0.000
273.81	-0.000
274.02	-0.000
274.23	-0.000
274.45	-0.000
274.66	-0.000
274.87	-0.000
275.08	-0.000
275.29	-0.000
275.51	-0.000
275.72	-0.000
275.93	-0.000
276.14	-0.000
276.35	-0.000
276.57	-0.000
276.78	-0.000
276.99	-0.000
277.20	-0.000
277.41	-0.000
277.63	-0.000
277.84	-0.000
278.05	-0.000
278.26	-0.000
278.47	-0.000
278.69	-0.000
278.90	-0.000
279.11	-0.000
279.32	-0.000
279.53	-0.000
279.74	-0.000
279.96	-0.000
280.17	-0.000
280.38	-0.000
280.59	-0.000
280.80	-0.000
281.02	-0.000
281.23	-0.000
281.44	-0.000
281.65	-0.000
281.86	-0.000
282.07	-0.000
282.29	-0.000
282.50	-0.000
282.71	-0.000
282.92	-0.000
283.13	-0.000
283.35	-0.000
283.56	-0.000
283.77	-0.000
283.98	-0.000
284.19	-0.000
284.40	-0.000
284.62	-0.000
284.83	-0.000
285.04	-0.000
285.25	-0.000
285.46	-0.000
285.67	-0.000
285.88	-0.000
286.10	-0.000
286.31	-0.000
286.52	-0.000
286.73	-0.000
286.94	-0.000
287.15	-0.000
287.37	-0.000
287.58	-0.000
287.79	-0.000
288.00	-0.000
288.21	-0.000
288.42	-0.000
288.63	-0.000
288.85	-0.000
289.06	-0.000
289.27	-0.000
289.48	-0.000
289.69	-0.000
289.90	-0.000
290.11	-0.000
290.33	-0.000
290.54	-0.000
290.75	-0.000
290.96	-0.000
291.17	-0.000
291.38	-0.000
291.59	-0.000
291.81	-0.000
292.02	-0.000
292.23	-0.000
292.44	-0.000
292.65	-0.000
292.86	-0.000
293.07	-0.000
293.28	-0.000
293.50	-0.000
293.71	-0.000
293.92	-0.000
294.13	-0.000
294.34	-0.000
294.55	-0.000
294.76	-0.000
294.97	-0.000
295.19	-0.000
295.40	-0.000
295.61	-0.000
295.82	-0.000
296.03	-0.000
296.24	-0.000
296.45	-0.000
296.66	2.870
296.87	3.025
297.09	-0.000
297.30	-0.000
297.51	2.289
297.72	2.120
297.93	2.486
298.14	2.282
298.35	2.162
298.56	2.094
298.77	2.644
298.99	2.457
299.20	2.298
299.41	2.171
299.62	2.090
299.83	2.061
300.04	1.901
300.25	1.890
300.46	2.002
300.67	1.916
300.88	1.798
301.10	1.795
301.31	1.940
301.52	1.807
301.73	1.707
301.94	1.701
302.15	1.727
302.36	1.653
302.57	1.556
302.78	1.560
302.99	1.628
303.20	1.657
303.41	1.523
303.63	1.496
303.84	1.505
304.05	1.503
304.26	1.421
304.47	1.428
304.68	1.433
304.89	1.422
305.10	1.371
305.31	1.358
305.52	1.410
305.73	1.399
305.94	1.352
306.15	1.343
306.37	1.369
306.58	1.379
306.79	1.336
307.00	1.366
307.21	1.417
307.42	1.409
307.63	1.356
307.84	1.316
308.05	1.360
308.26	1.360
308.47	1.332
308.68	1.325
308.89	1.323
309.10	1.319
309.31	1.270
309.52	1.259
309.73	1.277
309.95	1.270
310.16	1.235
310.37	1.225
310.58	1.246
310.79	1.242
311.00	1.234
311.21	1.239
311.42	1.243
311.63	1.234
311.84	1.211
312.05	1.207
312.26	1.236
312.47	1.249
312.68	1.219
312.89	1.199
313.10	1.206
313.31	1.177
313.52	1.174
313.73	1.176
313.94	1.180
314.15	1.159
314.36	1.134
314.57	1.123
314.78	1.111
314.99	1.104
315.21	1.090
315.42	1.097
315.63	1.113
315.84	1.089
316.05	1.071
316.26	1.080
316.47	1.100
316.68	1.095
316.89	1.075
317.10	1.096
317.31	1.104
317.52	1.105
317.73	1.081
317.94	1.079
318.15	1.125
318.36	1.127
318.57	1.108
318.78	1.097
318.99	1.136
319.20	1.133
319.41	1.096
319.62	1.098
319.83	1.112
320.04	1.107
320.25	1.090
320.46	1.056
320.67	1.057
320.88	1.052
321.09	1.036
321.30	1.021
321.51	1.036
321.72	1.034
321.93	1.014
322.14	1.008
322.35	1.036
322.56	1.037
322.77	1.023
322.98	1.034
323.19	1.044
323.40	1.050
323.61	1.026
323.82	1.019
324.03	1.025
324.24	1.026
324.45	1.011
324.66	0.991
324.87	0.990
325.08	0.989
325.29	0.969
325.50	0.961
325.71	0.966
325.92	0.975
326.13	0.962
326.34	0.963
326.55	0.970
326.76	0.968
326.97	0.956
327.18	0.949
327.39	0.975
327.60	0.976
327.80	0.976
328.01	0.974
328.22	0.974
328.43	0.976
328.64	0.964
328.85	0.970
329.06	0.972
329.27	0.972
329.48	0.966
329.69	0.947
329.90	0.958
330.11	0.950
330.32	0.944
330.53	0.937
330.74	0.937
330.95	0.936
331.16	0.919
331.37	0.927
331.58	0.928
331.79	0.928
332.00	0.918
332.21	0.911
332.42	0.916
332.63	0.906
332.83	0.902
333.04	0.905
333.25	0.918
333.46	0.915
333.67	0.901
333.88	0.903
334.09	0.914
334.30	0.911
334.51	0.902
334.72	0.896
334.93	0.900
335.14	0.899
335.35	0.890
335.56	0.885
335.77	0.894
335.98	0.892
336.18	0.885
336.39	0.877
336.60	0.884
336.81	0.882
337.02	0.881
337.23	0.885
337.44	0.889
337.65	0.891
337.86	0.879
338.07	0.875
338.28	0.880
338.49	0.877
338.70	0.869
338.91	0.875
339.11	0.882
339.32	0.879
339.53	0.866
339.74	0.863
339.95	0.860
340.16	0.859
340.37	0.850
340.58	0.848
340.79	0.852
341.00	0.852
341.21	0.841
341.41	0.841
341.62	0.843
341.83	0.845
342.04	0.840
342.25	0.851
342.46	0.855
342.67	0.854
342.88	0.848
343.09	0.847
343.30	0.856
343.50	0.858
343.71	0.849
343.92	0.847
344.13	0.851
344.34	0.851
344.55	0.834
344.76	0.834
344.97	0.838
345.18	0.837
345.38	0.833
345.59	0.826
345.80	0.826
346.01	0.823
346.22	0.819
346.43	0.813
346.64	0.821
346.85	0.820
347.06	0.813
347.26	0.813
347.47	0.817
347.68	0.814
347.89	0.810
348.10	0.805
348.31	0.812
348.52	0.811
348.73	0.809
348.93	0.805
349.14	0.808
349.35	0.808
349.56	0.802
349.77	0.797
349.98	0.802
350.19	0.801
350.39	0.797
350.60	0.792
350.81	0.808
351.02	0.806
351.23	0.802
351.44	0.804
351.65	0.807
351.86	0.804
352.06	0.803
352.27	0.803
352.48	0.805
352.69	0.804
352.90	0.798
353.11	0.784
353.31	0.793
353.52	0.789
353.73	0.781
353.94	0.782
354.15	0.789
354.36	0.788
354.57	0.780
354.77	0.781
354.98	0.781
355.19	0.780
355.40	0.780
355.61	0.785
355.82	0.789
356.02	0.789
356.23	0.782
356.44	0.782
356.65	0.786
356.86	0.786
357.07	0.779
357.27	0.783
357.48	0.786
357.69	0.781
357.90	0.766
358.11	0.763
358.32	0.766
358.52	0.769
358.73	0.760
358.94	0.763
359.15	0.768
359.36	0.768
359.56	0.763
359.77	0.759
359.98	0.767
360.19	0.767
360.40	0.763
360.61	0.764
360.81	0.762
361.02	0.762
361.23	0.754
361.44	0.752
361.65	0.754
361.85	0.753
362.06	0.751
362.27	0.751
362.48	0.753
362.69	0.755
362.89	0.749
363.10	0.750
363.31	0.755
363.52	0.758
363.73	0.753
363.93	0.753
364.14	0.756
364.35	0.756
364.56	0.746
364.77	0.747
364.97	0.749
365.18	0.751
365.39	0.746
365.60	0.743
365.81	0.744
366.01	0.743
366.22	0.739
366.43	0.739
366.64	0.741
366.84	0.748
367.05	0.745
367.26	0.745
367.47	0.746
367.68	0.746
367.88	0.743
368.09	0.741
368.30	0.744
368.51	0.744
368.71	0.742
368.92	0.747
369.13	0.745
369.34	0.743
369.55	0.742
369.75	0.743
369.96	0.749
370.17	0.749
370.38	0.746
370.58	0.745
370.79	0.750
371.00	0.748
371.21	0.739
371.41	0.744
371.62	0.749
371.83	0.745
372.04	0.742
372.24	0.736
372.45	0.736
372.66	0.737
372.87	0.733
373.07	0.729
373.28	0.731
373.49	0.734
373.70	0.724
373.90	0.722
374.11	0.732
374.32	0.731
374.53	0.731
374.73	0.732
374.94	0.735
375.15	0.734
375.36	0.732
375.56	0.740
375.77	0.739
375.98	0.740
376.19	0.738
376.39	0.731
376.60	0.735
376.81	0.734
377.02	0.731
377.22	0.729
377.43	0.730
377.64	0.730
377.84	0.722
378.05	0.727
378.26	0.733
378.47	0.731
378.67	0.728
378.88	0.725
379.09	0.725
379.30	0.726
379.50	0.723
379.71	0.726
379.92	0.728
380.12	0.728
380.33	0.720
380.54	0.716
380.75	0.724
380.95	0.724
381.16	0.722
381.37	0.723
381.57	0.724
381.78	0.726
381.99	0.725
382.20	0.724
382.40	0.727
382.61	0.727
382.82	0.723
383.02	0.716
383.23	0.719
383.44	0.719
383.64	0.717
383.85	0.719
384.06	0.722
384.27	0.720
384.47	0.717
384.68	0.717
384.89	0.723
385.09	0.722
385.30	0.722
385.51	0.721
385.71	0.725
385.92	0.725
386.13	0.723
386.33	0.725
386.54	0.726
386.75	0.725
386.95	0.721
387.16	0.717
387.37	0.720
387.58	0.720
387.78	0.717
387.99	0.715
388.20	0.718
388.40	0.716
388.61	0.711
388.82	0.714
389.02	0.717
389.23	0.717
389.44	0.715
389.64	0.716
389.85	0.727
390.06	0.727
390.26	0.727
390.47	0.726
390.68	0.728
390.88	0.726
391.09	0.722
391.30	0.721
391.50	0.721
391.71	0.721
391.92	0.719
392.12	0.710
392.33	0.710
392.53	0.710
392.74	0.710
392.95	0.708
393.15	0.711
393.36	0.713
393.57	0.710
393.77	0.713
393.98	0.714
394.19	0.713
394.39	0.712
394.60	0.714
394.81	0.715
395.01	0.713
395.22	0.711
395.43	0.713
395.63	0.717
395.84	0.717
396.04	0.713
396.25	0.715
396.46	0.717
396.66	0.715
396.87	0.712
397.08	0.710
397.28	0.712
397.49	0.713
397.69	0.709
397.90	0.704
398.11	0.706
398.31	0.707
398.52	0.703
398.73	0.704
398.93	0.704
399.14	0.703
399.34	0.702
399.55	0.703
399.76	0.704
399.96	0.705
400.17	0.704
400.37	0.702
400.58	0.708
400.79	0.710
400.99	0.708
401.20	0.713
401.41	0.716
401.61	0.716
401.82	0.720
402.02	0.719
402.23	0.720
402.44	0.719
402.64	0.719
402.85	0.714
403.05	0.713
403.26	0.711
403.47	0.705
403.67	0.704
403.88	0.705
404.08	0.699
404.29	0.698
404.50	0.697
404.70	0.698
404.91	0.697
405.11	0.694
405.32	0.694
405.52	0.694
405.73	0.694
405.94	0.692
406.14	0.695
406.35	0.697
406.55	0.697
406.76	0.694
406.97	0.694
407.17	0.697
407.38	0.696
407.58	0.695
407.79	0.698
407.99	0.701
408.20	0.701
408.41	0.696
408.61	0.694
408.82	0.695
409.02	0.695
409.23	0.693
409.43	0.692
409.64	0.694
409.84	0.693
410.05	0.690
410.26	0.688
410.46	0.687
410.67	0.687
410.87	0.689
411.08	0.690
411.28	0.692
411.49	0.693
411.69	0.691
411.90	0.692
412.11	0.694
412.31	0.695
412.52	0.694
412.72	0.695
412.93	0.697
413.13	0.695
413.34	0.691
413.54	0.693
413.75	0.694
413.95	0.693
414.16	0.690
414.37	0.692
414.57	0.693
414.78	0.695
414.98	0.693
415.19	0.694
415.39	0.691
415.60	0.693
415.80	0.692
416.01	0.691
416.21	0.693
416.42	0.693
416.62	0.688
416.83	0.689
417.03	0.689
417.24	0.689
417.44	0.686
417.65	0.686
417.86	0.687
418.06	0.685
418.27	0.683
418.47	0.684
418.68	0.685
418.88	0.686
419.09	0.684
419.29	0.684
419.50	0.685
419.70	0.684
419.91	0.683
420.11	0.680
420.32	0.683
420.52	0.683
420.73	0.681
420.93	0.682
421.14	0.683
421.34	0.682
421.55	0.679
421.75	0.679
421.96	0.680
422.16	0.680
422.37	0.679
422.57	0.676
422.78	0.678
422.98	0.675
423.19	0.672
423.39	0.671
423.60	0.675
423.80	0.677
424.01	0.675
424.21	0.678
424.42	0.680
424.62	0.679
424.83	0.678
425.03	0.678
425.23	0.680
425.44	0.681
425.64	0.680
425.85	0.678
426.05	0.679
426.26	0.679
426.46	0.675
426.67	0.674
426.87	0.679
427.08	0.680
427.28	0.678
427.49	0.679
427.69	0.680
427.90	0.679
428.10	0.676
428.31	0.676
428.51	0.678
428.71	0.677
428.92	0.678
429.12	0.675
429.33	0.676
429.53	0.680
429.74	0.684
429.94	0.684
430.15	0.683
430.35	0.683
430.56	0.680
430.76	0.679
430.96	0.680
431.17	0.678
431.37	0.675
431.58	0.673
431.78	0.670
431.99	0.663
432.19	0.666
432.40	0.668
432.60	0.669
432.80	0.671
433.01	0.669
433.21	0.670
433.42	0.672
433.62	0.673
433.83	0.672
434.03	0.674
434.23	0.678
434.44	0.677
434.64	0.674
434.85	0.679
435.05	0.680
435.26	0.680
435.46	0.679
435.66	0.678
435.87	0.678
436.07	0.679
436.28	0.675
436.48	0.672
436.69	0.672
436.89	0.672
437.09	0.666
437.30	0.665
437.50	0.666
437.71	0.678
437.91	0.677
438.11	0.678
438.32	0.682
438.52	0.682
438.73	0.680
438.93	0.679
439.13	0.678
439.34	0.681
439.54	0.679
439.75	0.679
439.95	0.669
440.15	0.673
440.36	0.671
440.56	0.669
440.77	0.670
440.97	0.670
441.17	0.669
441.38	0.670
441.58	0.668
441.79	0.667
441.99	0.666
442.19	0.665
442.40	0.663
442.60	0.663
442.81	0.660
443.01	0.661
443.21	0.662
443.42	0.662
443.62	0.660
443.82	0.660
444.03	0.661
444.23	0.662
444.44	0.662
444.64	0.660
444.84	0.662
445.05	0.662
445.25	0.659
445.45	0.659
445.66	0.662
445.86	0.662
446.06	0.663
446.27	0.662
446.47	0.665
446.68	0.663
446.88	0.661
447.08	0.660
447.29	0.663
447.49	0.663
447.69	0.662
447.90	0.661
448.10	0.664
448.30	0.662
448.51	0.664
448.71	0.662
448.91	0.664
449.12	0.663
449.32	0.665
449.52	0.664
449.73	0.668
449.93	0.667
450.14	0.668
450.34	0.667
450.54	0.670
450.75	0.667
450.95	0.666
451.15	0.666
451.36	0.669
451.56	0.665
451.76	0.664
451.97	0.661
452.17	0.662
452.37	0.660
452.58	0.657
452.78	0.657
452.98	0.660
453.19	0.659
453.39	0.659
453.59	0.658
453.79	0.659
454.00	0.659
454.20	0.658
454.40	0.658
454.61	0.661
454.81	0.662
455.01	0.659
455.22	0.660
455.42	0.662
455.62	0.660
455.83	0.659
456.03	0.662
456.23	0.663
456.44	0.664
456.64	0.663
456.84	0.663
457.04	0.663
457.25	0.663
457.45	0.659
457.65	0.658
457.86	0.659
458.06	0.658
458.26	0.654
458.47	0.653
458.67	0.655
458.87	0.655
459.07	0.653
459.28	0.655
459.48	0.658
459.68	0.658
459.89	0.657
460.09	0.656
460.29	0.658
460.49	0.659
460.70	0.658
460.90	0.658
461.10	0.658
461.31	0.657
461.51	0.654
461.71	0.655
461.91	0.657
462.12	0.657
462.32	0.656
462.52	0.657
462.72	0.660
462.93	0.660
463.13	0.658
463.33	0.659
463.53	0.661
463.74	0.660
463.94	0.655
464.14	0.655
464.35	0.657
464.55	0.658
464.75	0.656
464.95	0.653
465.16	0.656
465.36	0.655
465.56	0.654
465.76	0.653
465.97	0.654
466.17	0.654
466.37	0.652
466.57	0.653
466.78	0.653
466.98	0.654
467.18	0.651
467.38	0.650
467.59	0.651
467.79	0.653
467.99	0.651
468.19	0.653
468.39	0.656
468.60	0.657
468.80	0.655
469.00	0.656
469.20	0.658
469.41	0.658
469.61	0.657
469.81	0.659
470.01	0.658
470.22	0.659
470.42	0.657
470.62	0.654
470.82	0.656
471.02	0.655
471.23	0.653
471.43	0.653
471.63	0.655
471.83	0.655
472.04	0.653
472.24	0.652
472.44	0.657
472.64	0.657
472.84	0.655
473.05	0.655
473.25	0.658
473.45	0.657
473.65	0.655
473.85	0.656
474.06	0.657
474.26	0.657
474.46	0.658
474.66	0.655
474.86	0.656
475.07	0.656
475.27	0.654
475.47	0.650
475.67	0.651
475.87	0.653
476.08	0.649
476.28	0.650
476.48	0.652
476.68	0.650
476.88	0.647
477.09	0.649
477.29	0.651
477.49	0.651
477.69	0.651
477.89	0.651
478.09	0.650
478.30	0.652
478.50	0.649
478.70	0.648
478.90	0.649
479.10	0.652
479.31	0.652
479.51	0.650
479.71	0.651
479.91	0.651
480.11	0.649
480.31	0.650
480.52	0.649
480.72	0.649
480.92	0.648
481.12	0.647
481.32	0.644
481.52	0.642
481.72	0.642
481.93	0.646
482.13	0.647
482.33	0.646
482.53	0.644
482.73	0.645
482.93	0.647
483.14	0.646
483.34	0.644
483.54	0.646
483.74	0.645
483.94	0.644
484.14	0.640
484.34	0.641
484.55	0.642
484.75	0.641
484.95	0.639
485.15	0.639
485.35	0.639
485.55	0.639
485.75	0.637
485.96	0.637
486.16	0.639
486.36	0.638
486.56	0.636
486.76	0.637
486.96	0.637
487.16	0.637
487.36	0.635
487.57	0.634
487.77	0.635
487.97	0.635
488.17	0.634
488.37	0.632
488.57	0.633
488.77	0.633
488.97	0.632
489.18	0.631
489.38	0.634
489.58	0.634
489.78	0.633
489.98	0.633
490.18	0.633
490.38	0.634
490.58	0.633
490.78	0.633
490.98	0.635
491.19	0.635
491.39	0.634
491.59	0.633
491.79	0.636
491.99	0.636
492.19	0.636
492.39	0.639
492.59	0.640
492.79	0.642
492.99	0.642
493.20	0.642
493.40	0.642
493.60	0.644
493.80	0.642
494.00	0.640
494.20	0.641
494.40	0.641
494.60	0.638
494.80	0.642
495.00	0.641
495.20	0.639
495.40	0.638
495.61	0.640
495.81	0.639
496.01	0.643
496.21	0.644
496.41	0.643
496.61	0.643
496.81	0.642
497.01	0.637
497.21	0.636
497.41	0.637
497.61	0.637
497.81	0.634
498.01	0.634
498.21	0.632
498.41	0.630
498.61	0.630
498.82	0.632
499.02	0.634
499.22	0.635
499.42	0.635
499.62	0.636
499.82	0.637
500.02	0.638
500.22	0.637
500.42	0.639
500.62	0.640
500.82	0.640
501.02	0.637
501.22	0.638
501.42	0.638
501.62	0.640
501.82	0.639
502.02	0.639
502.22	0.639
502.42	0.641
502.62	0.638
502.82	0.639
503.02	0.640
503.22	0.639
503.42	0.637
503.63	0.637
503.83	0.635
504.03	0.633
504.23	0.632
504.43	0.632
504.63	0.633
504.83	0.633
505.03	0.632
505.23	0.633
505.43	0.636
505.63	0.636
505.83	0.636
506.03	0.638
506.23	0.641
506.43	0.640
506.63	0.640
506.83	0.638
507.03	0.641
507.23	0.641
507.43	0.639
507.63	0.639
507.83	0.639
508.03	0.639
508.23	0.638
508.43	0.636
508.63	0.638
508.83	0.639
509.03	0.640
509.23	0.638
509.43	0.640
509.63	0.640
509.83	0.639
510.03	0.641
510.23	0.642
510.43	0.644
510.63	0.644
510.83	0.644
511.03	0.646
511.23	0.644
511.43	0.643
511.63	0.645
511.83	0.648
512.03	0.647
512.22	0.644
512.42	0.644
512.62	0.645
512.82	0.644
513.02	0.643
513.22	0.643
513.42	0.644
513.62	0.647
513.82	0.645
514.02	0.644
514.22	0.645
514.42	0.645
514.62	0.645
514.82	0.645
515.02	0.647
515.22	0.650
515.42	0.649
515.62	0.651
515.82	0.649
516.02	0.651
516.22	0.650
516.42	0.652
516.62	0.654
516.82	0.655
517.01	0.653
517.21	0.652
517.41	0.656
517.61	0.656
517.81	0.652
518.01	0.652
518.21	0.652
518.41	0.651
518.61	0.650
518.81	0.651
519.01	0.652
519.21	0.653
519.41	0.651
519.61	0.646
519.81	0.649
520.00	0.650
520.20	0.651
520.40	0.653
520.60	0.654
520.80	0.653
521.00	0.653
521.20	0.654
521.40	0.659
521.60	0.660
521.80	0.659
522.00	0.659
522.20	0.661
522.39	0.660
522.59	0.656
522.79	0.659
522.99	0.661
523.19	0.660
523.39	0.657
523.59	0.655
523.79	0.658
523.99	0.660
524.19	0.659
524.38	0.657
524.58	0.660
524.78	0.660
524.98	0.658
525.18	0.661
525.38	0.662
525.58	0.663
525.78	0.661
525.98	0.659
526.18	0.660
526.37	0.659
526.57	0.661
526.77	0.660
526.97	0.661
527.17	0.661
527.37	0.657
527.57	0.658
527.77	0.660
527.96	0.660
528.16	0.659
528.36	0.660
528.56	0.662
528.76	0.659
528.96	0.659
529.16	0.660
529.36	0.663
529.55	0.662
529.75	0.659
529.95	0.659
530.15	0.661
530.35	0.663
530.55	0.660
530.75	0.661
530.94	0.663
531.14	0.663
531.34	0.661
531.54	0.659
531.74	0.662
531.94	0.666
532.13	0.663
532.33	0.665
532.53	0.664
532.73	0.663
532.93	0.662
533.13	0.663
533.33	0.663
533.52	0.663
533.72	0.667
533.92	0.665
534.12	0.664
534.32	0.664
534.52	0.662
534.71	0.664
534.91	0.667
535.11	0.669
535.31	0.666
535.51	0.669
535.71	0.671
535.90	0.668
536.10	0.669
536.30	0.671
536.50	0.672
536.70	0.671
536.89	0.669
537.09	0.668
537.29	0.670
537.49	0.672
537.69	0.669
537.89	0.669
538.08	0.669
538.28	0.668
538.48	0.668
538.68	0.670
538.88	0.672
539.07	0.672
539.27	0.670
539.47	0.669
539.67	0.669
539.87	0.671
540.06	0.668
540.26	0.669
540.46	0.671
540.66	0.669
540.86	0.666
541.05	0.665
541.25	0.667
541.45	0.668
541.65	0.666
541.84	0.668
542.04	0.668
542.24	0.670
542.44	0.669
542.64	0.670
542.83	0.672
543.03	0.673
543.23	0.671
543.43	0.672
543.62	0.673
543.82	0.673
544.02	0.672
544.22	0.672
544.42	0.675
544.61	0.675
544.81	0.671
545.01	0.671
545.21	0.673
545.40	0.674
545.60	0.671
545.80	0.675
546.00	0.675
546.19	0.674
546.39	0.672
546.59	0.670
546.79	0.672
546.98	0.672
547.18	0.671
547.38	0.672
547.58	0.675
547.77	0.675
547.97	0.671
548.17	0.673
548.37	0.674
548.56	0.675
548.76	0.674
548.96	0.676
549.16	0.679
549.35	0.679
549.55	0.676
549.75	0.677
549.95	0.681
550.14	0.681
550.34	0.679
550.54	0.684
550.73	0.687
550.93	0.688
551.13	0.684
551.33	0.683
551.52	0.684
551.72	0.684
551.92	0.681
552.12	0.681
552.31	0.682
552.51	0.682
552.71	0.677
552.90	0.677
553.10	0.678
553.30	0.679
553.50	0.678
553.69	0.680
553.89	0.681
554.09	0.681
554.28	0.678
554.48	0.680
554.68	0.682
554.87	0.682
555.07	0.678
555.27	0.678
555.47	0.679
555.66	0.680
555.86	0.678
556.06	0.679
556.25	0.681
556.45	0.688
556.65	0.686
556.84	0.690
557.04	0.693
557.24	0.694
557.43	0.694
557.63	0.697
557.83	0.699
558.02	0.700
558.22	0.704
558.42	0.704
558.61	0.697
558.81	0.697
559.01	0.693
559.21	0.693
559.40	0.694
559.60	0.694
559.80	0.690
559.99	0.691
560.19	0.693
560.39	0.687
560.58	0.685
560.78	0.686
560.97	0.690
561.17	0.688
561.37	0.686
561.56	0.686
561.76	0.688
561.96	0.687
562.15	0.685
562.35	0.686
562.55	0.688
562.74	0.687
562.94	0.685
563.14	0.683
563.33	0.684
563.53	0.684
563.73	0.682
563.92	0.684
564.12	0.687
564.31	0.689
564.51	0.687
564.71	0.689
564.90	0.692
565.10	0.693
565.30	0.696
565.49	0.697
565.69	0.699
565.89	0.699
566.08	0.696
566.28	0.697
566.47	0.699
566.67	0.697
566.87	0.693
567.06	0.695
567.26	0.702
567.46	0.697
567.65	0.697
567.85	0.699
568.04	0.702
568.24	0.700
568.44	0.697
568.63	0.695
568.83	0.697
569.02	0.696
569.22	0.691
569.42	0.687
569.61	0.690
569.81	0.689
570.00	0.686
570.20	0.687
570.40	0.689
570.59	0.689
570.79	0.687
570.98	0.685
571.18	0.686
571.38	0.686
571.57	0.683
571.77	0.681
571.96	0.684
572.16	0.681
572.35	0.676
572.55	0.677
572.75	0.676
572.94	0.676
573.14	0.674
573.33	0.674
573.53	0.675
573.73	0.674
573.92	0.671
574.12	0.669
574.31	0.672
574.51	0.673
574.70	0.670
574.90	0.671
575.09	0.674
575.29	0.674
575.49	0.671
575.68	0.671
575.88	0.672
576.07	0.674
576.27	0.672
576.46	0.670
576.66	0.669
576.86	0.669
577.05	0.666
577.25	0.664
577.44	0.666
577.64	0.666
577.83	0.664
578.03	0.665
578.22	0.665
578.42	0.664
578.61	0.662
578.81	0.664
579.00	0.665
579.20	0.665
579.40	0.664
579.59	0.663
579.79	0.663
579.98	0.663
580.18	0.662
580.37	0.663
580.57	0.665
580.76	0.669
580.96	0.667
581.15	0.667
581.35	0.669
581.54	0.669
581.74	0.668
581.93	0.669
582.13	0.670
582.32	0.668
582.52	0.666
582.71	0.665
582.91	0.661
583.10	0.661
583.30	0.660
583.49	0.659
583.69	0.663
583.88	0.664
584.08	0.663
584.27	0.666
584.47	0.669
584.66	0.670
584.86	0.668
585.05	0.671
585.25	0.674
585.44	0.673
585.64	0.671
585.83	0.668
586.03	0.669
586.22	0.667
586.42	0.663
586.61	0.665
586.81	0.667
587.00	0.667
587.20	0.664
587.39	0.665
587.59	0.667
587.78	0.669
587.98	0.669
588.17	0.671
588.37	0.673
588.56	0.675
588.76	0.671
588.95	0.671
589.15	0.675
589.34	0.678
589.54	0.676
589.73	0.677
589.92	0.681
590.12	0.680
590.31	0.678
590.51	0.683
590.70	0.685
590.90	0.685
591.09	0.683
591.29	0.681
591.48	0.681
591.68	0.682
591.87	0.680
592.06	0.680
592.26	0.683
592.45	0.682
592.65	0.675
592.84	0.675
593.04	0.678
593.23	0.681
593.43	0.678
593.62	0.678
593.81	0.678
594.01	0.677
594.20	0.674
594.40	0.673
594.59	0.676
594.79	0.677
594.98	0.675
595.17	0.674
595.37	0.675
595.56	0.677
595.76	0.676
595.95	0.677
596.14	0.680
596.34	0.682
596.53	0.680
596.73	0.682
596.92	0.683
597.12	0.686
597.31	0.685
597.50	0.684
597.70	0.686
597.89	0.686
598.09	0.682
598.28	0.684
598.47	0.686
598.67	0.684
598.86	0.680
599.06	0.681
599.25	0.682
599.44	0.681
599.64	0.678
599.83	0.675
600.03	0.679
600.22	0.679
600.41	0.678
600.61	0.677
600.80	0.679
601.00	0.680
601.19	0.676
601.38	0.675
601.58	0.677
601.77	0.678
601.96	0.681
602.16	0.681
602.35	0.691
602.55	0.688
602.74	0.689
602.93	0.690
603.13	0.695
603.32	0.697
603.51	0.696
603.71	0.699
603.90	0.700
604.09	0.701
604.29	0.699
604.48	0.692
604.68	0.695
604.87	0.693
605.06	0.689
605.26	0.686
605.45	0.687
605.64	0.686
605.84	0.681
606.03	0.679
606.22	0.678
606.42	0.677
606.61	0.673
606.80	0.674
607.00	0.675
607.19	0.676
607.38	0.674
607.58	0.675
607.77	0.678
607.96	0.679
608.16	0.678
608.35	0.683
608.54	0.686
608.74	0.689
608.93	0.694
609.12	0.697
609.32	0.700
609.51	0.704
609.70	0.702
609.90	0.704
610.09	0.709
610.28	0.713
610.48	0.706
610.67	0.707
610.86	0.708
611.06	0.702
611.25	0.700
611.44	0.700
611.64	0.700
611.83	0.703
612.02	0.699
612.21	0.698
612.41	0.698
612.60	0.697
612.79	0.693
612.99	0.693
613.18	0.695
613.37	0.693
613.57	0.691
613.76	0.692
613.95	0.690
614.14	0.690
614.34	0.687
614.53	0.687
614.72	0.689
614.92	0.690
615.11	0.687
615.30	0.684
615.49	0.686
615.69	0.688
615.88	0.685
616.07	0.687
616.26	0.689
616.46	0.691
616.65	0.688
616.84	0.687
617.04	0.689
617.23	0.692
617.42	0.693
617.61	0.697
617.81	0.697
618.00	0.699
618.19	0.698
618.38	0.701
618.58	0.705
618.77	0.706
618.96	0.705
619.15	0.707
619.35	0.708
619.54	0.709
619.73	0.704
619.92	0.706
620.12	0.711
620.31	0.711
620.50	0.705
620.69	0.705
620.89	0.709
621.08	0.709
621.27	0.709
621.46	0.708
621.66	0.711
621.85	0.711
622.04	0.707
622.23	0.708
622.43	0.709
622.62	0.709
622.81	0.707
623.00	0.706
623.19	0.710
623.39	0.708
623.58	0.706
623.77	0.705
623.96	0.709
624.16	0.708
624.35	0.703
624.54	0.707
624.73	0.711
624.92	0.709
625.12	0.706
625.31	0.707
625.50	0.711
625.69	0.711
625.88	0.707
626.08	0.707
626.27	0.709
626.46	0.709
626.65	0.705
626.84	0.706
627.04	0.711
627.23	0.711
627.42	0.707
627.61	0.708
627.80	0.712
628.00	0.712
628.19	0.709
628.38	0.713
628.57	0.716
628.76	0.715
628.96	0.711
629.15	0.712
629.34	0.715
629.53	0.714
629.72	0.709
629.91	0.709
630.11	0.714
630.30	0.714
630.49	0.717
630.68	0.717
630.87	0.722
631.06	0.723
631.26	0.718
631.45	0.720
631.64	0.730
631.83	0.732
632.02	0.730
632.21	0.729
632.41	0.737
632.60	0.731
632.79	0.730
632.98	0.730
633.17	0.732
633.36	0.734
633.55	0.730
633.75	0.725
633.94	0.728
634.13	0.728
634.32	0.724
634.51	0.719
634.70	0.722
634.89	0.721
635.09	0.717
635.28	0.718
635.47	0.720
635.66	0.723
635.85	0.719
636.04	0.720
636.23	0.725
636.43	0.726
636.62	0.725
636.81	0.724
637.00	0.727
637.19	0.730
637.38	0.726
637.57	0.724
637.76	0.726
637.95	0.727
638.15	0.724
638.34	0.720
638.53	0.724
638.72	0.725
638.91	0.722
639.10	0.720
639.29	0.720
639.48	0.721
639.67	0.722
639.87	0.721
640.06	0.726
640.25	0.726
640.44	0.727
640.63	0.726
640.82	0.729
641.01	0.729
641.20	0.729
641.39	0.730
641.58	0.733
641.78	0.731
641.97	0.726
642.16	0.740
642.35	0.741
642.54	0.739
642.73	0.734
642.92	0.732
643.11	0.736
643.30	0.736
643.49	0.731
643.68	0.734
643.87	0.735
644.06	0.736
644.25	0.715
644.45	0.718
644.64	0.720
644.83	0.721
645.02	0.717
645.21	0.717
645.40	0.718
645.59	0.717
645.78	0.711
645.97	0.714
646.16	0.715
646.35	0.714
646.54	0.712
646.73	0.713
646.92	0.715
647.11	0.715
647.30	0.711
647.49	0.713
647.68	0.713
647.88	0.711
648.07	0.704
648.26	0.707
648.45	0.709
648.64	0.705
648.83	0.702
649.02	0.704
649.21	0.715
649.40	0.714
649.59	0.709
649.78	0.710
649.97	0.725
650.16	0.725
650.35	0.718
650.54	0.721
650.73	0.729
650.92	0.725
651.11	0.718
651.30	0.716
651.49	0.720
651.68	0.721
651.87	0.718
652.06	0.707
652.25	0.710
652.44	0.713
652.63	0.710
652.82	0.710
653.01	0.710
653.20	0.707
653.39	0.695
653.58	0.691
653.77	0.690
653.96	0.685
654.15	0.676
654.34	0.674
654.53	0.670
654.72	0.664
654.91	0.655
655.10	0.651
655.29	0.649
655.48	0.647
655.67	0.642
655.86	0.640
656.05	0.639
656.24	0.638
656.43	0.633
656.62	0.632
656.81	0.633
657.00	0.630
657.19	0.628
657.38	0.628
657.57	0.628
657.76	0.630
657.95	0.628
658.14	0.632
658.33	0.635
658.51	0.639
658.70	0.640
658.89	0.641
659.08	0.651
659.27	0.659
659.46	0.659
659.65	0.666
659.84	0.669
660.03	0.672
660.22	0.672
660.41	0.677
660.60	0.678
660.79	0.679
660.98	0.685
661.17	0.684
661.36	0.683
661.55	0.684
661.74	0.681
661.92	0.684
662.11	0.687
662.30	0.685
662.49	0.678
662.68	0.676
662.87	0.680
663.06	0.674
663.25	0.674
663.44	0.674
663.63	0.675
663.82	0.673
664.01	0.667
664.20	0.666
664.38	0.668
664.57	0.668
664.76	0.669
664.95	0.670
665.14	0.675
665.33	0.669
665.52	0.677
665.71	0.682
665.90	0.682
666.09	0.683
666.28	0.681
666.46	0.680
666.65	0.682
666.84	0.679
667.03	0.673
667.22	0.671
667.41	0.674
667.60	0.663
667.79	0.655
667.98	0.656
668.16	0.657
668.35	0.657
668.54	0.652
668.73	0.653
668.92	0.654
669.11	0.653
669.30	0.648
669.49	0.643
669.67	0.646
669.86	0.648
670.05	0.646
670.24	0.644
670.43	0.641
670.62	0.641
670.81	0.635
671.00	0.637
671.18	0.636
671.37	0.635
671.56	0.634
671.75	0.632
671.94	0.629
672.13	0.628
672.32	0.623
672.50	0.623
672.69	0.623
672.88	0.624
673.07	0.619
673.26	0.622
673.45	0.623
673.63	0.622
673.82	0.619
674.01	0.620
674.20	0.619
674.39	0.619
674.58	0.617
674.76	0.618
674.95	0.617
675.14	0.616
675.33	0.612
675.52	0.610
675.71	0.611
675.89	0.610
676.08	0.606
676.27	0.606
676.46	0.607
676.65	0.606
676.84	0.605
677.02	0.607
677.21	0.609
677.40	0.608
677.59	0.604
677.78	0.605
677.96	0.607
678.15	0.607
678.34	0.605
678.53	0.605
678.72	0.605
678.90	0.602
679.09	0.597
679.28	0.594
679.47	0.594
679.66	0.595
679.84	0.592
680.03	0.590
680.22	0.589
680.41	0.591
680.60	0.587
680.78	0.587
680.97	0.589
681.16	0.589
681.35	0.588
681.53	0.587
681.72	0.588
681.91	0.589
682.10	0.587
682.29	0.591
682.47	0.588
682.66	0.587
682.85	0.586
683.04	0.584
683.22	0.583
683.41	0.585
683.60	0.584
683.79	0.585
683.97	0.584
684.16	0.583
684.35	0.579
684.54	0.581
684.72	0.581
684.91	0.582
685.10	0.580
685.29	0.581
685.47	0.579
685.66	0.578
685.85	0.575
686.04	0.574
686.22	0.577
686.41	0.580
686.60	0.576
686.79	0.579
686.97	0.580
687.16	0.581
687.35	0.579
687.54	0.582
687.72	0.587
687.91	0.586
688.10	0.587
688.29	0.586
688.47	0.584
688.66	0.584
688.85	0.579
689.03	0.577
689.22	0.582
689.41	0.582
689.60	0.577
689.78	0.574
689.97	0.575
690.16	0.573
690.34	0.569
690.53	0.569
690.72	0.569
690.91	0.567
691.09	0.566
691.28	0.560
691.47	0.558
691.65	0.557
691.84	0.554
692.03	0.553
692.21	0.551
692.40	0.551
692.59	0.548
692.77	0.547
692.96	0.549
693.15	0.549
693.34	0.547
693.52	0.547
693.71	0.548
693.90	0.550
694.08	0.550
694.27	0.552
694.46	0.561
694.64	0.563
694.83	0.562
695.02	0.560
695.20	0.560
695.39	0.559
695.58	0.559
695.76	0.559
695.95	0.559
696.14	0.558
696.32	0.555
696.51	0.545
696.70	0.546
696.88	0.546
697.07	0.545
697.26	0.546
697.44	0.548
697.63	0.547
697.81	0.545
698.00	0.544
698.19	0.544
698.37	0.544
698.56	0.543
698.75	0.543
698.93	0.544
699.12	0.543
699.31	0.542
699.49	0.541
699.68	0.543
699.87	0.545
700.05	0.545
700.24	0.544
700.42	0.546
700.61	0.545
700.80	0.543
700.98	0.543
701.17	0.544
701.36	0.543
701.54	0.543
701.73	0.544
701.91	0.542
702.10	0.541
702.29	0.539
702.47	0.537
702.66	0.539
702.84	0.541
703.03	0.539
703.22	0.540
703.40	0.540
703.59	0.542
703.77	0.541
703.96	0.541
704.15	0.542
704.33	0.542
704.52	0.541
704.70	0.540
704.89	0.540
705.08	0.538
705.26	0.534
705.45	0.534
705.63	0.534
705.82	0.530
706.00	0.529
706.19	0.528
706.38	0.529
706.56	0.528
706.75	0.525
706.93	0.524
707.12	0.526
707.30	0.526
707.49	0.525
707.68	0.522
707.86	0.522
708.05	0.522
708.23	0.520
708.42	0.520
708.60	0.523
708.79	0.524
708.98	0.522
709.16	0.522
709.35	0.524
709.53	0.528
709.72	0.527
709.90	0.529
710.09	0.531
710.27	0.534
710.46	0.537
710.64	0.535
710.83	0.537
711.02	0.539
711.20	0.537
711.39	0.535
711.57	0.533
711.76	0.533
711.94	0.531
712.13	0.532
712.31	0.531
712.50	0.526
712.68	0.523
712.87	0.524
713.05	0.525
713.24	0.525
713.42	0.524
713.61	0.525
713.79	0.526
713.98	0.527
714.16	0.527
714.35	0.528
714.54	0.529
714.72	0.529
714.91	0.527
715.09	0.533
715.28	0.536
715.46	0.536
715.65	0.533
715.83	0.534
716.02	0.536
716.20	0.532
716.39	0.531
716.57	0.532
716.76	0.535
716.94	0.534
717.12	0.526
717.31	0.528
717.49	0.531
717.68	0.533
717.86	0.531
718.05	0.533
718.23	0.536
718.42	0.538
718.60	0.538
718.79	0.547
718.97	0.550
719.16	0.550
719.34	0.548
719.53	0.547
719.71	0.548
719.90	0.549
720.08	0.546
720.27	0.546
720.45	0.546
720.63	0.545
720.82	0.538
721.00	0.541
721.19	0.545
721.37	0.545
721.56	0.545
721.74	0.547
721.93	0.556
722.11	0.564
722.30	0.564
722.48	0.569
722.66	0.570
722.85	0.570
723.03	0.570
723.22	0.568
723.40	0.571
723.59	0.572
723.77	0.575
723.95	0.569
724.14	0.569
724.32	0.570
724.51	0.569
724.69	0.570
724.88	0.571
725.06	0.569
725.24	0.570
725.43	0.573
725.61	0.576
725.80	0.571
725.98	0.569
726.16	0.566
726.35	0.573
726.53	0.571
726.72	0.571
726.90	0.581
727.09	0.582
727.27	0.587
727.45	0.583
727.64	0.592
727.82	0.599
728.01	0.603
728.19	0.600
728.37	0.606
728.56	0.610
728.74	0.617
728.92	0.605
729.11	0.608
729.29	0.607
729.48	0.610
729.66	0.599
729.84	0.601
730.03	0.604
730.21	0.607
730.40	0.595
730.58	0.597
730.76	0.597
730.95	0.599
731.13	0.598
731.31	0.611
731.50	0.621
731.68	0.624
731.86	0.619
732.05	0.635
732.23	0.638
732.42	0.643
732.60	0.647
732.78	0.651
732.97	0.671
733.15	0.678
733.33	0.666
733.52	0.674
733.70	0.687
733.88	0.696
734.07	0.681
734.25	0.710
734.43	0.719
734.62	0.720
734.80	0.714
734.98	0.705
735.17	0.713
735.35	0.722
735.53	0.709
735.72	0.712
735.90	0.736
736.08	0.756
736.27	0.729
736.45	0.740
736.63	0.754
736.82	0.766
737.00	0.767
737.18	0.779
737.37	0.815
737.55	0.841
737.73	0.834
737.92	0.837
738.10	0.837
738.28	0.863
738.46	0.851
738.65	0.865
738.83	0.892
739.01	0.953
739.20	0.941
739.38	0.918
739.56	0.909
739.75	0.915
739.93	0.875
740.11	0.901
740.29	0.903
740.48	0.910
740.66	0.886
740.84	0.881
741.03	0.845
741.21	0.855
741.39	0.837
741.57	0.854
741.76	0.877
741.94	0.888
742.12	0.848
742.31	0.855
742.49	0.879
742.67	0.908
742.85	0.920
743.04	0.924
743.22	0.940
743.40	1.002
743.58	0.979
743.77	0.999
743.95	1.041
744.13	1.103
744.31	1.071
744.50	1.065
744.68	1.072
744.86	1.045
745.04	1.061
745.23	1.145
745.41	1.120
745.59	1.118
745.77	1.069
745.96	1.047
746.14	1.059
746.32	1.056
746.50	1.047
746.69	1.024
746.87	1.032
747.05	1.010
747.23	0.926
747.42	0.914
747.60	0.950
747.78	0.959
747.96	0.998
748.14	0.944
748.33	0.988
748.51	0.978
748.69	0.969
748.87	1.009
749.06	1.012
749.24	1.009
749.42	0.987
749.60	0.963
749.78	0.969
749.97	0.916
750.15	0.909
750.33	0.903
750.51	0.936
750.69	0.940
750.88	0.937
751.06	0.945
751.24	0.974
751.42	0.963
751.60	0.956
751.79	1.040
751.97	1.095
752.15	1.091
752.33	1.053
752.51	1.134
752.69	1.156
752.88	1.117
753.06	1.180
753.24	1.147
753.42	1.202
753.60	1.442
753.78	1.226
753.97	1.258
754.15	1.289
754.33	1.326
754.51	1.144
754.69	1.121
754.87	1.154
755.06	1.056
755.24	1.056
755.42	1.062
755.60	0.949
755.78	0.958
755.96	0.893
756.15	0.896
756.33	0.904
756.51	0.923
756.69	0.907
756.87	0.874
757.05	0.901
757.23	0.883
757.42	0.846
757.60	0.845
757.78	0.833
757.96	0.833
758.14	0.812
758.32	0.794
758.50	0.812
758.69	0.810
758.87	0.799
759.05	0.800
759.23	0.813
759.41	0.812
759.59	0.803
759.77	0.829
759.95	0.862
760.13	0.918
760.32	0.918
760.50	0.910
760.68	0.942
760.86	0.947
761.04	0.913
761.22	0.917
761.40	0.977
761.58	0.976
761.76	0.938
761.95	0.916
762.13	0.865
762.31	0.861
762.49	0.827
762.67	0.842
762.85	0.857
763.03	0.853
763.21	0.830
763.39	0.808
763.57	0.814
763.75	0.808
763.94	0.791
764.12	0.794
764.30	0.823
764.48	0.828
764.66	0.790
764.84	0.788
765.02	0.833
765.20	0.842
765.38	0.817
765.56	0.823
765.74	0.872
765.92	0.870
766.10	0.875
766.28	0.867
766.46	0.899
766.65	0.897
766.83	0.881
767.01	0.859
767.19	0.868
767.37	0.871
767.55	0.855
767.73	0.832
767.91	0.839
768.09	0.825
768.27	0.812
768.45	0.802
768.63	0.808
768.81	0.810
768.99	0.783
769.17	0.809
769.35	0.827
769.53	0.822
769.71	0.800
769.89	0.808
770.07	0.816
770.25	0.800
770.43	0.774
770.61	0.801
770.79	0.808
770.97	0.816
771.15	0.781
771.33	0.783
771.51	0.790
771.69	0.800
771.87	0.809
772.05	0.811
772.24	0.818
772.42	0.831
772.60	0.806
772.78	0.874
772.96	0.907
773.14	0.903
773.32	0.879
773.49	0.889
773.67	0.887
773.85	0.866
774.03	0.854
774.21	0.893
774.39	0.906
774.57	0.931
774.75	0.846
774.93	0.843
775.11	0.871
775.29	0.876
775.47	0.873
775.65	0.888
775.83	0.908
776.01	0.935
776.19	0.878
776.37	0.878
776.55	0.877
776.73	0.870
776.91	0.861
777.09	0.839
777.27	0.837
777.45	0.825
777.63	0.798
777.81	0.795
777.99	0.781
778.17	0.782
778.35	0.759
778.53	0.748
778.71	0.758
778.89	0.744
779.07	0.730
779.24	0.738
779.42	0.738
779.60	0.757
779.78	0.752
779.96	0.758
780.14	0.768
780.32	0.792
780.50	0.773
780.68	0.770
780.86	0.763
781.04	0.785
781.22	0.788
781.40	0.802
781.58	0.792
781.75	0.784
781.93	0.765
782.11	0.762
782.29	0.746
782.47	0.747
782.65	0.734
782.83	0.766
783.01	0.761
783.19	0.752
783.37	0.735
783.55	0.741
783.72	0.762
783.90	0.772
784.08	0.763
784.26	0.775
784.44	0.794
784.62	0.796
784.80	0.758
784.98	0.763
785.16	0.769
785.33	0.784
785.51	0.767
785.69	0.751
785.87	0.750
786.05	0.762
786.23	0.757
786.41	0.756
786.59	0.765
786.77	0.764
786.94	0.749
787.12	0.752
787.30	0.755
787.48	0.752
787.66	0.740
787.84	0.738
788.02	0.729
788.19	0.728
788.37	0.713
788.55	0.714
788.73	0.714
788.91	0.708
789.09	0.691
789.27	0.680
789.44	0.692
789.62	0.697
789.80	0.707
789.98	0.733
790.16	0.720
790.34	0.716
790.51	0.702
790.69	0.721
790.87	0.728
791.05	0.725
791.23	0.716
791.41	0.719
791.58	0.727
791.76	0.707
791.94	0.673
792.12	0.681
792.30	0.682
792.48	0.680
792.65	0.673
792.83	0.681
793.01	0.690
793.19	0.690
793.37	0.672
793.54	0.667
793.72	0.678
793.90	0.679
794.08	0.668
794.26	0.670
794.43	0.680
794.61	0.664
794.79	0.652
794.97	0.650
795.15	0.654
795.32	0.659
795.50	0.649
795.68	0.644
795.86	0.648
796.04	0.649
796.21	0.642
796.39	0.639
796.57	0.654
796.75	0.664
796.92	0.666
797.10	0.671
797.28	0.673
797.46	0.676
797.64	0.677
797.81	0.685
797.99	0.690
798.17	0.693
798.35	0.688
798.52	0.691
798.70	0.687
798.88	0.694
799.06	0.693
799.23	0.696
799.41	0.705
799.59	0.697
799.77	0.686
799.94	0.693
800.12	0.706
800.30	0.726
800.48	0.725
800.65	0.724
800.83	0.714
801.01	0.706
801.19	0.705
801.36	0.702
801.54	0.707
801.72	0.718
801.90	0.703
802.07	0.698
802.25	0.682
802.43	0.666
802.60	0.662
802.78	0.669
802.96	0.675
803.14	0.668
803.31	0.665
803.49	0.665
803.67	0.661
803.84	0.664
804.02	0.654
804.20	0.657
804.38	0.663
804.55	0.661
804.73	0.646
804.91	0.647
805.08	0.661
805.26	0.657
805.44	0.726
805.61	0.728
805.79	0.731
805.97	0.729
806.15	0.720
806.32	0.715
806.50	0.722
806.68	0.722
806.85	0.710
807.03	0.699
807.21	0.719
807.38	0.645
807.56	0.636
807.74	0.645
807.91	0.652
808.09	0.653
808.27	0.671
808.44	0.700
808.62	0.711
808.80	0.715
808.97	0.709
809.15	0.701
809.33	0.721
809.50	0.727
809.68	0.712
809.86	0.723
810.03	0.758
810.21	0.736
810.39	0.714
810.56	0.719
810.74	0.743
810.91	0.822
811.09	0.811
811.27	0.833
811.44	0.843
811.62	0.845
811.80	0.823
811.97	0.790
812.15	0.791
812.33	0.788
812.50	0.774
812.68	0.763
812.85	0.703
813.03	0.705
813.21	0.671
813.38	0.662
813.56	0.667
813.74	0.680
813.91	0.686
814.09	0.718
814.26	0.711
814.44	0.712
814.62	0.700
814.79	0.706
814.97	0.713
815.14	0.716
815.32	0.720
815.50	0.739
815.67	0.739
815.85	0.731
816.02	0.719
816.20	0.727
816.38	0.745
816.55	0.750
816.73	0.746
816.90	0.757
817.08	0.792
817.26	0.801
817.43	0.776
817.61	0.805
817.78	0.827
817.96	0.805
818.13	0.793
818.31	0.794
818.49	0.811
818.66	0.800
818.84	0.783
819.01	0.762
819.19	0.769
819.36	0.774
819.54	0.740
819.71	0.789
819.89	0.806
820.07	0.818
820.24	0.810
820.42	0.811
820.59	0.838
820.77	0.863
820.94	0.850
821.12	0.871
821.29	0.886
821.47	0.891
821.64	0.816
821.82	0.833
822.00	0.832
822.17	0.830
822.35	0.822
822.52	0.823
822.70	0.813
822.87	0.822
823.05	0.797
823.22	0.814
823.40	0.849
823.57	0.874
823.75	0.850
823.92	0.883
824.10	0.910
824.27	0.957
824.45	0.946
824.62	1.023
824.80	1.058
824.97	1.076
825.15	1.055
825.32	1.072
825.50	1.081
825.67	1.095
825.85	1.063
826.02	1.086
826.20	1.123
826.37	1.317
826.55	1.193
826.72	1.536
826.90	1.747
827.07	1.989
827.25	1.768
827.42	-0.000
827.60	-0.000
827.77	-0.000
827.95	-0.000
828.12	-0.000
828.30	-0.000
828.47	-0.000
828.65	1.870
828.82	2.297
829.00	-0.000
829.17	-0.000
829.34	-0.000
829.52	-0.000
829.69	-0.000
829.87	-0.000
830.04	-0.000
830.22	-0.000
830.39	-0.000
830.57	-0.000
830.74	-0.000
830.92	-0.000
831.09	-0.000
831.26	-0.000
831.44	-0.000
831.61	-0.000
831.79	-0.000
831.96	-0.000
832.14	-0.000
832.31	-0.000
832.49	-0.000
832.66	-0.000
832.83	-0.000
833.01	-0.000
833.18	-0.000
833.36	-0.000
833.53	-0.000
833.70	-0.000
833.88	-0.000
834.05	-0.000
834.23	-0.000
834.40	-0.000
834.58	-0.000
834.75	-0.000
834.92	-0.000
835.10	-0.000
835.27	-0.000
835.45	-0.000
835.62	-0.000
835.79	-0.000
835.97	-0.000
836.14	-0.000
836.32	-0.000
836.49	-0.000
836.66	-0.000
836.84	-0.000
837.01	-0.000
837.18	-0.000
837.36	-0.000
837.53	-0.000
837.71	-0.000
837.88	-0.000
838.05	-0.000
838.23	-0.000
838.40	-0.000
838.58	-0.000
838.75	-0.000
838.92	-0.000
839.10	-0.000
839.27	-0.000
839.44	-0.000
839.62	-0.000
839.79	-0.000
839.96	-0.000
840.14	-0.000
840.31	-0.000
840.48	-0.000
840.66	-0.000
840.83	-0.000
841.01	-0.000
841.18	-0.000
841.35	-0.000
841.53	-0.000
841.70	-0.000
841.87	-0.000
842.05	-0.000
842.22	-0.000
842.39	-0.000
842.57	-0.000
842.74	-0.000
842.91	-0.000
843.09	-0.000
843.26	-0.000
843.43	-0.000
843.60	-0.000
843.78	-0.000
843.95	-0.000
844.12	-0.000
844.30	-0.000
844.47	-0.000
844.64	-0.000
844.82	-0.000
844.99	-0.000
845.16	-0.000
845.34	-0.000
845.51	-0.000
845.68	-0.000
845.85	-0.000
846.03	-0.000
846.20	-0.000
846.37	-0.000
846.55	-0.000
846.72	-0.000
846.89	-0.000
847.06	-0.000
847.24	-0.000
847.41	-0.000
847.58	-0.000
847.76	-0.000
847.93	-0.000
848.10	-0.000
848.27	-0.000
848.45	-0.000
848.62	-0.000
848.79	-0.000
848.97	-0.000
849.14	-0.000
849.31	-0.000
849.48	-0.000
849.66	-0.000
849.83	-0.000
850.00	-0.000
850.17	-0.000
850.35	-0.000
850.52	-0.000
850.69	-0.000
850.86	-0.000
851.04	-0.000
851.21	-0.000
851.38	-0.000
851.55	-0.000
851.72	-0.000
851.90	-0.000
852.07	-0.000
852.24	-0.000
852.41	-0.000
852.59	-0.000
852.76	-0.000
852.93	-0.000
853.10	-0.000
853.28	-0.000
853.45	-0.000
853.62	-0.000
853.79	-0.000
853.96	-0.000
854.14	-0.000
854.31	-0.000
854.48	-0.000
854.65	-0.000
854.82	-0.000
855.00	-0.000
855.17	-0.000
855.34	-0.000
855.51	-0.000
855.68	-0.000
855.86	-0.000
856.03	-0.000
856.20	-0.000
856.37	-0.000
856.54	-0.000
856.72	-0.000
856.89	-0.000
857.06	-0.000
857.23	-0.000
857.40	-0.000
857.57	-0.000
857.75	-0.000
857.92	-0.000
858.09	-0.000
858.26	-0.000
858.43	-0.000
858.60	-0.000
858.78	-0.000
858.95	-0.000
859.12	-0.000
859.29	-0.000
859.46	-0.000
859.63	-0.000
859.81	-0.000
859.98	-0.000
860.15	-0.000
860.32	-0.000
860.49	-0.000
860.66	-0.000
860.83	-0.000
861.01	-0.000
861.18	-0.000
861.35	-0.000
861.52	-0.000
861.69	-0.000
861.86	-0.000
862.03	-0.000
862.21	-0.000
862.38	-0.000
862.55	-0.000
862.72	-0.000
862.89	-0.000
863.06	-0.000
863.23	-0.000
863.40	-0.000
863.58	-0.000
863.75	-0.000
863.92	-0.000
864.09	-0.000
864.26	-0.000
864.43	-0.000
864.60	-0.000
864.77	-0.000
864.94	-0.000
865.11	-0.000
865.29	-0.000
865.46	-0.000
865.63	-0.000
865.80	-0.000
865.97	-0.000
866.14	-0.000
866.31	-0.000
866.48	-0.000
866.65	-0.000
866.82	-0.000
866.99	-0.000
867.16	-0.000
867.34	-0.000
867.51	-0.000
867.68	-0.000
867.85	-0.000
868.02	-0.000
868.19	-0.000
868.36	-0.000
868.53	-0.000
868.70	-0.000
868.87	-0.000
869.04	-0.000
869.21	-0.000
869.38	-0.000
869.55	-0.000
869.72	-0.000
869.89	-0.000
870.06	-0.000
870.24	-0.000
870.41	-0.000
870.58	-0.000
870.75	-0.000
870.92	-0.000
871.09	-0.000
871.26	-0.000
871.43	-0.000
871.60	-0.000
871.77	-0.000
871.94	-0.000
872.11	-0.000
872.28	-0.000
872.45	-0.000
872.62	-0.000
872.79	-0.000
872.96	-0.000
873.13	-0.000
873.30	-0.000
873.47	-0.000
873.64	-0.000
873.81	-0.000
873.98	-0.000
874.15	-0.000
874.32	-0.000
874.49	-0.000
874.66	-0.000
874.83	-0.000
875.00	-0.000
875.17	-0.000
875.34	-0.000
875.51	-0.000
875.68	-0.000
875.85	-0.000
876.02	-0.000
876.19	-0.000
876.36	-0.000
876.53	-0.000
876.70	-0.000
876.87	-0.000
877.04	-0.000
877.21	-0.000
877.38	-0.000
877.55	-0.000
877.72	-0.000
877.89	-0.000
878.06	-0.000
878.23	-0.000
878.39	-0.000
878.56	-0.000
878.73	-0.000
878.90	-0.000
879.07	-0.000
879.24	-0.000
879.41	-0.000
879.58	-0.000
879.75	-0.000
879.92	-0.000
880.09	-0.000
880.26	-0.000
880.43	-0.000
880.60	-0.000
880.77	-0.000
880.94	-0.000
881.11	-0.000
881.27	-0.000
881.44	-0.000
881.61	-0.000
881.78	-0.000
881.95	-0.000
882.12	-0.000
882.29	-0.000
882.46	-0.000
882.63	-0.000
882.80	-0.000
882.97	-0.000
883.14	-0.000
883.30	-0.000
883.47	-0.000
883.64	-0.000
883.81	-0.000
883.98	-0.000
884.15	-0.000
884.32	-0.000
884.49	-0.000
884.66	-0.000
884.82	-0.000
884.99	-0.000
885.16	-0.000
885.33	-0.000
885.50	-0.000
885.67	-0.000
885.84	-0.000
886.01	-0.000
886.17	-0.000
886.34	-0.000
886.51	-0.000
886.68	-0.000
886.85	-0.000
887.02	-0.000
887.19	-0.000
887.36	-0.000
887.52	-0.000
887.69	-0.000
887.86	-0.000
888.03	-0.000
888.20	-0.000
888.37	-0.000
888.54	-0.000
888.70	-0.000
888.87	-0.000
889.04	-0.000
889.21	-0.000
889.38	-0.000
889.55	-0.000
889.71	-0.000
889.88	-0.000
890.05	-0.000
890.22	-0.000
890.39	-0.000
>>>>>End Processed Spectral Data<<<<<
