SpectraSuite Data File
++++++++++++++++++++++++++++++++++++
Date: Fri Jun 19 15:13:48 CEST 2015
User: introlabs
Dark Spectrum Present: Yes
Reference Spectrum Present: Yes
Number of Sampled Component Spectra: 1
Spectrometers: USB4H08886
Integration Time (usec): 745692 (USB4H08886)
Spectra Averaged: 5 (USB4H08886)
Boxcar Smoothing: 5 (USB4H08886)
Correct for Electrical Dark: Yes (USB4H08886)
Strobe/Lamp Enabled: No (USB4H08886)
Correct for Detector Non-linearity: Yes (USB4H08886)
Correct for Stray Light: Yes (USB4H08886)
Number of Pixels in Processed Spectrum: 3648
>>>>>Begin Processed Spectral Data<<<<<
178.14	-0.000
178.36	-0.000
178.57	-0.000
178.79	-0.000
179.01	-0.000
179.22	-0.000
179.44	-0.000
179.65	-0.000
179.87	-0.000
180.08	-0.000
180.30	-0.000
180.52	-0.000
180.73	-0.000
180.95	-0.000
181.16	-0.000
181.38	-0.000
181.59	-0.000
181.81	-0.000
182.03	-0.000
182.24	-0.000
182.46	-0.000
182.67	-0.000
182.89	-0.000
183.10	-0.000
183.32	-0.000
183.54	-0.000
183.75	-0.000
183.97	-0.000
184.18	-0.000
184.40	-0.000
184.61	-0.000
184.83	-0.000
185.04	-0.000
185.26	-0.000
185.48	-0.000
185.69	-0.000
185.91	-0.000
186.12	-0.000
186.34	-0.000
186.55	-0.000
186.77	-0.000
186.98	-0.000
187.20	-0.000
187.42	-0.000
187.63	-0.000
187.85	-0.000
188.06	-0.000
188.28	-0.000
188.49	-0.000
188.71	-0.000
188.92	-0.000
189.14	-0.000
189.36	-0.000
189.57	-0.000
189.79	-0.000
190.00	-0.000
190.22	-0.000
190.43	-0.000
190.65	-0.000
190.86	-0.000
191.08	-0.000
191.29	-0.000
191.51	-0.000
191.72	-0.000
191.94	-0.000
192.16	-0.000
192.37	-0.000
192.59	-0.000
192.80	-0.000
193.02	-0.000
193.23	-0.000
193.45	-0.000
193.66	-0.000
193.88	-0.000
194.09	-0.000
194.31	-0.000
194.52	-0.000
194.74	-0.000
194.95	-0.000
195.17	-0.000
195.38	-0.000
195.60	-0.000
195.81	-0.000
196.03	-0.000
196.25	-0.000
196.46	-0.000
196.68	-0.000
196.89	-0.000
197.11	-0.000
197.32	-0.000
197.54	-0.000
197.75	-0.000
197.97	-0.000
198.18	-0.000
198.40	-0.000
198.61	-0.000
198.83	-0.000
199.04	-0.000
199.26	-0.000
199.47	-0.000
199.69	-0.000
199.90	-0.000
200.12	-0.000
200.33	-0.000
200.55	-0.000
200.76	-0.000
200.98	-0.000
201.19	-0.000
201.41	-0.000
201.62	-0.000
201.84	-0.000
202.05	-0.000
202.27	-0.000
202.48	-0.000
202.70	-0.000
202.91	-0.000
203.13	-0.000
203.34	-0.000
203.56	-0.000
203.77	-0.000
203.99	-0.000
204.20	-0.000
204.42	-0.000
204.63	-0.000
204.85	-0.000
205.06	-0.000
205.28	-0.000
205.49	-0.000
205.71	-0.000
205.92	-0.000
206.14	-0.000
206.35	-0.000
206.56	-0.000
206.78	-0.000
206.99	-0.000
207.21	-0.000
207.42	-0.000
207.64	-0.000
207.85	-0.000
208.07	-0.000
208.28	-0.000
208.50	-0.000
208.71	-0.000
208.93	-0.000
209.14	-0.000
209.36	-0.000
209.57	-0.000
209.79	-0.000
210.00	-0.000
210.22	-0.000
210.43	-0.000
210.64	-0.000
210.86	-0.000
211.07	-0.000
211.29	-0.000
211.50	-0.000
211.72	-0.000
211.93	-0.000
212.15	-0.000
212.36	-0.000
212.58	-0.000
212.79	-0.000
213.01	-0.000
213.22	-0.000
213.43	-0.000
213.65	-0.000
213.86	-0.000
214.08	-0.000
214.29	-0.000
214.51	-0.000
214.72	-0.000
214.94	-0.000
215.15	-0.000
215.36	-0.000
215.58	-0.000
215.79	-0.000
216.01	-0.000
216.22	-0.000
216.44	-0.000
216.65	-0.000
216.87	-0.000
217.08	-0.000
217.29	-0.000
217.51	-0.000
217.72	-0.000
217.94	-0.000
218.15	-0.000
218.37	-0.000
218.58	-0.000
218.80	-0.000
219.01	-0.000
219.22	-0.000
219.44	-0.000
219.65	-0.000
219.87	-0.000
220.08	-0.000
220.30	-0.000
220.51	-0.000
220.72	-0.000
220.94	-0.000
221.15	-0.000
221.37	-0.000
221.58	-0.000
221.79	-0.000
222.01	-0.000
222.22	-0.000
222.44	-0.000
222.65	-0.000
222.87	-0.000
223.08	-0.000
223.29	-0.000
223.51	-0.000
223.72	-0.000
223.94	-0.000
224.15	-0.000
224.36	-0.000
224.58	-0.000
224.79	-0.000
225.01	-0.000
225.22	-0.000
225.44	-0.000
225.65	-0.000
225.86	-0.000
226.08	-0.000
226.29	-0.000
226.51	-0.000
226.72	-0.000
226.93	-0.000
227.15	-0.000
227.36	-0.000
227.58	-0.000
227.79	-0.000
228.00	-0.000
228.22	-0.000
228.43	-0.000
228.65	-0.000
228.86	-0.000
229.07	-0.000
229.29	-0.000
229.50	-0.000
229.72	-0.000
229.93	-0.000
230.14	-0.000
230.36	-0.000
230.57	-0.000
230.78	-0.000
231.00	-0.000
231.21	-0.000
231.43	-0.000
231.64	-0.000
231.85	-0.000
232.07	-0.000
232.28	-0.000
232.50	-0.000
232.71	-0.000
232.92	-0.000
233.14	-0.000
233.35	-0.000
233.56	-0.000
233.78	-0.000
233.99	-0.000
234.21	-0.000
234.42	-0.000
234.63	-0.000
234.85	-0.000
235.06	-0.000
235.27	-0.000
235.49	-0.000
235.70	-0.000
235.91	-0.000
236.13	-0.000
236.34	-0.000
236.56	-0.000
236.77	-0.000
236.98	-0.000
237.20	-0.000
237.41	-0.000
237.62	-0.000
237.84	-0.000
238.05	-0.000
238.26	-0.000
238.48	-0.000
238.69	-0.000
238.91	-0.000
239.12	-0.000
239.33	-0.000
239.55	-0.000
239.76	-0.000
239.97	-0.000
240.19	-0.000
240.40	-0.000
240.61	-0.000
240.83	-0.000
241.04	-0.000
241.25	-0.000
241.47	-0.000
241.68	-0.000
241.89	-0.000
242.11	-0.000
242.32	-0.000
242.53	-0.000
242.75	-0.000
242.96	-0.000
243.17	-0.000
243.39	-0.000
243.60	-0.000
243.81	-0.000
244.03	-0.000
244.24	-0.000
244.45	-0.000
244.67	-0.000
244.88	-0.000
245.09	-0.000
245.31	-0.000
245.52	-0.000
245.73	-0.000
245.95	-0.000
246.16	-0.000
246.37	-0.000
246.59	-0.000
246.80	-0.000
247.01	-0.000
247.23	-0.000
247.44	-0.000
247.65	-0.000
247.87	-0.000
248.08	-0.000
248.29	-0.000
248.51	-0.000
248.72	-0.000
248.93	-0.000
249.15	-0.000
249.36	-0.000
249.57	-0.000
249.78	-0.000
250.00	-0.000
250.21	-0.000
250.42	-0.000
250.64	-0.000
250.85	-0.000
251.06	-0.000
251.28	-0.000
251.49	-0.000
251.70	-0.000
251.92	-0.000
252.13	-0.000
252.34	-0.000
252.55	-0.000
252.77	-0.000
252.98	-0.000
253.19	-0.000
253.41	-0.000
253.62	-0.000
253.83	-0.000
254.05	-0.000
254.26	-0.000
254.47	-0.000
254.68	-0.000
254.90	-0.000
255.11	-0.000
255.32	-0.000
255.54	-0.000
255.75	-0.000
255.96	-0.000
256.17	-0.000
256.39	-0.000
256.60	-0.000
256.81	-0.000
257.03	-0.000
257.24	-0.000
257.45	-0.000
257.66	-0.000
257.88	-0.000
258.09	-0.000
258.30	-0.000
258.51	-0.000
258.73	-0.000
258.94	-0.000
259.15	-0.000
259.37	-0.000
259.58	-0.000
259.79	-0.000
260.00	-0.000
260.22	-0.000
260.43	-0.000
260.64	-0.000
260.85	-0.000
261.07	-0.000
261.28	-0.000
261.49	-0.000
261.71	-0.000
261.92	-0.000
262.13	-0.000
262.34	-0.000
262.56	-0.000
262.77	-0.000
262.98	-0.000
263.19	-0.000
263.41	-0.000
263.62	-0.000
263.83	-0.000
264.04	-0.000
264.26	-0.000
264.47	-0.000
264.68	-0.000
264.89	-0.000
265.11	-0.000
265.32	-0.000
265.53	-0.000
265.74	-0.000
265.96	-0.000
266.17	-0.000
266.38	-0.000
266.59	-0.000
266.81	-0.000
267.02	-0.000
267.23	-0.000
267.44	-0.000
267.65	-0.000
267.87	-0.000
268.08	-0.000
268.29	-0.000
268.50	-0.000
268.72	-0.000
268.93	-0.000
269.14	-0.000
269.35	-0.000
269.57	-0.000
269.78	-0.000
269.99	-0.000
270.20	-0.000
270.41	-0.000
270.63	-0.000
270.84	-0.000
271.05	-0.000
271.26	-0.000
271.48	-0.000
271.69	-0.000
271.90	-0.000
272.11	-0.000
272.32	-0.000
272.54	-0.000
272.75	-0.000
272.96	-0.000
273.17	-0.000
273.39	-0.000
273.60	-0.000
273.81	-0.000
274.02	-0.000
274.23	-0.000
274.45	-0.000
274.66	-0.000
274.87	-0.000
275.08	-0.000
275.29	-0.000
275.51	-0.000
275.72	-0.000
275.93	-0.000
276.14	-0.000
276.35	-0.000
276.57	-0.000
276.78	-0.000
276.99	-0.000
277.20	-0.000
277.41	-0.000
277.63	-0.000
277.84	-0.000
278.05	-0.000
278.26	-0.000
278.47	-0.000
278.69	-0.000
278.90	-0.000
279.11	-0.000
279.32	-0.000
279.53	-0.000
279.74	-0.000
279.96	-0.000
280.17	-0.000
280.38	-0.000
280.59	-0.000
280.80	-0.000
281.02	-0.000
281.23	-0.000
281.44	-0.000
281.65	-0.000
281.86	-0.000
282.07	-0.000
282.29	-0.000
282.50	-0.000
282.71	-0.000
282.92	-0.000
283.13	-0.000
283.35	-0.000
283.56	-0.000
283.77	-0.000
283.98	-0.000
284.19	-0.000
284.40	-0.000
284.62	-0.000
284.83	-0.000
285.04	-0.000
285.25	-0.000
285.46	-0.000
285.67	-0.000
285.88	-0.000
286.10	-0.000
286.31	-0.000
286.52	-0.000
286.73	-0.000
286.94	-0.000
287.15	-0.000
287.37	-0.000
287.58	-0.000
287.79	-0.000
288.00	-0.000
288.21	-0.000
288.42	-0.000
288.63	-0.000
288.85	-0.000
289.06	-0.000
289.27	-0.000
289.48	-0.000
289.69	-0.000
289.90	-0.000
290.11	-0.000
290.33	-0.000
290.54	-0.000
290.75	-0.000
290.96	-0.000
291.17	-0.000
291.38	-0.000
291.59	-0.000
291.81	-0.000
292.02	-0.000
292.23	-0.000
292.44	-0.000
292.65	-0.000
292.86	-0.000
293.07	-0.000
293.28	-0.000
293.50	-0.000
293.71	-0.000
293.92	-0.000
294.13	-0.000
294.34	-0.000
294.55	-0.000
294.76	-0.000
294.97	-0.000
295.19	-0.000
295.40	-0.000
295.61	-0.000
295.82	-0.000
296.03	-0.000
296.24	-0.000
296.45	2.230
296.66	1.839
296.87	1.860
297.09	1.919
297.30	2.164
297.51	1.742
297.72	1.706
297.93	1.794
298.14	1.755
298.35	1.719
298.56	1.675
298.77	1.801
298.99	1.775
299.20	1.754
299.41	1.733
299.62	1.679
299.83	1.665
300.04	1.615
300.25	1.602
300.46	1.637
300.67	1.599
300.88	1.565
301.10	1.570
301.31	1.638
301.52	1.574
301.73	1.521
301.94	1.528
302.15	1.544
302.36	1.491
302.57	1.432
302.78	1.442
302.99	1.490
303.20	1.508
303.41	1.417
303.63	1.396
303.84	1.399
304.05	1.393
304.26	1.331
304.47	1.335
304.68	1.332
304.89	1.324
305.10	1.288
305.31	1.271
305.52	1.312
305.73	1.306
305.94	1.272
306.15	1.268
306.37	1.291
306.58	1.299
306.79	1.274
307.00	1.303
307.21	1.340
307.42	1.332
307.63	1.297
307.84	1.264
308.05	1.298
308.26	1.298
308.47	1.273
308.68	1.266
308.89	1.262
309.10	1.259
309.31	1.220
309.52	1.210
309.73	1.222
309.95	1.220
310.16	1.192
310.37	1.183
310.58	1.201
310.79	1.201
311.00	1.199
311.21	1.202
311.42	1.201
311.63	1.195
311.84	1.179
312.05	1.179
312.26	1.198
312.47	1.208
312.68	1.185
312.89	1.164
313.10	1.170
313.31	1.144
313.52	1.149
313.73	1.151
313.94	1.151
314.15	1.135
314.36	1.115
314.57	1.110
314.78	1.098
314.99	1.092
315.21	1.083
315.42	1.089
315.63	1.102
315.84	1.080
316.05	1.067
316.26	1.075
316.47	1.092
316.68	1.088
316.89	1.069
317.10	1.090
317.31	1.094
317.52	1.096
317.73	1.076
317.94	1.074
318.15	1.115
318.36	1.115
318.57	1.099
318.78	1.089
318.99	1.125
319.20	1.120
319.41	1.086
319.62	1.088
319.83	1.097
320.04	1.094
320.25	1.081
320.46	1.047
320.67	1.048
320.88	1.045
321.09	1.032
321.30	1.016
321.51	1.032
321.72	1.029
321.93	1.014
322.14	1.007
322.35	1.032
322.56	1.034
322.77	1.022
322.98	1.032
323.19	1.038
323.40	1.043
323.61	1.024
323.82	1.018
324.03	1.025
324.24	1.021
324.45	1.010
324.66	0.991
324.87	0.986
325.08	0.986
325.29	0.968
325.50	0.961
325.71	0.966
325.92	0.973
326.13	0.959
326.34	0.960
326.55	0.968
326.76	0.967
326.97	0.958
327.18	0.954
327.39	0.978
327.60	0.980
327.80	0.980
328.01	0.976
328.22	0.975
328.43	0.980
328.64	0.967
328.85	0.971
329.06	0.971
329.27	0.969
329.48	0.965
329.69	0.947
329.90	0.955
330.11	0.949
330.32	0.944
330.53	0.939
330.74	0.939
330.95	0.938
331.16	0.925
331.37	0.934
331.58	0.934
331.79	0.933
332.00	0.924
332.21	0.918
332.42	0.922
332.63	0.914
332.83	0.909
333.04	0.911
333.25	0.922
333.46	0.920
333.67	0.906
333.88	0.908
334.09	0.918
334.30	0.916
334.51	0.909
334.72	0.905
334.93	0.908
335.14	0.908
335.35	0.901
335.56	0.896
335.77	0.904
335.98	0.902
336.18	0.896
336.39	0.887
336.60	0.891
336.81	0.890
337.02	0.889
337.23	0.892
337.44	0.893
337.65	0.895
337.86	0.884
338.07	0.880
338.28	0.885
338.49	0.882
338.70	0.878
338.91	0.883
339.11	0.889
339.32	0.885
339.53	0.874
339.74	0.872
339.95	0.868
340.16	0.867
340.37	0.860
340.58	0.858
340.79	0.861
341.00	0.860
341.21	0.850
341.41	0.850
341.62	0.851
341.83	0.851
342.04	0.847
342.25	0.857
342.46	0.861
342.67	0.860
342.88	0.855
343.09	0.853
343.30	0.859
343.50	0.863
343.71	0.853
343.92	0.851
344.13	0.856
344.34	0.855
344.55	0.839
344.76	0.837
344.97	0.842
345.18	0.841
345.38	0.839
345.59	0.834
345.80	0.833
346.01	0.833
346.22	0.828
346.43	0.822
346.64	0.829
346.85	0.829
347.06	0.822
347.26	0.822
347.47	0.826
347.68	0.821
347.89	0.817
348.10	0.812
348.31	0.818
348.52	0.818
348.73	0.817
348.93	0.814
349.14	0.816
349.35	0.816
349.56	0.810
349.77	0.805
349.98	0.810
350.19	0.809
350.39	0.805
350.60	0.800
350.81	0.814
351.02	0.812
351.23	0.808
351.44	0.810
351.65	0.811
351.86	0.809
352.06	0.808
352.27	0.808
352.48	0.808
352.69	0.807
352.90	0.802
353.11	0.790
353.31	0.796
353.52	0.792
353.73	0.786
353.94	0.787
354.15	0.792
354.36	0.792
354.57	0.784
354.77	0.786
354.98	0.785
355.19	0.785
355.40	0.784
355.61	0.790
355.82	0.793
356.02	0.793
356.23	0.787
356.44	0.788
356.65	0.792
356.86	0.792
357.07	0.786
357.27	0.790
357.48	0.792
357.69	0.787
357.90	0.773
358.11	0.770
358.32	0.772
358.52	0.774
358.73	0.765
358.94	0.768
359.15	0.773
359.36	0.773
359.56	0.768
359.77	0.765
359.98	0.772
360.19	0.771
360.40	0.769
360.61	0.770
360.81	0.768
361.02	0.768
361.23	0.760
361.44	0.758
361.65	0.759
361.85	0.758
362.06	0.757
362.27	0.758
362.48	0.759
362.69	0.761
362.89	0.755
363.10	0.756
363.31	0.760
363.52	0.764
363.73	0.759
363.93	0.758
364.14	0.760
364.35	0.761
364.56	0.752
364.77	0.752
364.97	0.754
365.18	0.754
365.39	0.749
365.60	0.746
365.81	0.746
366.01	0.746
366.22	0.744
366.43	0.743
366.64	0.744
366.84	0.750
367.05	0.747
367.26	0.747
367.47	0.749
367.68	0.749
367.88	0.746
368.09	0.744
368.30	0.745
368.51	0.745
368.71	0.745
368.92	0.749
369.13	0.747
369.34	0.747
369.55	0.746
369.75	0.747
369.96	0.753
370.17	0.753
370.38	0.750
370.58	0.750
370.79	0.755
371.00	0.754
371.21	0.745
371.41	0.750
371.62	0.753
371.83	0.749
372.04	0.746
372.24	0.740
372.45	0.740
372.66	0.740
372.87	0.738
373.07	0.734
373.28	0.734
373.49	0.738
373.70	0.729
373.90	0.729
374.11	0.738
374.32	0.738
374.53	0.736
374.73	0.737
374.94	0.739
375.15	0.738
375.36	0.737
375.56	0.746
375.77	0.746
375.98	0.746
376.19	0.743
376.39	0.737
376.60	0.740
376.81	0.741
377.02	0.739
377.22	0.739
377.43	0.739
377.64	0.739
377.84	0.731
378.05	0.735
378.26	0.741
378.47	0.741
378.67	0.738
378.88	0.735
379.09	0.737
379.30	0.735
379.50	0.733
379.71	0.736
379.92	0.738
380.12	0.737
380.33	0.728
380.54	0.725
380.75	0.732
380.95	0.731
381.16	0.729
381.37	0.729
381.57	0.731
381.78	0.731
381.99	0.731
382.20	0.730
382.40	0.733
382.61	0.734
382.82	0.731
383.02	0.723
383.23	0.727
383.44	0.727
383.64	0.725
383.85	0.728
384.06	0.730
384.27	0.728
384.47	0.726
384.68	0.727
384.89	0.732
385.09	0.732
385.30	0.733
385.51	0.731
385.71	0.735
385.92	0.735
386.13	0.734
386.33	0.736
386.54	0.736
386.75	0.735
386.95	0.731
387.16	0.726
387.37	0.728
387.58	0.728
387.78	0.727
387.99	0.725
388.20	0.727
388.40	0.724
388.61	0.720
388.82	0.724
389.02	0.726
389.23	0.725
389.44	0.725
389.64	0.725
389.85	0.736
390.06	0.735
390.26	0.736
390.47	0.735
390.68	0.738
390.88	0.736
391.09	0.732
391.30	0.732
391.50	0.732
391.71	0.732
391.92	0.728
392.12	0.721
392.33	0.722
392.53	0.720
392.74	0.721
392.95	0.720
393.15	0.723
393.36	0.725
393.57	0.724
393.77	0.726
393.98	0.728
394.19	0.729
394.39	0.729
394.60	0.730
394.81	0.733
395.01	0.731
395.22	0.729
395.43	0.730
395.63	0.735
395.84	0.736
396.04	0.732
396.25	0.734
396.46	0.735
396.66	0.734
396.87	0.731
397.08	0.728
397.28	0.731
397.49	0.732
397.69	0.728
397.90	0.723
398.11	0.725
398.31	0.725
398.52	0.722
398.73	0.724
398.93	0.723
399.14	0.722
399.34	0.721
399.55	0.722
399.76	0.722
399.96	0.722
400.17	0.721
400.37	0.719
400.58	0.725
400.79	0.727
400.99	0.724
401.20	0.730
401.41	0.732
401.61	0.733
401.82	0.738
402.02	0.737
402.23	0.739
402.44	0.739
402.64	0.739
402.85	0.734
403.05	0.733
403.26	0.732
403.47	0.725
403.67	0.725
403.88	0.726
404.08	0.719
404.29	0.719
404.50	0.717
404.70	0.718
404.91	0.717
405.11	0.714
405.32	0.715
405.52	0.715
405.73	0.715
405.94	0.713
406.14	0.716
406.35	0.718
406.55	0.718
406.76	0.716
406.97	0.717
407.17	0.719
407.38	0.719
407.58	0.717
407.79	0.720
407.99	0.722
408.20	0.723
408.41	0.719
408.61	0.717
408.82	0.719
409.02	0.719
409.23	0.717
409.43	0.715
409.64	0.717
409.84	0.717
410.05	0.714
410.26	0.712
410.46	0.711
410.67	0.710
410.87	0.712
411.08	0.714
411.28	0.714
411.49	0.716
411.69	0.714
411.90	0.715
412.11	0.717
412.31	0.718
412.52	0.717
412.72	0.718
412.93	0.719
413.13	0.717
413.34	0.714
413.54	0.716
413.75	0.718
413.95	0.718
414.16	0.715
414.37	0.718
414.57	0.718
414.78	0.720
414.98	0.718
415.19	0.719
415.39	0.715
415.60	0.717
415.80	0.716
416.01	0.714
416.21	0.716
416.42	0.715
416.62	0.710
416.83	0.710
417.03	0.710
417.24	0.710
417.44	0.708
417.65	0.708
417.86	0.708
418.06	0.706
418.27	0.704
418.47	0.706
418.68	0.707
418.88	0.707
419.09	0.706
419.29	0.706
419.50	0.707
419.70	0.707
419.91	0.705
420.11	0.703
420.32	0.705
420.52	0.705
420.73	0.704
420.93	0.705
421.14	0.706
421.34	0.705
421.55	0.702
421.75	0.702
421.96	0.702
422.16	0.702
422.37	0.702
422.57	0.699
422.78	0.700
422.98	0.697
423.19	0.694
423.39	0.692
423.60	0.696
423.80	0.697
424.01	0.695
424.21	0.698
424.42	0.699
424.62	0.698
424.83	0.698
425.03	0.698
425.23	0.700
425.44	0.700
425.64	0.701
425.85	0.700
426.05	0.701
426.26	0.701
426.46	0.698
426.67	0.697
426.87	0.702
427.08	0.702
427.28	0.700
427.49	0.700
427.69	0.701
427.90	0.699
428.10	0.696
428.31	0.696
428.51	0.698
428.71	0.697
428.92	0.698
429.12	0.695
429.33	0.696
429.53	0.700
429.74	0.705
429.94	0.705
430.15	0.704
430.35	0.704
430.56	0.700
430.76	0.700
430.96	0.700
431.17	0.697
431.37	0.694
431.58	0.692
431.78	0.689
431.99	0.682
432.19	0.684
432.40	0.685
432.60	0.686
432.80	0.688
433.01	0.686
433.21	0.686
433.42	0.688
433.62	0.689
433.83	0.689
434.03	0.691
434.23	0.693
434.44	0.692
434.64	0.690
434.85	0.696
435.05	0.698
435.26	0.698
435.46	0.697
435.66	0.696
435.87	0.696
436.07	0.696
436.28	0.692
436.48	0.690
436.69	0.689
436.89	0.689
437.09	0.683
437.30	0.681
437.50	0.681
437.71	0.693
437.91	0.692
438.11	0.693
438.32	0.697
438.52	0.697
438.73	0.696
438.93	0.695
439.13	0.694
439.34	0.698
439.54	0.697
439.75	0.696
439.95	0.686
440.15	0.691
440.36	0.689
440.56	0.686
440.77	0.687
440.97	0.687
441.17	0.686
441.38	0.687
441.58	0.684
441.79	0.683
441.99	0.681
442.19	0.680
442.40	0.678
442.60	0.678
442.81	0.675
443.01	0.675
443.21	0.676
443.42	0.675
443.62	0.674
443.82	0.673
444.03	0.675
444.23	0.674
444.44	0.675
444.64	0.674
444.84	0.675
445.05	0.674
445.25	0.673
445.45	0.673
445.66	0.675
445.86	0.674
446.06	0.675
446.27	0.674
446.47	0.678
446.68	0.676
446.88	0.675
447.08	0.674
447.29	0.676
447.49	0.676
447.69	0.675
447.90	0.674
448.10	0.678
448.30	0.675
448.51	0.676
448.71	0.674
448.91	0.676
449.12	0.675
449.32	0.676
449.52	0.674
449.73	0.677
449.93	0.677
450.14	0.677
450.34	0.676
450.54	0.678
450.75	0.675
450.95	0.674
451.15	0.674
451.36	0.676
451.56	0.673
451.76	0.673
451.97	0.670
452.17	0.670
452.37	0.669
452.58	0.666
452.78	0.665
452.98	0.668
453.19	0.667
453.39	0.668
453.59	0.667
453.79	0.668
454.00	0.668
454.20	0.667
454.40	0.667
454.61	0.669
454.81	0.670
455.01	0.668
455.22	0.669
455.42	0.670
455.62	0.668
455.83	0.668
456.03	0.670
456.23	0.672
456.44	0.673
456.64	0.672
456.84	0.672
457.04	0.672
457.25	0.671
457.45	0.668
457.65	0.667
457.86	0.667
458.06	0.666
458.26	0.662
458.47	0.661
458.67	0.662
458.87	0.662
459.07	0.659
459.28	0.661
459.48	0.664
459.68	0.664
459.89	0.663
460.09	0.662
460.29	0.663
460.49	0.664
460.70	0.663
460.90	0.662
461.10	0.663
461.31	0.663
461.51	0.660
461.71	0.662
461.91	0.663
462.12	0.663
462.32	0.663
462.52	0.663
462.72	0.667
462.93	0.667
463.13	0.666
463.33	0.667
463.53	0.668
463.74	0.668
463.94	0.664
464.14	0.665
464.35	0.666
464.55	0.666
464.75	0.664
464.95	0.661
465.16	0.663
465.36	0.662
465.56	0.661
465.76	0.660
465.97	0.660
466.17	0.660
466.37	0.658
466.57	0.659
466.78	0.659
466.98	0.659
467.18	0.657
467.38	0.656
467.59	0.657
467.79	0.659
467.99	0.658
468.19	0.659
468.39	0.662
468.60	0.662
468.80	0.661
469.00	0.662
469.20	0.663
469.41	0.664
469.61	0.663
469.81	0.664
470.01	0.663
470.22	0.663
470.42	0.661
470.62	0.660
470.82	0.661
471.02	0.661
471.23	0.658
471.43	0.659
471.63	0.661
471.83	0.660
472.04	0.659
472.24	0.658
472.44	0.663
472.64	0.663
472.84	0.661
473.05	0.660
473.25	0.662
473.45	0.662
473.65	0.660
473.85	0.661
474.06	0.662
474.26	0.662
474.46	0.663
474.66	0.659
474.86	0.660
475.07	0.660
475.27	0.658
475.47	0.655
475.67	0.656
475.87	0.658
476.08	0.654
476.28	0.655
476.48	0.657
476.68	0.655
476.88	0.653
477.09	0.654
477.29	0.656
477.49	0.657
477.69	0.656
477.89	0.657
478.09	0.656
478.30	0.658
478.50	0.655
478.70	0.654
478.90	0.655
479.10	0.657
479.31	0.658
479.51	0.656
479.71	0.656
479.91	0.656
480.11	0.656
480.31	0.656
480.52	0.655
480.72	0.655
480.92	0.654
481.12	0.652
481.32	0.650
481.52	0.648
481.72	0.648
481.93	0.651
482.13	0.652
482.33	0.651
482.53	0.649
482.73	0.650
482.93	0.652
483.14	0.652
483.34	0.651
483.54	0.652
483.74	0.651
483.94	0.651
484.14	0.647
484.34	0.646
484.55	0.647
484.75	0.647
484.95	0.645
485.15	0.644
485.35	0.644
485.55	0.644
485.75	0.641
485.96	0.642
486.16	0.643
486.36	0.642
486.56	0.641
486.76	0.641
486.96	0.641
487.16	0.640
487.36	0.638
487.57	0.637
487.77	0.638
487.97	0.638
488.17	0.637
488.37	0.636
488.57	0.636
488.77	0.636
488.97	0.635
489.18	0.634
489.38	0.636
489.58	0.637
489.78	0.637
489.98	0.637
490.18	0.636
490.38	0.637
490.58	0.636
490.78	0.637
490.98	0.639
491.19	0.639
491.39	0.639
491.59	0.637
491.79	0.640
491.99	0.640
492.19	0.640
492.39	0.643
492.59	0.643
492.79	0.645
492.99	0.645
493.20	0.645
493.40	0.646
493.60	0.647
493.80	0.646
494.00	0.644
494.20	0.644
494.40	0.643
494.60	0.641
494.80	0.645
495.00	0.644
495.20	0.642
495.40	0.641
495.61	0.643
495.81	0.642
496.01	0.645
496.21	0.646
496.41	0.646
496.61	0.646
496.81	0.645
497.01	0.640
497.21	0.639
497.41	0.640
497.61	0.640
497.81	0.637
498.01	0.638
498.21	0.636
498.41	0.634
498.61	0.634
498.82	0.636
499.02	0.638
499.22	0.639
499.42	0.638
499.62	0.639
499.82	0.640
500.02	0.641
500.22	0.640
500.42	0.642
500.62	0.643
500.82	0.643
501.02	0.641
501.22	0.641
501.42	0.641
501.62	0.643
501.82	0.642
502.02	0.642
502.22	0.641
502.42	0.642
502.62	0.639
502.82	0.640
503.02	0.640
503.22	0.640
503.42	0.638
503.63	0.638
503.83	0.636
504.03	0.635
504.23	0.634
504.43	0.634
504.63	0.635
504.83	0.635
505.03	0.634
505.23	0.635
505.43	0.637
505.63	0.638
505.83	0.638
506.03	0.639
506.23	0.641
506.43	0.642
506.63	0.641
506.83	0.640
507.03	0.642
507.23	0.642
507.43	0.640
507.63	0.640
507.83	0.640
508.03	0.640
508.23	0.639
508.43	0.637
508.63	0.639
508.83	0.639
509.03	0.641
509.23	0.639
509.43	0.640
509.63	0.640
509.83	0.638
510.03	0.641
510.23	0.643
510.43	0.643
510.63	0.644
510.83	0.644
511.03	0.645
511.23	0.643
511.43	0.643
511.63	0.644
511.83	0.646
512.03	0.647
512.22	0.644
512.42	0.643
512.62	0.645
512.82	0.644
513.02	0.644
513.22	0.643
513.42	0.645
513.62	0.648
513.82	0.646
514.02	0.646
514.22	0.647
514.42	0.647
514.62	0.648
514.82	0.648
515.02	0.651
515.22	0.654
515.42	0.653
515.62	0.655
515.82	0.654
516.02	0.655
516.22	0.655
516.42	0.656
516.62	0.657
516.82	0.659
517.01	0.656
517.21	0.655
517.41	0.658
517.61	0.658
517.81	0.655
518.01	0.654
518.21	0.654
518.41	0.652
518.61	0.651
518.81	0.652
519.01	0.652
519.21	0.652
519.41	0.652
519.61	0.647
519.81	0.649
520.00	0.649
520.20	0.649
520.40	0.652
520.60	0.653
520.80	0.653
521.00	0.653
521.20	0.653
521.40	0.658
521.60	0.658
521.80	0.657
522.00	0.657
522.20	0.660
522.39	0.659
522.59	0.657
522.79	0.658
522.99	0.661
523.19	0.659
523.39	0.657
523.59	0.656
523.79	0.659
523.99	0.661
524.19	0.660
524.38	0.658
524.58	0.659
524.78	0.659
524.98	0.657
525.18	0.660
525.38	0.660
525.58	0.661
525.78	0.659
525.98	0.657
526.18	0.657
526.37	0.657
526.57	0.659
526.77	0.659
526.97	0.660
527.17	0.660
527.37	0.657
527.57	0.659
527.77	0.660
527.96	0.660
528.16	0.659
528.36	0.660
528.56	0.661
528.76	0.659
528.96	0.658
529.16	0.660
529.36	0.663
529.55	0.662
529.75	0.659
529.95	0.660
530.15	0.662
530.35	0.665
530.55	0.662
530.75	0.663
530.94	0.665
531.14	0.664
531.34	0.663
531.54	0.662
531.74	0.664
531.94	0.667
532.13	0.666
532.33	0.667
532.53	0.666
532.73	0.665
532.93	0.663
533.13	0.664
533.33	0.664
533.52	0.664
533.72	0.667
533.92	0.665
534.12	0.664
534.32	0.664
534.52	0.662
534.71	0.663
534.91	0.666
535.11	0.667
535.31	0.665
535.51	0.667
535.71	0.669
535.90	0.667
536.10	0.668
536.30	0.669
536.50	0.669
536.70	0.670
536.89	0.668
537.09	0.667
537.29	0.668
537.49	0.670
537.69	0.668
537.89	0.668
538.08	0.667
538.28	0.666
538.48	0.667
538.68	0.668
538.88	0.670
539.07	0.670
539.27	0.668
539.47	0.667
539.67	0.667
539.87	0.668
540.06	0.666
540.26	0.667
540.46	0.669
540.66	0.666
540.86	0.664
541.05	0.664
541.25	0.666
541.45	0.666
541.65	0.664
541.84	0.666
542.04	0.667
542.24	0.668
542.44	0.667
542.64	0.668
542.83	0.671
543.03	0.671
543.23	0.669
543.43	0.670
543.62	0.672
543.82	0.672
544.02	0.671
544.22	0.671
544.42	0.674
544.61	0.675
544.81	0.672
545.01	0.671
545.21	0.673
545.40	0.673
545.60	0.671
545.80	0.674
546.00	0.674
546.19	0.673
546.39	0.672
546.59	0.669
546.79	0.670
546.98	0.670
547.18	0.670
547.38	0.670
547.58	0.673
547.77	0.673
547.97	0.670
548.17	0.672
548.37	0.672
548.56	0.672
548.76	0.672
548.96	0.675
549.16	0.677
549.35	0.677
549.55	0.675
549.75	0.674
549.95	0.677
550.14	0.678
550.34	0.677
550.54	0.682
550.73	0.685
550.93	0.686
551.13	0.682
551.33	0.681
551.52	0.681
551.72	0.682
551.92	0.681
552.12	0.682
552.31	0.682
552.51	0.682
552.71	0.677
552.90	0.676
553.10	0.676
553.30	0.676
553.50	0.675
553.69	0.677
553.89	0.677
554.09	0.677
554.28	0.674
554.48	0.675
554.68	0.677
554.87	0.677
555.07	0.675
555.27	0.675
555.47	0.677
555.66	0.679
555.86	0.677
556.06	0.679
556.25	0.680
556.45	0.687
556.65	0.686
556.84	0.689
557.04	0.691
557.24	0.693
557.43	0.692
557.63	0.695
557.83	0.697
558.02	0.697
558.22	0.701
558.42	0.702
558.61	0.695
558.81	0.696
559.01	0.692
559.21	0.692
559.40	0.694
559.60	0.694
559.80	0.690
559.99	0.692
560.19	0.694
560.39	0.688
560.58	0.686
560.78	0.686
560.97	0.689
561.17	0.687
561.37	0.685
561.56	0.685
561.76	0.686
561.96	0.685
562.15	0.682
562.35	0.684
562.55	0.685
562.74	0.685
562.94	0.684
563.14	0.682
563.33	0.683
563.53	0.683
563.73	0.681
563.92	0.683
564.12	0.685
564.31	0.688
564.51	0.685
564.71	0.686
564.90	0.689
565.10	0.690
565.30	0.693
565.49	0.694
565.69	0.696
565.89	0.696
566.08	0.694
566.28	0.696
566.47	0.697
566.67	0.696
566.87	0.694
567.06	0.696
567.26	0.702
567.46	0.698
567.65	0.698
567.85	0.699
568.04	0.703
568.24	0.703
568.44	0.699
568.63	0.698
568.83	0.699
569.02	0.698
569.22	0.693
569.42	0.689
569.61	0.690
569.81	0.689
570.00	0.687
570.20	0.688
570.40	0.688
570.59	0.688
570.79	0.686
570.98	0.684
571.18	0.686
571.38	0.686
571.57	0.683
571.77	0.682
571.96	0.685
572.16	0.683
572.35	0.677
572.55	0.678
572.75	0.676
572.94	0.676
573.14	0.675
573.33	0.675
573.53	0.675
573.73	0.674
573.92	0.672
574.12	0.670
574.31	0.673
574.51	0.674
574.70	0.672
574.90	0.674
575.09	0.676
575.29	0.676
575.49	0.673
575.68	0.674
575.88	0.675
576.07	0.676
576.27	0.674
576.46	0.673
576.66	0.672
576.86	0.671
577.05	0.668
577.25	0.666
577.44	0.668
577.64	0.667
577.83	0.666
578.03	0.667
578.22	0.667
578.42	0.666
578.61	0.664
578.81	0.665
579.00	0.666
579.20	0.665
579.40	0.664
579.59	0.662
579.79	0.663
579.98	0.662
580.18	0.661
580.37	0.661
580.57	0.663
580.76	0.667
580.96	0.666
581.15	0.667
581.35	0.668
581.54	0.668
581.74	0.668
581.93	0.669
582.13	0.670
582.32	0.667
582.52	0.666
582.71	0.665
582.91	0.660
583.10	0.660
583.30	0.659
583.49	0.658
583.69	0.662
583.88	0.663
584.08	0.662
584.27	0.665
584.47	0.668
584.66	0.669
584.86	0.669
585.05	0.671
585.25	0.674
585.44	0.674
585.64	0.673
585.83	0.669
586.03	0.669
586.22	0.667
586.42	0.663
586.61	0.665
586.81	0.666
587.00	0.665
587.20	0.662
587.39	0.663
587.59	0.664
587.78	0.665
587.98	0.666
588.17	0.666
588.37	0.669
588.56	0.670
588.76	0.666
588.95	0.667
589.15	0.671
589.34	0.674
589.54	0.672
589.73	0.673
589.92	0.676
590.12	0.676
590.31	0.675
590.51	0.680
590.70	0.682
590.90	0.682
591.09	0.681
591.29	0.679
591.48	0.679
591.68	0.680
591.87	0.679
592.06	0.678
592.26	0.681
592.45	0.680
592.65	0.674
592.84	0.673
593.04	0.675
593.23	0.677
593.43	0.675
593.62	0.674
593.81	0.674
594.01	0.673
594.20	0.671
594.40	0.669
594.59	0.670
594.79	0.671
594.98	0.670
595.17	0.670
595.37	0.671
595.56	0.673
595.76	0.674
595.95	0.676
596.14	0.679
596.34	0.680
596.53	0.680
596.73	0.682
596.92	0.684
597.12	0.687
597.31	0.687
597.50	0.686
597.70	0.688
597.89	0.687
598.09	0.683
598.28	0.684
598.47	0.687
598.67	0.685
598.86	0.681
599.06	0.682
599.25	0.682
599.44	0.680
599.64	0.677
599.83	0.675
600.03	0.677
600.22	0.678
600.41	0.678
600.61	0.676
600.80	0.678
601.00	0.678
601.19	0.675
601.38	0.673
601.58	0.675
601.77	0.676
601.96	0.679
602.16	0.678
602.35	0.687
602.55	0.684
602.74	0.686
602.93	0.687
603.13	0.692
603.32	0.694
603.51	0.694
603.71	0.698
603.90	0.700
604.09	0.700
604.29	0.697
604.48	0.692
604.68	0.693
604.87	0.691
605.06	0.689
605.26	0.685
605.45	0.685
605.64	0.684
605.84	0.679
606.03	0.678
606.22	0.677
606.42	0.676
606.61	0.673
606.80	0.672
607.00	0.674
607.19	0.673
607.38	0.672
607.58	0.673
607.77	0.675
607.96	0.674
608.16	0.673
608.35	0.677
608.54	0.680
608.74	0.683
608.93	0.688
609.12	0.691
609.32	0.694
609.51	0.697
609.70	0.695
609.90	0.698
610.09	0.702
610.28	0.707
610.48	0.702
610.67	0.703
610.86	0.704
611.06	0.699
611.25	0.697
611.44	0.698
611.64	0.698
611.83	0.702
612.02	0.699
612.21	0.698
612.41	0.696
612.60	0.695
612.79	0.692
612.99	0.692
613.18	0.694
613.37	0.691
613.57	0.688
613.76	0.690
613.95	0.687
614.14	0.686
614.34	0.683
614.53	0.684
614.72	0.686
614.92	0.686
615.11	0.684
615.30	0.680
615.49	0.681
615.69	0.683
615.88	0.680
616.07	0.681
616.26	0.683
616.46	0.684
616.65	0.682
616.84	0.680
617.04	0.681
617.23	0.684
617.42	0.685
617.61	0.688
617.81	0.689
618.00	0.691
618.19	0.689
618.38	0.694
618.58	0.696
618.77	0.697
618.96	0.697
619.15	0.700
619.35	0.702
619.54	0.702
619.73	0.699
619.92	0.701
620.12	0.706
620.31	0.707
620.50	0.701
620.69	0.702
620.89	0.705
621.08	0.705
621.27	0.705
621.46	0.704
621.66	0.707
621.85	0.707
622.04	0.704
622.23	0.704
622.43	0.705
622.62	0.705
622.81	0.704
623.00	0.703
623.19	0.707
623.39	0.705
623.58	0.702
623.77	0.701
623.96	0.703
624.16	0.702
624.35	0.698
624.54	0.700
624.73	0.704
624.92	0.702
625.12	0.700
625.31	0.700
625.50	0.703
625.69	0.703
625.88	0.700
626.08	0.700
626.27	0.701
626.46	0.702
626.65	0.699
626.84	0.698
627.04	0.703
627.23	0.703
627.42	0.699
627.61	0.701
627.80	0.704
628.00	0.704
628.19	0.702
628.38	0.705
628.57	0.707
628.76	0.707
628.96	0.703
629.15	0.705
629.34	0.707
629.53	0.707
629.72	0.702
629.91	0.703
630.11	0.708
630.30	0.709
630.49	0.712
630.68	0.712
630.87	0.714
631.06	0.716
631.26	0.711
631.45	0.713
631.64	0.720
631.83	0.722
632.02	0.720
632.21	0.717
632.41	0.724
632.60	0.718
632.79	0.717
632.98	0.717
633.17	0.718
633.36	0.720
633.55	0.717
633.75	0.714
633.94	0.715
634.13	0.715
634.32	0.714
634.51	0.708
634.70	0.711
634.89	0.711
635.09	0.708
635.28	0.708
635.47	0.708
635.66	0.711
635.85	0.707
636.04	0.709
636.23	0.712
636.43	0.714
636.62	0.712
636.81	0.710
637.00	0.713
637.19	0.716
637.38	0.713
637.57	0.714
637.76	0.715
637.95	0.716
638.15	0.713
638.34	0.710
638.53	0.713
638.72	0.714
638.91	0.711
639.10	0.711
639.29	0.710
639.48	0.711
639.67	0.710
639.87	0.708
640.06	0.714
640.25	0.713
640.44	0.714
640.63	0.715
640.82	0.718
641.01	0.718
641.20	0.717
641.39	0.718
641.58	0.720
641.78	0.719
641.97	0.715
642.16	0.729
642.35	0.728
642.54	0.727
642.73	0.721
642.92	0.720
643.11	0.722
643.30	0.722
643.49	0.719
643.68	0.721
643.87	0.723
644.06	0.723
644.25	0.703
644.45	0.707
644.64	0.708
644.83	0.709
645.02	0.706
645.21	0.706
645.40	0.707
645.59	0.706
645.78	0.702
645.97	0.705
646.16	0.706
646.35	0.706
646.54	0.703
646.73	0.704
646.92	0.705
647.11	0.705
647.30	0.701
647.49	0.703
647.68	0.703
647.88	0.700
648.07	0.694
648.26	0.697
648.45	0.697
648.64	0.694
648.83	0.693
649.02	0.696
649.21	0.705
649.40	0.703
649.59	0.698
649.78	0.698
649.97	0.713
650.16	0.711
650.35	0.705
650.54	0.708
650.73	0.716
650.92	0.712
651.11	0.705
651.30	0.703
651.49	0.708
651.68	0.709
651.87	0.707
652.06	0.696
652.25	0.700
652.44	0.703
652.63	0.702
652.82	0.704
653.01	0.706
653.20	0.704
653.39	0.693
653.58	0.690
653.77	0.689
653.96	0.685
654.15	0.677
654.34	0.676
654.53	0.670
654.72	0.664
654.91	0.654
655.10	0.649
655.29	0.647
655.48	0.645
655.67	0.640
655.86	0.637
656.05	0.635
656.24	0.635
656.43	0.630
656.62	0.629
656.81	0.628
657.00	0.625
657.19	0.621
657.38	0.620
657.57	0.618
657.76	0.620
657.95	0.617
658.14	0.620
658.33	0.621
658.51	0.625
658.70	0.625
658.89	0.627
659.08	0.636
659.27	0.645
659.46	0.646
659.65	0.653
659.84	0.657
660.03	0.661
660.22	0.662
660.41	0.666
660.60	0.666
660.79	0.667
660.98	0.673
661.17	0.672
661.36	0.671
661.55	0.672
661.74	0.671
661.92	0.673
662.11	0.675
662.30	0.674
662.49	0.667
662.68	0.667
662.87	0.671
663.06	0.665
663.25	0.667
663.44	0.667
663.63	0.668
663.82	0.666
664.01	0.662
664.20	0.660
664.38	0.661
664.57	0.662
664.76	0.662
664.95	0.663
665.14	0.667
665.33	0.662
665.52	0.669
665.71	0.672
665.90	0.671
666.09	0.672
666.28	0.670
666.46	0.669
666.65	0.670
666.84	0.667
667.03	0.661
667.22	0.659
667.41	0.661
667.60	0.651
667.79	0.646
667.98	0.649
668.16	0.650
668.35	0.650
668.54	0.646
668.73	0.647
668.92	0.648
669.11	0.648
669.30	0.643
669.49	0.639
669.67	0.640
669.86	0.642
670.05	0.639
670.24	0.636
670.43	0.633
670.62	0.633
670.81	0.627
671.00	0.628
671.18	0.628
671.37	0.628
671.56	0.626
671.75	0.625
671.94	0.622
672.13	0.620
672.32	0.616
672.50	0.616
672.69	0.615
672.88	0.616
673.07	0.611
673.26	0.613
673.45	0.614
673.63	0.613
673.82	0.610
674.01	0.611
674.20	0.611
674.39	0.610
674.58	0.609
674.76	0.609
674.95	0.608
675.14	0.608
675.33	0.605
675.52	0.603
675.71	0.603
675.89	0.603
676.08	0.599
676.27	0.600
676.46	0.600
676.65	0.600
676.84	0.599
677.02	0.601
677.21	0.603
677.40	0.601
677.59	0.599
677.78	0.600
677.96	0.601
678.15	0.601
678.34	0.599
678.53	0.599
678.72	0.599
678.90	0.596
679.09	0.592
679.28	0.589
679.47	0.589
679.66	0.588
679.84	0.585
680.03	0.583
680.22	0.581
680.41	0.583
680.60	0.580
680.78	0.580
680.97	0.582
681.16	0.582
681.35	0.581
681.53	0.581
681.72	0.581
681.91	0.584
682.10	0.582
682.29	0.585
682.47	0.582
682.66	0.580
682.85	0.578
683.04	0.576
683.22	0.575
683.41	0.577
683.60	0.576
683.79	0.577
683.97	0.575
684.16	0.575
684.35	0.571
684.54	0.573
684.72	0.575
684.91	0.575
685.10	0.573
685.29	0.574
685.47	0.572
685.66	0.570
685.85	0.567
686.04	0.566
686.22	0.568
686.41	0.570
686.60	0.567
686.79	0.569
686.97	0.570
687.16	0.571
687.35	0.569
687.54	0.573
687.72	0.577
687.91	0.577
688.10	0.579
688.29	0.578
688.47	0.577
688.66	0.576
688.85	0.573
689.03	0.571
689.22	0.576
689.41	0.576
689.60	0.571
689.78	0.569
689.97	0.569
690.16	0.566
690.34	0.562
690.53	0.562
690.72	0.563
690.91	0.561
691.09	0.559
691.28	0.553
691.47	0.552
691.65	0.551
691.84	0.548
692.03	0.546
692.21	0.545
692.40	0.545
692.59	0.542
692.77	0.541
692.96	0.541
693.15	0.542
693.34	0.539
693.52	0.539
693.71	0.539
693.90	0.541
694.08	0.542
694.27	0.543
694.46	0.552
694.64	0.553
694.83	0.553
695.02	0.552
695.20	0.552
695.39	0.552
695.58	0.552
695.76	0.552
695.95	0.551
696.14	0.550
696.32	0.547
696.51	0.538
696.70	0.538
696.88	0.539
697.07	0.537
697.26	0.539
697.44	0.540
697.63	0.538
697.81	0.536
698.00	0.537
698.19	0.536
698.37	0.536
698.56	0.535
698.75	0.535
698.93	0.534
699.12	0.534
699.31	0.533
699.49	0.532
699.68	0.534
699.87	0.536
700.05	0.536
700.24	0.536
700.42	0.537
700.61	0.537
700.80	0.535
700.98	0.536
701.17	0.537
701.36	0.536
701.54	0.534
701.73	0.536
701.91	0.533
702.10	0.532
702.29	0.530
702.47	0.529
702.66	0.530
702.84	0.532
703.03	0.530
703.22	0.532
703.40	0.531
703.59	0.533
703.77	0.532
703.96	0.533
704.15	0.533
704.33	0.533
704.52	0.533
704.70	0.532
704.89	0.531
705.08	0.530
705.26	0.526
705.45	0.527
705.63	0.525
705.82	0.523
706.00	0.522
706.19	0.522
706.38	0.521
706.56	0.521
706.75	0.520
706.93	0.519
707.12	0.519
707.30	0.520
707.49	0.518
707.68	0.516
707.86	0.515
708.05	0.514
708.23	0.511
708.42	0.512
708.60	0.514
708.79	0.513
708.98	0.512
709.16	0.511
709.35	0.513
709.53	0.516
709.72	0.516
709.90	0.517
710.09	0.519
710.27	0.521
710.46	0.525
710.64	0.524
710.83	0.525
711.02	0.527
711.20	0.526
711.39	0.524
711.57	0.522
711.76	0.523
711.94	0.521
712.13	0.522
712.31	0.522
712.50	0.517
712.68	0.515
712.87	0.516
713.05	0.516
713.24	0.517
713.42	0.516
713.61	0.517
713.79	0.518
713.98	0.518
714.16	0.519
714.35	0.519
714.54	0.520
714.72	0.521
714.91	0.519
715.09	0.524
715.28	0.527
715.46	0.527
715.65	0.526
715.83	0.526
716.02	0.528
716.20	0.525
716.39	0.524
716.57	0.525
716.76	0.526
716.94	0.526
717.12	0.519
717.31	0.520
717.49	0.522
717.68	0.523
717.86	0.523
718.05	0.524
718.23	0.525
718.42	0.527
718.60	0.528
718.79	0.536
718.97	0.538
719.16	0.539
719.34	0.537
719.53	0.537
719.71	0.536
719.90	0.537
720.08	0.534
720.27	0.535
720.45	0.535
720.63	0.533
720.82	0.527
721.00	0.529
721.19	0.532
721.37	0.532
721.56	0.533
721.74	0.536
721.93	0.544
722.11	0.549
722.30	0.549
722.48	0.552
722.66	0.554
722.85	0.554
723.03	0.555
723.22	0.554
723.40	0.556
723.59	0.557
723.77	0.561
723.95	0.555
724.14	0.557
724.32	0.560
724.51	0.559
724.69	0.561
724.88	0.560
725.06	0.559
725.24	0.560
725.43	0.562
725.61	0.563
725.80	0.557
725.98	0.556
726.16	0.553
726.35	0.558
726.53	0.558
726.72	0.556
726.90	0.566
727.09	0.566
727.27	0.571
727.45	0.568
727.64	0.578
727.82	0.586
728.01	0.590
728.19	0.586
728.37	0.591
728.56	0.594
728.74	0.600
728.92	0.589
729.11	0.592
729.29	0.590
729.48	0.591
729.66	0.582
729.84	0.581
730.03	0.585
730.21	0.588
730.40	0.578
730.58	0.580
730.76	0.579
730.95	0.582
731.13	0.583
731.31	0.596
731.50	0.606
731.68	0.608
731.86	0.605
732.05	0.618
732.23	0.619
732.42	0.622
732.60	0.626
732.78	0.631
732.97	0.648
733.15	0.655
733.33	0.642
733.52	0.648
733.70	0.658
733.88	0.668
734.07	0.655
734.25	0.681
734.43	0.690
734.62	0.693
734.80	0.689
734.98	0.681
735.17	0.687
735.35	0.694
735.53	0.684
735.72	0.687
735.90	0.706
736.08	0.724
736.27	0.703
736.45	0.712
736.63	0.722
736.82	0.730
737.00	0.731
737.18	0.740
737.37	0.770
737.55	0.793
737.73	0.786
737.92	0.787
738.10	0.782
738.28	0.800
738.46	0.789
738.65	0.799
738.83	0.817
739.01	0.868
739.20	0.862
739.38	0.844
739.56	0.835
739.75	0.841
739.93	0.812
740.11	0.836
740.29	0.834
740.48	0.838
740.66	0.823
740.84	0.821
741.03	0.781
741.21	0.790
741.39	0.777
741.57	0.789
741.76	0.801
741.94	0.806
742.12	0.774
742.31	0.779
742.49	0.798
742.67	0.818
742.85	0.834
743.04	0.844
743.22	0.851
743.40	0.896
743.58	0.881
743.77	0.901
743.95	0.928
744.13	0.974
744.31	0.959
744.50	0.947
744.68	0.941
744.86	0.911
745.04	0.920
745.23	0.975
745.41	0.959
745.59	0.966
745.77	0.932
745.96	0.928
746.14	0.938
746.32	0.935
746.50	0.931
746.69	0.917
746.87	0.923
747.05	0.911
747.23	0.849
747.42	0.836
747.60	0.854
747.78	0.857
747.96	0.885
748.14	0.843
748.33	0.866
748.51	0.861
748.69	0.856
748.87	0.884
749.06	0.880
749.24	0.872
749.42	0.864
749.60	0.848
749.78	0.854
749.97	0.810
750.15	0.805
750.33	0.809
750.51	0.831
750.69	0.838
750.88	0.843
751.06	0.849
751.24	0.874
751.42	0.862
751.60	0.859
751.79	0.925
751.97	0.967
752.15	0.971
752.33	0.941
752.51	1.002
752.69	1.010
752.88	0.982
753.06	1.027
753.24	1.005
753.42	1.043
753.60	1.197
753.78	1.066
753.97	1.082
754.15	1.095
754.33	1.122
754.51	1.009
754.69	0.996
754.87	1.018
755.06	0.956
755.24	0.957
755.42	0.963
755.60	0.868
755.78	0.880
755.96	0.830
756.15	0.828
756.33	0.830
756.51	0.846
756.69	0.835
756.87	0.805
757.05	0.818
757.23	0.806
757.42	0.778
757.60	0.776
757.78	0.763
757.96	0.763
758.14	0.750
758.32	0.737
758.50	0.746
758.69	0.746
758.87	0.739
759.05	0.741
759.23	0.745
759.41	0.744
759.59	0.737
759.77	0.758
759.95	0.778
760.13	0.822
760.32	0.823
760.50	0.819
760.68	0.841
760.86	0.841
761.04	0.818
761.22	0.822
761.40	0.865
761.58	0.871
761.76	0.844
761.95	0.829
762.13	0.788
762.31	0.787
762.49	0.762
762.67	0.777
762.85	0.787
763.03	0.785
763.21	0.771
763.39	0.752
763.57	0.752
763.75	0.750
763.94	0.738
764.12	0.741
764.30	0.763
764.48	0.767
764.66	0.734
764.84	0.734
765.02	0.767
765.20	0.774
765.38	0.757
765.56	0.762
765.74	0.799
765.92	0.796
766.10	0.800
766.28	0.792
766.46	0.818
766.65	0.818
766.83	0.808
767.01	0.792
767.19	0.799
767.37	0.798
767.55	0.786
767.73	0.766
767.91	0.768
768.09	0.759
768.27	0.749
768.45	0.735
768.63	0.740
768.81	0.742
768.99	0.719
769.17	0.739
769.35	0.753
769.53	0.751
769.71	0.737
769.89	0.742
770.07	0.746
770.25	0.732
770.43	0.713
770.61	0.733
770.79	0.735
770.97	0.744
771.15	0.717
771.33	0.717
771.51	0.719
771.69	0.728
771.87	0.740
772.05	0.745
772.24	0.749
772.42	0.760
772.60	0.741
772.78	0.796
772.96	0.821
773.14	0.816
773.32	0.797
773.49	0.803
773.67	0.799
773.85	0.779
774.03	0.767
774.21	0.797
774.39	0.805
774.57	0.823
774.75	0.762
774.93	0.754
775.11	0.773
775.29	0.782
775.47	0.783
775.65	0.794
775.83	0.806
776.01	0.830
776.19	0.788
776.37	0.791
776.55	0.791
776.73	0.785
776.91	0.784
777.09	0.769
777.27	0.767
777.45	0.755
777.63	0.733
777.81	0.731
777.99	0.715
778.17	0.716
778.35	0.695
778.53	0.684
778.71	0.688
778.89	0.677
779.07	0.670
779.24	0.672
779.42	0.675
779.60	0.692
779.78	0.689
779.96	0.693
780.14	0.699
780.32	0.716
780.50	0.702
780.68	0.703
780.86	0.694
781.04	0.707
781.22	0.714
781.40	0.721
781.58	0.711
781.75	0.705
781.93	0.692
782.11	0.694
782.29	0.682
782.47	0.679
782.65	0.668
782.83	0.693
783.01	0.688
783.19	0.680
783.37	0.670
783.55	0.672
783.72	0.688
783.90	0.700
784.08	0.693
784.26	0.701
784.44	0.722
784.62	0.725
784.80	0.698
784.98	0.705
785.16	0.709
785.33	0.720
785.51	0.710
785.69	0.697
785.87	0.696
786.05	0.706
786.23	0.704
786.41	0.700
786.59	0.704
786.77	0.703
786.94	0.690
787.12	0.694
787.30	0.696
787.48	0.694
787.66	0.686
787.84	0.686
788.02	0.676
788.19	0.674
788.37	0.661
788.55	0.664
788.73	0.663
788.91	0.659
789.09	0.644
789.27	0.634
789.44	0.645
789.62	0.650
789.80	0.658
789.98	0.680
790.16	0.667
790.34	0.664
790.51	0.653
790.69	0.671
790.87	0.676
791.05	0.674
791.23	0.669
791.41	0.668
791.58	0.672
791.76	0.652
791.94	0.627
792.12	0.636
792.30	0.640
792.48	0.638
792.65	0.631
792.83	0.637
793.01	0.643
793.19	0.641
793.37	0.627
793.54	0.625
793.72	0.636
793.90	0.635
794.08	0.625
794.26	0.627
794.43	0.634
794.61	0.619
794.79	0.610
794.97	0.608
795.15	0.612
795.32	0.614
795.50	0.604
795.68	0.598
795.86	0.598
796.04	0.600
796.21	0.592
796.39	0.591
796.57	0.603
796.75	0.608
796.92	0.609
797.10	0.612
797.28	0.615
797.46	0.619
797.64	0.623
797.81	0.630
797.99	0.632
798.17	0.637
798.35	0.633
798.52	0.637
798.70	0.633
798.88	0.642
799.06	0.643
799.23	0.646
799.41	0.651
799.59	0.646
799.77	0.638
799.94	0.647
800.12	0.655
800.30	0.670
800.48	0.670
800.65	0.668
800.83	0.656
801.01	0.649
801.19	0.650
801.36	0.648
801.54	0.649
801.72	0.658
801.90	0.646
802.07	0.641
802.25	0.627
802.43	0.612
802.60	0.611
802.78	0.617
802.96	0.622
803.14	0.614
803.31	0.612
803.49	0.614
803.67	0.608
803.84	0.612
804.02	0.606
804.20	0.609
804.38	0.614
804.55	0.612
804.73	0.602
804.91	0.602
805.08	0.613
805.26	0.609
805.44	0.670
805.61	0.674
805.79	0.672
805.97	0.671
806.15	0.663
806.32	0.660
806.50	0.665
806.68	0.664
806.85	0.654
807.03	0.646
807.21	0.662
807.38	0.599
807.56	0.590
807.74	0.600
807.91	0.604
808.09	0.607
808.27	0.623
808.44	0.647
808.62	0.655
808.80	0.657
808.97	0.652
809.15	0.648
809.33	0.661
809.50	0.667
809.68	0.655
809.86	0.663
810.03	0.691
810.21	0.675
810.39	0.660
810.56	0.667
810.74	0.690
810.91	0.760
811.09	0.750
811.27	0.770
811.44	0.775
811.62	0.780
811.80	0.763
811.97	0.735
812.15	0.735
812.33	0.728
812.50	0.713
812.68	0.702
812.85	0.648
813.03	0.650
813.21	0.623
813.38	0.618
813.56	0.619
813.74	0.630
813.91	0.640
814.09	0.665
814.26	0.658
814.44	0.662
814.62	0.654
814.79	0.656
814.97	0.658
815.14	0.660
815.32	0.668
815.50	0.683
815.67	0.685
815.85	0.676
816.02	0.667
816.20	0.674
816.38	0.688
816.55	0.692
816.73	0.694
816.90	0.702
817.08	0.727
817.26	0.727
817.43	0.709
817.61	0.733
817.78	0.748
817.96	0.729
818.13	0.721
818.31	0.720
818.49	0.732
818.66	0.720
818.84	0.709
819.01	0.691
819.19	0.694
819.36	0.697
819.54	0.668
819.71	0.706
819.89	0.718
820.07	0.726
820.24	0.722
820.42	0.721
820.59	0.739
820.77	0.762
820.94	0.755
821.12	0.775
821.29	0.788
821.47	0.790
821.64	0.733
821.82	0.745
822.00	0.743
822.17	0.740
822.35	0.735
822.52	0.734
822.70	0.723
822.87	0.731
823.05	0.711
823.22	0.718
823.40	0.740
823.57	0.762
823.75	0.748
823.92	0.771
824.10	0.787
824.27	0.826
824.45	0.820
824.62	0.874
824.80	0.890
824.97	0.904
825.15	0.901
825.32	0.917
825.50	0.909
825.67	0.920
825.85	0.897
826.02	0.915
826.20	0.926
826.37	1.035
826.55	0.965
826.72	1.129
826.90	1.182
827.07	1.220
827.25	1.166
827.42	1.288
827.60	1.390
827.77	1.521
827.95	1.493
828.12	1.578
828.30	1.319
828.47	1.411
828.65	1.122
828.82	1.151
829.00	1.185
829.17	1.254
829.34	1.264
829.52	1.283
829.69	-0.000
829.87	-0.000
830.04	-0.000
830.22	-0.000
830.39	-0.000
830.57	-0.000
830.74	-0.000
830.92	-0.000
831.09	-0.000
831.26	-0.000
831.44	-0.000
831.61	-0.000
831.79	-0.000
831.96	-0.000
832.14	-0.000
832.31	-0.000
832.49	-0.000
832.66	-0.000
832.83	-0.000
833.01	-0.000
833.18	-0.000
833.36	-0.000
833.53	-0.000
833.70	-0.000
833.88	-0.000
834.05	-0.000
834.23	-0.000
834.40	-0.000
834.58	-0.000
834.75	-0.000
834.92	-0.000
835.10	-0.000
835.27	-0.000
835.45	-0.000
835.62	-0.000
835.79	-0.000
835.97	-0.000
836.14	-0.000
836.32	-0.000
836.49	-0.000
836.66	-0.000
836.84	-0.000
837.01	-0.000
837.18	-0.000
837.36	-0.000
837.53	-0.000
837.71	-0.000
837.88	-0.000
838.05	-0.000
838.23	-0.000
838.40	-0.000
838.58	-0.000
838.75	-0.000
838.92	-0.000
839.10	-0.000
839.27	-0.000
839.44	-0.000
839.62	-0.000
839.79	-0.000
839.96	-0.000
840.14	-0.000
840.31	-0.000
840.48	-0.000
840.66	-0.000
840.83	-0.000
841.01	-0.000
841.18	-0.000
841.35	-0.000
841.53	-0.000
841.70	-0.000
841.87	-0.000
842.05	-0.000
842.22	-0.000
842.39	-0.000
842.57	-0.000
842.74	-0.000
842.91	-0.000
843.09	-0.000
843.26	-0.000
843.43	-0.000
843.60	-0.000
843.78	-0.000
843.95	-0.000
844.12	-0.000
844.30	-0.000
844.47	-0.000
844.64	-0.000
844.82	-0.000
844.99	-0.000
845.16	-0.000
845.34	-0.000
845.51	-0.000
845.68	-0.000
845.85	-0.000
846.03	-0.000
846.20	-0.000
846.37	-0.000
846.55	-0.000
846.72	-0.000
846.89	-0.000
847.06	-0.000
847.24	-0.000
847.41	-0.000
847.58	-0.000
847.76	-0.000
847.93	-0.000
848.10	-0.000
848.27	-0.000
848.45	-0.000
848.62	-0.000
848.79	-0.000
848.97	-0.000
849.14	-0.000
849.31	-0.000
849.48	-0.000
849.66	-0.000
849.83	-0.000
850.00	-0.000
850.17	-0.000
850.35	-0.000
850.52	-0.000
850.69	-0.000
850.86	-0.000
851.04	-0.000
851.21	-0.000
851.38	-0.000
851.55	-0.000
851.72	-0.000
851.90	-0.000
852.07	-0.000
852.24	-0.000
852.41	-0.000
852.59	-0.000
852.76	-0.000
852.93	-0.000
853.10	-0.000
853.28	-0.000
853.45	-0.000
853.62	-0.000
853.79	-0.000
853.96	-0.000
854.14	-0.000
854.31	-0.000
854.48	-0.000
854.65	-0.000
854.82	-0.000
855.00	-0.000
855.17	-0.000
855.34	-0.000
855.51	-0.000
855.68	-0.000
855.86	-0.000
856.03	-0.000
856.20	-0.000
856.37	-0.000
856.54	-0.000
856.72	-0.000
856.89	-0.000
857.06	-0.000
857.23	-0.000
857.40	-0.000
857.57	-0.000
857.75	-0.000
857.92	-0.000
858.09	-0.000
858.26	-0.000
858.43	-0.000
858.60	-0.000
858.78	-0.000
858.95	-0.000
859.12	-0.000
859.29	-0.000
859.46	-0.000
859.63	-0.000
859.81	-0.000
859.98	-0.000
860.15	-0.000
860.32	-0.000
860.49	-0.000
860.66	-0.000
860.83	-0.000
861.01	-0.000
861.18	-0.000
861.35	-0.000
861.52	-0.000
861.69	-0.000
861.86	-0.000
862.03	-0.000
862.21	-0.000
862.38	-0.000
862.55	-0.000
862.72	-0.000
862.89	-0.000
863.06	-0.000
863.23	-0.000
863.40	-0.000
863.58	-0.000
863.75	-0.000
863.92	-0.000
864.09	-0.000
864.26	-0.000
864.43	-0.000
864.60	-0.000
864.77	-0.000
864.94	-0.000
865.11	-0.000
865.29	-0.000
865.46	-0.000
865.63	-0.000
865.80	-0.000
865.97	-0.000
866.14	-0.000
866.31	-0.000
866.48	-0.000
866.65	-0.000
866.82	-0.000
866.99	-0.000
867.16	-0.000
867.34	-0.000
867.51	-0.000
867.68	-0.000
867.85	-0.000
868.02	-0.000
868.19	-0.000
868.36	-0.000
868.53	-0.000
868.70	-0.000
868.87	-0.000
869.04	-0.000
869.21	-0.000
869.38	-0.000
869.55	-0.000
869.72	-0.000
869.89	-0.000
870.06	-0.000
870.24	-0.000
870.41	-0.000
870.58	-0.000
870.75	-0.000
870.92	-0.000
871.09	-0.000
871.26	-0.000
871.43	-0.000
871.60	-0.000
871.77	-0.000
871.94	-0.000
872.11	-0.000
872.28	-0.000
872.45	-0.000
872.62	-0.000
872.79	-0.000
872.96	-0.000
873.13	-0.000
873.30	-0.000
873.47	-0.000
873.64	-0.000
873.81	-0.000
873.98	-0.000
874.15	-0.000
874.32	-0.000
874.49	-0.000
874.66	-0.000
874.83	-0.000
875.00	-0.000
875.17	-0.000
875.34	-0.000
875.51	-0.000
875.68	-0.000
875.85	-0.000
876.02	-0.000
876.19	-0.000
876.36	-0.000
876.53	-0.000
876.70	-0.000
876.87	-0.000
877.04	-0.000
877.21	-0.000
877.38	-0.000
877.55	-0.000
877.72	-0.000
877.89	-0.000
878.06	-0.000
878.23	-0.000
878.39	-0.000
878.56	-0.000
878.73	-0.000
878.90	-0.000
879.07	-0.000
879.24	-0.000
879.41	-0.000
879.58	-0.000
879.75	-0.000
879.92	-0.000
880.09	-0.000
880.26	-0.000
880.43	-0.000
880.60	-0.000
880.77	-0.000
880.94	-0.000
881.11	-0.000
881.27	-0.000
881.44	-0.000
881.61	-0.000
881.78	-0.000
881.95	-0.000
882.12	-0.000
882.29	-0.000
882.46	-0.000
882.63	-0.000
882.80	-0.000
882.97	-0.000
883.14	-0.000
883.30	-0.000
883.47	-0.000
883.64	-0.000
883.81	-0.000
883.98	-0.000
884.15	-0.000
884.32	-0.000
884.49	-0.000
884.66	-0.000
884.82	-0.000
884.99	-0.000
885.16	-0.000
885.33	-0.000
885.50	-0.000
885.67	-0.000
885.84	-0.000
886.01	-0.000
886.17	-0.000
886.34	-0.000
886.51	-0.000
886.68	-0.000
886.85	-0.000
887.02	-0.000
887.19	-0.000
887.36	-0.000
887.52	-0.000
887.69	-0.000
887.86	-0.000
888.03	-0.000
888.20	-0.000
888.37	-0.000
888.54	-0.000
888.70	-0.000
888.87	-0.000
889.04	-0.000
889.21	-0.000
889.38	-0.000
889.55	-0.000
889.71	-0.000
889.88	-0.000
890.05	-0.000
890.22	-0.000
890.39	-0.000
>>>>>End Processed Spectral Data<<<<<
