SpectraSuite Data File
++++++++++++++++++++++++++++++++++++
Date: Fri Jun 19 12:49:20 CEST 2015
User: introlabs
Dark Spectrum Present: Yes
Reference Spectrum Present: Yes
Number of Sampled Component Spectra: 1
Spectrometers: USB4H08886
Integration Time (usec): 745692 (USB4H08886)
Spectra Averaged: 5 (USB4H08886)
Boxcar Smoothing: 5 (USB4H08886)
Correct for Electrical Dark: Yes (USB4H08886)
Strobe/Lamp Enabled: No (USB4H08886)
Correct for Detector Non-linearity: Yes (USB4H08886)
Correct for Stray Light: Yes (USB4H08886)
Number of Pixels in Processed Spectrum: 3648
>>>>>Begin Processed Spectral Data<<<<<
178.14	-0.000
178.36	-0.000
178.57	-0.000
178.79	-0.000
179.01	-0.000
179.22	-0.000
179.44	-0.000
179.65	-0.000
179.87	-0.000
180.08	-0.000
180.30	-0.000
180.52	-0.000
180.73	-0.000
180.95	-0.000
181.16	-0.000
181.38	-0.000
181.59	-0.000
181.81	-0.000
182.03	-0.000
182.24	-0.000
182.46	-0.000
182.67	-0.000
182.89	-0.000
183.10	-0.000
183.32	-0.000
183.54	-0.000
183.75	-0.000
183.97	-0.000
184.18	-0.000
184.40	-0.000
184.61	-0.000
184.83	-0.000
185.04	-0.000
185.26	-0.000
185.48	-0.000
185.69	-0.000
185.91	-0.000
186.12	-0.000
186.34	-0.000
186.55	-0.000
186.77	-0.000
186.98	-0.000
187.20	-0.000
187.42	-0.000
187.63	-0.000
187.85	-0.000
188.06	-0.000
188.28	-0.000
188.49	-0.000
188.71	-0.000
188.92	-0.000
189.14	-0.000
189.36	-0.000
189.57	-0.000
189.79	-0.000
190.00	-0.000
190.22	-0.000
190.43	-0.000
190.65	-0.000
190.86	-0.000
191.08	-0.000
191.29	-0.000
191.51	-0.000
191.72	-0.000
191.94	-0.000
192.16	-0.000
192.37	-0.000
192.59	-0.000
192.80	-0.000
193.02	-0.000
193.23	-0.000
193.45	-0.000
193.66	-0.000
193.88	-0.000
194.09	-0.000
194.31	-0.000
194.52	-0.000
194.74	-0.000
194.95	-0.000
195.17	-0.000
195.38	-0.000
195.60	-0.000
195.81	-0.000
196.03	-0.000
196.25	-0.000
196.46	-0.000
196.68	-0.000
196.89	-0.000
197.11	-0.000
197.32	-0.000
197.54	-0.000
197.75	-0.000
197.97	-0.000
198.18	-0.000
198.40	-0.000
198.61	-0.000
198.83	-0.000
199.04	-0.000
199.26	-0.000
199.47	-0.000
199.69	-0.000
199.90	-0.000
200.12	-0.000
200.33	-0.000
200.55	-0.000
200.76	-0.000
200.98	-0.000
201.19	-0.000
201.41	-0.000
201.62	-0.000
201.84	-0.000
202.05	-0.000
202.27	-0.000
202.48	-0.000
202.70	-0.000
202.91	-0.000
203.13	-0.000
203.34	-0.000
203.56	-0.000
203.77	-0.000
203.99	-0.000
204.20	-0.000
204.42	-0.000
204.63	-0.000
204.85	-0.000
205.06	-0.000
205.28	-0.000
205.49	-0.000
205.71	-0.000
205.92	-0.000
206.14	-0.000
206.35	-0.000
206.56	-0.000
206.78	-0.000
206.99	-0.000
207.21	-0.000
207.42	-0.000
207.64	-0.000
207.85	-0.000
208.07	-0.000
208.28	-0.000
208.50	-0.000
208.71	-0.000
208.93	-0.000
209.14	-0.000
209.36	-0.000
209.57	-0.000
209.79	-0.000
210.00	-0.000
210.22	-0.000
210.43	-0.000
210.64	-0.000
210.86	-0.000
211.07	-0.000
211.29	-0.000
211.50	-0.000
211.72	-0.000
211.93	-0.000
212.15	-0.000
212.36	-0.000
212.58	-0.000
212.79	-0.000
213.01	-0.000
213.22	-0.000
213.43	-0.000
213.65	-0.000
213.86	-0.000
214.08	-0.000
214.29	-0.000
214.51	-0.000
214.72	-0.000
214.94	-0.000
215.15	-0.000
215.36	-0.000
215.58	-0.000
215.79	-0.000
216.01	-0.000
216.22	-0.000
216.44	-0.000
216.65	-0.000
216.87	-0.000
217.08	-0.000
217.29	-0.000
217.51	-0.000
217.72	-0.000
217.94	-0.000
218.15	-0.000
218.37	-0.000
218.58	-0.000
218.80	-0.000
219.01	-0.000
219.22	-0.000
219.44	-0.000
219.65	-0.000
219.87	-0.000
220.08	-0.000
220.30	-0.000
220.51	-0.000
220.72	-0.000
220.94	-0.000
221.15	-0.000
221.37	-0.000
221.58	-0.000
221.79	-0.000
222.01	-0.000
222.22	-0.000
222.44	-0.000
222.65	-0.000
222.87	-0.000
223.08	-0.000
223.29	-0.000
223.51	-0.000
223.72	-0.000
223.94	-0.000
224.15	-0.000
224.36	-0.000
224.58	-0.000
224.79	-0.000
225.01	-0.000
225.22	-0.000
225.44	-0.000
225.65	-0.000
225.86	-0.000
226.08	-0.000
226.29	-0.000
226.51	-0.000
226.72	-0.000
226.93	-0.000
227.15	-0.000
227.36	-0.000
227.58	-0.000
227.79	-0.000
228.00	-0.000
228.22	-0.000
228.43	-0.000
228.65	-0.000
228.86	-0.000
229.07	-0.000
229.29	-0.000
229.50	-0.000
229.72	-0.000
229.93	-0.000
230.14	-0.000
230.36	-0.000
230.57	-0.000
230.78	-0.000
231.00	-0.000
231.21	-0.000
231.43	-0.000
231.64	-0.000
231.85	-0.000
232.07	-0.000
232.28	-0.000
232.50	-0.000
232.71	-0.000
232.92	-0.000
233.14	-0.000
233.35	-0.000
233.56	-0.000
233.78	-0.000
233.99	-0.000
234.21	-0.000
234.42	-0.000
234.63	-0.000
234.85	-0.000
235.06	-0.000
235.27	-0.000
235.49	-0.000
235.70	-0.000
235.91	-0.000
236.13	-0.000
236.34	-0.000
236.56	-0.000
236.77	-0.000
236.98	-0.000
237.20	-0.000
237.41	-0.000
237.62	-0.000
237.84	-0.000
238.05	-0.000
238.26	-0.000
238.48	-0.000
238.69	-0.000
238.91	-0.000
239.12	-0.000
239.33	-0.000
239.55	-0.000
239.76	-0.000
239.97	-0.000
240.19	-0.000
240.40	-0.000
240.61	-0.000
240.83	-0.000
241.04	-0.000
241.25	-0.000
241.47	-0.000
241.68	-0.000
241.89	-0.000
242.11	-0.000
242.32	-0.000
242.53	-0.000
242.75	-0.000
242.96	-0.000
243.17	-0.000
243.39	-0.000
243.60	-0.000
243.81	-0.000
244.03	-0.000
244.24	-0.000
244.45	-0.000
244.67	-0.000
244.88	-0.000
245.09	-0.000
245.31	-0.000
245.52	-0.000
245.73	-0.000
245.95	-0.000
246.16	-0.000
246.37	-0.000
246.59	-0.000
246.80	-0.000
247.01	-0.000
247.23	-0.000
247.44	-0.000
247.65	-0.000
247.87	-0.000
248.08	-0.000
248.29	-0.000
248.51	-0.000
248.72	-0.000
248.93	-0.000
249.15	-0.000
249.36	-0.000
249.57	-0.000
249.78	-0.000
250.00	-0.000
250.21	-0.000
250.42	-0.000
250.64	-0.000
250.85	-0.000
251.06	-0.000
251.28	-0.000
251.49	-0.000
251.70	-0.000
251.92	-0.000
252.13	-0.000
252.34	-0.000
252.55	-0.000
252.77	-0.000
252.98	-0.000
253.19	-0.000
253.41	-0.000
253.62	-0.000
253.83	-0.000
254.05	-0.000
254.26	-0.000
254.47	-0.000
254.68	-0.000
254.90	-0.000
255.11	-0.000
255.32	-0.000
255.54	-0.000
255.75	-0.000
255.96	-0.000
256.17	-0.000
256.39	-0.000
256.60	-0.000
256.81	-0.000
257.03	-0.000
257.24	-0.000
257.45	-0.000
257.66	-0.000
257.88	-0.000
258.09	-0.000
258.30	-0.000
258.51	-0.000
258.73	-0.000
258.94	-0.000
259.15	-0.000
259.37	-0.000
259.58	-0.000
259.79	-0.000
260.00	-0.000
260.22	-0.000
260.43	-0.000
260.64	-0.000
260.85	-0.000
261.07	-0.000
261.28	-0.000
261.49	-0.000
261.71	-0.000
261.92	-0.000
262.13	-0.000
262.34	-0.000
262.56	-0.000
262.77	-0.000
262.98	-0.000
263.19	-0.000
263.41	-0.000
263.62	-0.000
263.83	-0.000
264.04	-0.000
264.26	-0.000
264.47	-0.000
264.68	-0.000
264.89	-0.000
265.11	-0.000
265.32	-0.000
265.53	-0.000
265.74	-0.000
265.96	-0.000
266.17	-0.000
266.38	-0.000
266.59	-0.000
266.81	-0.000
267.02	-0.000
267.23	-0.000
267.44	-0.000
267.65	-0.000
267.87	-0.000
268.08	-0.000
268.29	-0.000
268.50	-0.000
268.72	-0.000
268.93	-0.000
269.14	-0.000
269.35	-0.000
269.57	-0.000
269.78	-0.000
269.99	-0.000
270.20	-0.000
270.41	-0.000
270.63	-0.000
270.84	-0.000
271.05	-0.000
271.26	-0.000
271.48	-0.000
271.69	-0.000
271.90	-0.000
272.11	-0.000
272.32	-0.000
272.54	-0.000
272.75	-0.000
272.96	-0.000
273.17	-0.000
273.39	-0.000
273.60	-0.000
273.81	-0.000
274.02	-0.000
274.23	-0.000
274.45	-0.000
274.66	-0.000
274.87	-0.000
275.08	-0.000
275.29	-0.000
275.51	-0.000
275.72	-0.000
275.93	-0.000
276.14	-0.000
276.35	-0.000
276.57	-0.000
276.78	-0.000
276.99	-0.000
277.20	-0.000
277.41	-0.000
277.63	-0.000
277.84	-0.000
278.05	-0.000
278.26	-0.000
278.47	-0.000
278.69	-0.000
278.90	-0.000
279.11	-0.000
279.32	-0.000
279.53	-0.000
279.74	-0.000
279.96	-0.000
280.17	-0.000
280.38	-0.000
280.59	-0.000
280.80	-0.000
281.02	-0.000
281.23	-0.000
281.44	-0.000
281.65	-0.000
281.86	-0.000
282.07	-0.000
282.29	-0.000
282.50	-0.000
282.71	-0.000
282.92	-0.000
283.13	-0.000
283.35	-0.000
283.56	-0.000
283.77	-0.000
283.98	-0.000
284.19	-0.000
284.40	-0.000
284.62	-0.000
284.83	-0.000
285.04	-0.000
285.25	-0.000
285.46	-0.000
285.67	-0.000
285.88	-0.000
286.10	-0.000
286.31	-0.000
286.52	-0.000
286.73	-0.000
286.94	-0.000
287.15	-0.000
287.37	-0.000
287.58	-0.000
287.79	-0.000
288.00	-0.000
288.21	-0.000
288.42	-0.000
288.63	-0.000
288.85	-0.000
289.06	-0.000
289.27	-0.000
289.48	-0.000
289.69	-0.000
289.90	-0.000
290.11	-0.000
290.33	-0.000
290.54	-0.000
290.75	-0.000
290.96	-0.000
291.17	-0.000
291.38	-0.000
291.59	-0.000
291.81	-0.000
292.02	-0.000
292.23	-0.000
292.44	-0.000
292.65	-0.000
292.86	-0.000
293.07	-0.000
293.28	-0.000
293.50	-0.000
293.71	-0.000
293.92	-0.000
294.13	-0.000
294.34	-0.000
294.55	-0.000
294.76	-0.000
294.97	-0.000
295.19	-0.000
295.40	-0.000
295.61	-0.000
295.82	-0.000
296.03	-0.000
296.24	-0.000
296.45	-0.000
296.66	2.266
296.87	2.304
297.09	2.724
297.30	-0.000
297.51	2.055
297.72	1.969
297.93	2.205
298.14	2.083
298.35	1.964
298.56	1.923
298.77	2.222
298.99	2.143
299.20	2.055
299.41	1.991
299.62	1.917
299.83	1.888
300.04	1.767
300.25	1.751
300.46	1.851
300.67	1.799
300.88	1.693
301.10	1.698
301.31	1.826
301.52	1.724
301.73	1.634
301.94	1.634
302.15	1.669
302.36	1.600
302.57	1.504
302.78	1.507
302.99	1.570
303.20	1.599
303.41	1.473
303.63	1.445
303.84	1.461
304.05	1.452
304.26	1.377
304.47	1.385
304.68	1.397
304.89	1.386
305.10	1.329
305.31	1.311
305.52	1.358
305.73	1.346
305.94	1.298
306.15	1.289
306.37	1.312
306.58	1.320
306.79	1.280
307.00	1.296
307.21	1.345
307.42	1.340
307.63	1.301
307.84	1.267
308.05	1.313
308.26	1.311
308.47	1.283
308.68	1.280
308.89	1.285
309.10	1.281
309.31	1.235
309.52	1.225
309.73	1.245
309.95	1.238
310.16	1.203
310.37	1.191
310.58	1.215
310.79	1.212
311.00	1.205
311.21	1.208
311.42	1.211
311.63	1.204
311.84	1.180
312.05	1.177
312.26	1.203
312.47	1.216
312.68	1.187
312.89	1.168
313.10	1.178
313.31	1.150
313.52	1.148
313.73	1.150
313.94	1.157
314.15	1.138
314.36	1.111
314.57	1.102
314.78	1.089
314.99	1.083
315.21	1.069
315.42	1.072
315.63	1.086
315.84	1.060
316.05	1.044
316.26	1.052
316.47	1.075
316.68	1.071
316.89	1.048
317.10	1.067
317.31	1.075
317.52	1.075
317.73	1.052
317.94	1.052
318.15	1.098
318.36	1.097
318.57	1.075
318.78	1.063
318.99	1.101
319.20	1.097
319.41	1.063
319.62	1.063
319.83	1.078
320.04	1.073
320.25	1.056
320.46	1.022
320.67	1.028
320.88	1.024
321.09	1.007
321.30	0.992
321.51	1.009
321.72	1.006
321.93	0.989
322.14	0.982
322.35	1.010
322.56	1.012
322.77	0.999
322.98	1.012
323.19	1.022
323.40	1.028
323.61	1.005
323.82	1.000
324.03	1.007
324.24	1.005
324.45	0.991
324.66	0.970
324.87	0.969
325.08	0.968
325.29	0.944
325.50	0.937
325.71	0.944
325.92	0.951
326.13	0.937
326.34	0.938
326.55	0.947
326.76	0.946
326.97	0.935
327.18	0.928
327.39	0.955
327.60	0.958
327.80	0.956
328.01	0.953
328.22	0.952
328.43	0.955
328.64	0.941
328.85	0.945
329.06	0.948
329.27	0.947
329.48	0.942
329.69	0.924
329.90	0.933
330.11	0.926
330.32	0.918
330.53	0.912
330.74	0.914
330.95	0.914
331.16	0.898
331.37	0.905
331.58	0.905
331.79	0.904
332.00	0.894
332.21	0.888
332.42	0.894
332.63	0.885
332.83	0.880
333.04	0.881
333.25	0.893
333.46	0.892
333.67	0.878
333.88	0.881
334.09	0.891
334.30	0.887
334.51	0.877
334.72	0.872
334.93	0.876
335.14	0.875
335.35	0.867
335.56	0.862
335.77	0.872
335.98	0.871
336.18	0.863
336.39	0.857
336.60	0.862
336.81	0.859
337.02	0.858
337.23	0.862
337.44	0.866
337.65	0.867
337.86	0.855
338.07	0.850
338.28	0.856
338.49	0.853
338.70	0.846
338.91	0.853
339.11	0.861
339.32	0.857
339.53	0.845
339.74	0.842
339.95	0.841
340.16	0.839
340.37	0.831
340.58	0.829
340.79	0.835
341.00	0.834
341.21	0.822
341.41	0.824
341.62	0.827
341.83	0.828
342.04	0.823
342.25	0.833
342.46	0.839
342.67	0.837
342.88	0.830
343.09	0.828
343.30	0.835
343.50	0.838
343.71	0.829
343.92	0.827
344.13	0.832
344.34	0.831
344.55	0.814
344.76	0.813
344.97	0.818
345.18	0.817
345.38	0.813
345.59	0.809
345.80	0.809
346.01	0.806
346.22	0.801
346.43	0.794
346.64	0.803
346.85	0.802
347.06	0.795
347.26	0.796
347.47	0.800
347.68	0.795
347.89	0.791
348.10	0.785
348.31	0.793
348.52	0.794
348.73	0.790
348.93	0.787
349.14	0.791
349.35	0.790
349.56	0.782
349.77	0.779
349.98	0.786
350.19	0.783
350.39	0.778
350.60	0.774
350.81	0.790
351.02	0.789
351.23	0.784
351.44	0.787
351.65	0.791
351.86	0.789
352.06	0.787
352.27	0.787
352.48	0.790
352.69	0.789
352.90	0.782
353.11	0.769
353.31	0.776
353.52	0.772
353.73	0.763
353.94	0.764
354.15	0.771
354.36	0.771
354.57	0.762
354.77	0.763
354.98	0.764
355.19	0.764
355.40	0.763
355.61	0.769
355.82	0.775
356.02	0.774
356.23	0.767
356.44	0.770
356.65	0.773
356.86	0.774
357.07	0.767
357.27	0.771
357.48	0.774
357.69	0.770
357.90	0.755
358.11	0.752
358.32	0.757
358.52	0.759
358.73	0.747
358.94	0.751
359.15	0.756
359.36	0.757
359.56	0.750
359.77	0.747
359.98	0.754
360.19	0.753
360.40	0.749
360.61	0.748
360.81	0.748
361.02	0.749
361.23	0.740
361.44	0.739
361.65	0.740
361.85	0.740
362.06	0.738
362.27	0.740
362.48	0.741
362.69	0.743
362.89	0.738
363.10	0.740
363.31	0.744
363.52	0.747
363.73	0.742
363.93	0.741
364.14	0.746
364.35	0.747
364.56	0.737
364.77	0.739
364.97	0.741
365.18	0.742
365.39	0.735
365.60	0.732
365.81	0.735
366.01	0.734
366.22	0.732
366.43	0.730
366.64	0.732
366.84	0.738
367.05	0.734
367.26	0.734
367.47	0.736
367.68	0.737
367.88	0.733
368.09	0.731
368.30	0.734
368.51	0.733
368.71	0.732
368.92	0.736
369.13	0.735
369.34	0.734
369.55	0.732
369.75	0.732
369.96	0.740
370.17	0.739
370.38	0.735
370.58	0.734
370.79	0.740
371.00	0.738
371.21	0.729
371.41	0.735
371.62	0.740
371.83	0.735
372.04	0.733
372.24	0.726
372.45	0.728
372.66	0.728
372.87	0.724
373.07	0.721
373.28	0.722
373.49	0.725
373.70	0.715
373.90	0.714
374.11	0.724
374.32	0.723
374.53	0.721
374.73	0.722
374.94	0.725
375.15	0.725
375.36	0.722
375.56	0.731
375.77	0.731
375.98	0.732
376.19	0.729
376.39	0.722
376.60	0.726
376.81	0.727
377.02	0.724
377.22	0.723
377.43	0.724
377.64	0.723
377.84	0.714
378.05	0.718
378.26	0.723
378.47	0.722
378.67	0.717
378.88	0.714
379.09	0.715
379.30	0.716
379.50	0.712
379.71	0.715
379.92	0.718
380.12	0.717
380.33	0.708
380.54	0.705
380.75	0.713
380.95	0.713
381.16	0.710
381.37	0.711
381.57	0.712
381.78	0.713
381.99	0.712
382.20	0.711
382.40	0.715
382.61	0.715
382.82	0.711
383.02	0.705
383.23	0.708
383.44	0.708
383.64	0.706
383.85	0.708
384.06	0.711
384.27	0.709
384.47	0.706
384.68	0.707
384.89	0.714
385.09	0.712
385.30	0.710
385.51	0.709
385.71	0.713
385.92	0.713
386.13	0.712
386.33	0.714
386.54	0.715
386.75	0.714
386.95	0.709
387.16	0.704
387.37	0.707
387.58	0.707
387.78	0.704
387.99	0.702
388.20	0.704
388.40	0.701
388.61	0.696
388.82	0.699
389.02	0.702
389.23	0.701
389.44	0.699
389.64	0.699
389.85	0.711
390.06	0.710
390.26	0.710
390.47	0.709
390.68	0.712
390.88	0.710
391.09	0.706
391.30	0.705
391.50	0.705
391.71	0.705
391.92	0.702
392.12	0.694
392.33	0.695
392.53	0.695
392.74	0.694
392.95	0.694
393.15	0.697
393.36	0.699
393.57	0.697
393.77	0.700
393.98	0.701
394.19	0.701
394.39	0.699
394.60	0.700
394.81	0.703
395.01	0.700
395.22	0.697
395.43	0.697
395.63	0.702
395.84	0.702
396.04	0.697
396.25	0.700
396.46	0.702
396.66	0.700
396.87	0.698
397.08	0.694
397.28	0.697
397.49	0.698
397.69	0.694
397.90	0.689
398.11	0.690
398.31	0.691
398.52	0.686
398.73	0.687
398.93	0.686
399.14	0.685
399.34	0.684
399.55	0.685
399.76	0.685
399.96	0.686
400.17	0.685
400.37	0.683
400.58	0.689
400.79	0.690
400.99	0.688
401.20	0.694
401.41	0.696
401.61	0.697
401.82	0.702
402.02	0.702
402.23	0.703
402.44	0.703
402.64	0.703
402.85	0.697
403.05	0.697
403.26	0.695
403.47	0.688
403.67	0.687
403.88	0.687
404.08	0.681
404.29	0.678
404.50	0.678
404.70	0.679
404.91	0.677
405.11	0.674
405.32	0.675
405.52	0.675
405.73	0.675
405.94	0.673
406.14	0.676
406.35	0.678
406.55	0.678
406.76	0.676
406.97	0.676
407.17	0.679
407.38	0.679
407.58	0.677
407.79	0.679
407.99	0.681
408.20	0.682
408.41	0.678
408.61	0.676
408.82	0.677
409.02	0.676
409.23	0.673
409.43	0.672
409.64	0.674
409.84	0.674
410.05	0.670
410.26	0.669
410.46	0.668
410.67	0.668
410.87	0.669
411.08	0.671
411.28	0.673
411.49	0.675
411.69	0.672
411.90	0.673
412.11	0.675
412.31	0.676
412.52	0.674
412.72	0.675
412.93	0.677
413.13	0.675
413.34	0.671
413.54	0.672
413.75	0.674
413.95	0.673
414.16	0.670
414.37	0.672
414.57	0.673
414.78	0.676
414.98	0.674
415.19	0.675
415.39	0.673
415.60	0.675
415.80	0.674
416.01	0.673
416.21	0.675
416.42	0.675
416.62	0.670
416.83	0.670
417.03	0.670
417.24	0.670
417.44	0.667
417.65	0.666
417.86	0.667
418.06	0.665
418.27	0.663
418.47	0.665
418.68	0.665
418.88	0.666
419.09	0.664
419.29	0.664
419.50	0.665
419.70	0.665
419.91	0.663
420.11	0.661
420.32	0.663
420.52	0.664
420.73	0.663
420.93	0.664
421.14	0.665
421.34	0.664
421.55	0.660
421.75	0.660
421.96	0.662
422.16	0.662
422.37	0.661
422.57	0.659
422.78	0.660
422.98	0.657
423.19	0.654
423.39	0.653
423.60	0.657
423.80	0.659
424.01	0.658
424.21	0.661
424.42	0.662
424.62	0.662
424.83	0.660
425.03	0.661
425.23	0.663
425.44	0.663
425.64	0.663
425.85	0.662
426.05	0.664
426.26	0.664
426.46	0.660
426.67	0.660
426.87	0.665
427.08	0.666
427.28	0.663
427.49	0.664
427.69	0.665
427.90	0.663
428.10	0.660
428.31	0.659
428.51	0.661
428.71	0.660
428.92	0.660
429.12	0.657
429.33	0.658
429.53	0.662
429.74	0.666
429.94	0.667
430.15	0.666
430.35	0.666
430.56	0.664
430.76	0.664
430.96	0.665
431.17	0.663
431.37	0.660
431.58	0.658
431.78	0.656
431.99	0.649
432.19	0.651
432.40	0.653
432.60	0.655
432.80	0.657
433.01	0.655
433.21	0.655
433.42	0.657
433.62	0.658
433.83	0.658
434.03	0.660
434.23	0.663
434.44	0.662
434.64	0.660
434.85	0.664
435.05	0.666
435.26	0.667
435.46	0.666
435.66	0.665
435.87	0.665
436.07	0.665
436.28	0.661
436.48	0.658
436.69	0.658
436.89	0.658
437.09	0.651
437.30	0.650
437.50	0.651
437.71	0.662
437.91	0.661
438.11	0.662
438.32	0.667
438.52	0.668
438.73	0.667
438.93	0.665
439.13	0.666
439.34	0.670
439.54	0.668
439.75	0.668
439.95	0.658
440.15	0.663
440.36	0.661
440.56	0.658
440.77	0.659
440.97	0.659
441.17	0.658
441.38	0.658
441.58	0.656
441.79	0.656
441.99	0.654
442.19	0.653
442.40	0.651
442.60	0.651
442.81	0.648
443.01	0.649
443.21	0.650
443.42	0.650
443.62	0.649
443.82	0.648
444.03	0.650
444.23	0.650
444.44	0.650
444.64	0.650
444.84	0.651
445.05	0.652
445.25	0.648
445.45	0.649
445.66	0.652
445.86	0.650
446.06	0.652
446.27	0.651
446.47	0.655
446.68	0.653
446.88	0.652
447.08	0.651
447.29	0.654
447.49	0.654
447.69	0.653
447.90	0.652
448.10	0.657
448.30	0.655
448.51	0.655
448.71	0.653
448.91	0.655
449.12	0.654
449.32	0.656
449.52	0.655
449.73	0.659
449.93	0.658
450.14	0.658
450.34	0.657
450.54	0.659
450.75	0.656
450.95	0.656
451.15	0.656
451.36	0.658
451.56	0.655
451.76	0.653
451.97	0.651
452.17	0.652
452.37	0.651
452.58	0.648
452.78	0.648
452.98	0.651
453.19	0.651
453.39	0.651
453.59	0.651
453.79	0.652
454.00	0.653
454.20	0.651
454.40	0.651
454.61	0.653
454.81	0.654
455.01	0.651
455.22	0.652
455.42	0.654
455.62	0.652
455.83	0.652
456.03	0.654
456.23	0.656
456.44	0.657
456.64	0.655
456.84	0.655
457.04	0.657
457.25	0.657
457.45	0.653
457.65	0.652
457.86	0.653
458.06	0.652
458.26	0.647
458.47	0.646
458.67	0.648
458.87	0.648
459.07	0.646
459.28	0.648
459.48	0.650
459.68	0.650
459.89	0.649
460.09	0.648
460.29	0.649
460.49	0.651
460.70	0.650
460.90	0.650
461.10	0.652
461.31	0.652
461.51	0.648
461.71	0.650
461.91	0.651
462.12	0.651
462.32	0.650
462.52	0.650
462.72	0.653
462.93	0.654
463.13	0.652
463.33	0.652
463.53	0.654
463.74	0.654
463.94	0.649
464.14	0.650
464.35	0.652
464.55	0.652
464.75	0.649
464.95	0.647
465.16	0.649
465.36	0.647
465.56	0.646
465.76	0.645
465.97	0.646
466.17	0.647
466.37	0.644
466.57	0.646
466.78	0.647
466.98	0.648
467.18	0.645
467.38	0.644
467.59	0.646
467.79	0.648
467.99	0.647
468.19	0.648
468.39	0.651
468.60	0.651
468.80	0.649
469.00	0.650
469.20	0.651
469.41	0.652
469.61	0.651
469.81	0.651
470.01	0.651
470.22	0.652
470.42	0.650
470.62	0.647
470.82	0.649
471.02	0.648
471.23	0.646
471.43	0.647
471.63	0.649
471.83	0.649
472.04	0.647
472.24	0.645
472.44	0.650
472.64	0.650
472.84	0.648
473.05	0.648
473.25	0.651
473.45	0.650
473.65	0.648
473.85	0.648
474.06	0.650
474.26	0.649
474.46	0.650
474.66	0.647
474.86	0.648
475.07	0.649
475.27	0.647
475.47	0.645
475.67	0.646
475.87	0.648
476.08	0.645
476.28	0.647
476.48	0.648
476.68	0.647
476.88	0.644
477.09	0.645
477.29	0.648
477.49	0.648
477.69	0.646
477.89	0.646
478.09	0.646
478.30	0.648
478.50	0.644
478.70	0.644
478.90	0.645
479.10	0.648
479.31	0.648
479.51	0.646
479.71	0.646
479.91	0.647
480.11	0.646
480.31	0.646
480.52	0.645
480.72	0.645
480.92	0.644
481.12	0.642
481.32	0.640
481.52	0.638
481.72	0.638
481.93	0.642
482.13	0.643
482.33	0.642
482.53	0.639
482.73	0.640
482.93	0.641
483.14	0.641
483.34	0.640
483.54	0.641
483.74	0.640
483.94	0.639
484.14	0.635
484.34	0.635
484.55	0.636
484.75	0.636
484.95	0.634
485.15	0.634
485.35	0.635
485.55	0.634
485.75	0.632
485.96	0.633
486.16	0.635
486.36	0.634
486.56	0.632
486.76	0.632
486.96	0.633
487.16	0.632
487.36	0.630
487.57	0.630
487.77	0.631
487.97	0.631
488.17	0.629
488.37	0.628
488.57	0.629
488.77	0.630
488.97	0.628
489.18	0.628
489.38	0.631
489.58	0.631
489.78	0.630
489.98	0.630
490.18	0.631
490.38	0.631
490.58	0.630
490.78	0.630
490.98	0.632
491.19	0.633
491.39	0.632
491.59	0.630
491.79	0.633
491.99	0.634
492.19	0.633
492.39	0.636
492.59	0.636
492.79	0.638
492.99	0.638
493.20	0.638
493.40	0.638
493.60	0.640
493.80	0.638
494.00	0.635
494.20	0.636
494.40	0.636
494.60	0.633
494.80	0.637
495.00	0.636
495.20	0.635
495.40	0.634
495.61	0.636
495.81	0.636
496.01	0.640
496.21	0.641
496.41	0.640
496.61	0.641
496.81	0.640
497.01	0.635
497.21	0.634
497.41	0.635
497.61	0.635
497.81	0.632
498.01	0.632
498.21	0.629
498.41	0.627
498.61	0.627
498.82	0.628
499.02	0.631
499.22	0.631
499.42	0.631
499.62	0.632
499.82	0.633
500.02	0.634
500.22	0.633
500.42	0.635
500.62	0.636
500.82	0.636
501.02	0.635
501.22	0.635
501.42	0.635
501.62	0.637
501.82	0.636
502.02	0.636
502.22	0.636
502.42	0.638
502.62	0.636
502.82	0.636
503.02	0.637
503.22	0.636
503.42	0.634
503.63	0.634
503.83	0.632
504.03	0.631
504.23	0.629
504.43	0.629
504.63	0.630
504.83	0.629
505.03	0.628
505.23	0.630
505.43	0.632
505.63	0.632
505.83	0.632
506.03	0.634
506.23	0.637
506.43	0.638
506.63	0.637
506.83	0.636
507.03	0.638
507.23	0.639
507.43	0.636
507.63	0.636
507.83	0.637
508.03	0.637
508.23	0.636
508.43	0.634
508.63	0.636
508.83	0.636
509.03	0.637
509.23	0.636
509.43	0.637
509.63	0.638
509.83	0.636
510.03	0.638
510.23	0.640
510.43	0.641
510.63	0.641
510.83	0.641
511.03	0.643
511.23	0.640
511.43	0.639
511.63	0.641
511.83	0.644
512.03	0.644
512.22	0.641
512.42	0.640
512.62	0.642
512.82	0.641
513.02	0.640
513.22	0.640
513.42	0.642
513.62	0.644
513.82	0.642
514.02	0.641
514.22	0.642
514.42	0.643
514.62	0.642
514.82	0.642
515.02	0.645
515.22	0.648
515.42	0.647
515.62	0.649
515.82	0.648
516.02	0.650
516.22	0.649
516.42	0.651
516.62	0.653
516.82	0.654
517.01	0.652
517.21	0.651
517.41	0.654
517.61	0.654
517.81	0.651
518.01	0.650
518.21	0.650
518.41	0.649
518.61	0.648
518.81	0.648
519.01	0.649
519.21	0.650
519.41	0.649
519.61	0.643
519.81	0.646
520.00	0.646
520.20	0.647
520.40	0.650
520.60	0.651
520.80	0.650
521.00	0.650
521.20	0.652
521.40	0.657
521.60	0.658
521.80	0.657
522.00	0.657
522.20	0.660
522.39	0.659
522.59	0.655
522.79	0.657
522.99	0.660
523.19	0.658
523.39	0.655
523.59	0.653
523.79	0.656
523.99	0.659
524.19	0.657
524.38	0.656
524.58	0.658
524.78	0.658
524.98	0.657
525.18	0.659
525.38	0.660
525.58	0.660
525.78	0.657
525.98	0.656
526.18	0.657
526.37	0.656
526.57	0.657
526.77	0.657
526.97	0.658
527.17	0.657
527.37	0.653
527.57	0.656
527.77	0.659
527.96	0.659
528.16	0.657
528.36	0.658
528.56	0.660
528.76	0.658
528.96	0.657
529.16	0.658
529.36	0.662
529.55	0.662
529.75	0.658
529.95	0.658
530.15	0.661
530.35	0.663
530.55	0.660
530.75	0.661
530.94	0.663
531.14	0.664
531.34	0.662
531.54	0.660
531.74	0.663
531.94	0.666
532.13	0.663
532.33	0.665
532.53	0.664
532.73	0.663
532.93	0.660
533.13	0.661
533.33	0.661
533.52	0.662
533.72	0.664
533.92	0.662
534.12	0.661
534.32	0.662
534.52	0.659
534.71	0.661
534.91	0.665
535.11	0.666
535.31	0.664
535.51	0.666
535.71	0.669
535.90	0.666
536.10	0.667
536.30	0.669
536.50	0.671
536.70	0.671
536.89	0.668
537.09	0.668
537.29	0.670
537.49	0.671
537.69	0.669
537.89	0.669
538.08	0.669
538.28	0.667
538.48	0.667
538.68	0.668
538.88	0.670
539.07	0.670
539.27	0.668
539.47	0.667
539.67	0.667
539.87	0.669
540.06	0.665
540.26	0.667
540.46	0.669
540.66	0.667
540.86	0.664
541.05	0.664
541.25	0.666
541.45	0.666
541.65	0.665
541.84	0.667
542.04	0.668
542.24	0.669
542.44	0.668
542.64	0.668
542.83	0.671
543.03	0.671
543.23	0.667
543.43	0.668
543.62	0.670
543.82	0.670
544.02	0.669
544.22	0.668
544.42	0.672
544.61	0.672
544.81	0.670
545.01	0.669
545.21	0.671
545.40	0.672
545.60	0.669
545.80	0.673
546.00	0.673
546.19	0.673
546.39	0.671
546.59	0.668
546.79	0.670
546.98	0.670
547.18	0.669
547.38	0.671
547.58	0.674
547.77	0.674
547.97	0.670
548.17	0.672
548.37	0.672
548.56	0.672
548.76	0.671
548.96	0.673
549.16	0.677
549.35	0.677
549.55	0.674
549.75	0.675
549.95	0.679
550.14	0.679
550.34	0.676
550.54	0.682
550.73	0.686
550.93	0.687
551.13	0.683
551.33	0.681
551.52	0.682
551.72	0.682
551.92	0.679
552.12	0.679
552.31	0.680
552.51	0.680
552.71	0.675
552.90	0.675
553.10	0.676
553.30	0.676
553.50	0.675
553.69	0.677
553.89	0.679
554.09	0.679
554.28	0.676
554.48	0.677
554.68	0.680
554.87	0.679
555.07	0.675
555.27	0.675
555.47	0.677
555.66	0.678
555.86	0.676
556.06	0.679
556.25	0.680
556.45	0.689
556.65	0.686
556.84	0.690
557.04	0.694
557.24	0.695
557.43	0.695
557.63	0.698
557.83	0.700
558.02	0.700
558.22	0.703
558.42	0.704
558.61	0.697
558.81	0.698
559.01	0.693
559.21	0.692
559.40	0.694
559.60	0.693
559.80	0.689
559.99	0.690
560.19	0.693
560.39	0.687
560.58	0.684
560.78	0.684
560.97	0.687
561.17	0.686
561.37	0.683
561.56	0.684
561.76	0.686
561.96	0.686
562.15	0.683
562.35	0.686
562.55	0.689
562.74	0.689
562.94	0.687
563.14	0.685
563.33	0.687
563.53	0.688
563.73	0.685
563.92	0.687
564.12	0.690
564.31	0.692
564.51	0.689
564.71	0.690
564.90	0.694
565.10	0.695
565.30	0.697
565.49	0.698
565.69	0.700
565.89	0.700
566.08	0.696
566.28	0.698
566.47	0.700
566.67	0.698
566.87	0.694
567.06	0.695
567.26	0.702
567.46	0.697
567.65	0.696
567.85	0.697
568.04	0.701
568.24	0.699
568.44	0.695
568.63	0.693
568.83	0.696
569.02	0.695
569.22	0.689
569.42	0.686
569.61	0.689
569.81	0.688
570.00	0.685
570.20	0.686
570.40	0.689
570.59	0.688
570.79	0.686
570.98	0.684
571.18	0.685
571.38	0.685
571.57	0.682
571.77	0.680
571.96	0.683
572.16	0.681
572.35	0.675
572.55	0.676
572.75	0.675
572.94	0.675
573.14	0.673
573.33	0.673
573.53	0.674
573.73	0.674
573.92	0.672
574.12	0.669
574.31	0.673
574.51	0.673
574.70	0.670
574.90	0.671
575.09	0.674
575.29	0.674
575.49	0.671
575.68	0.671
575.88	0.674
576.07	0.675
576.27	0.673
576.46	0.671
576.66	0.671
576.86	0.670
577.05	0.668
577.25	0.666
577.44	0.668
577.64	0.668
577.83	0.666
578.03	0.666
578.22	0.665
578.42	0.665
578.61	0.663
578.81	0.664
579.00	0.665
579.20	0.664
579.40	0.663
579.59	0.662
579.79	0.663
579.98	0.662
580.18	0.661
580.37	0.662
580.57	0.664
580.76	0.669
580.96	0.666
581.15	0.667
581.35	0.670
581.54	0.669
581.74	0.668
581.93	0.670
582.13	0.671
582.32	0.669
582.52	0.667
582.71	0.666
582.91	0.663
583.10	0.663
583.30	0.662
583.49	0.661
583.69	0.665
583.88	0.666
584.08	0.665
584.27	0.667
584.47	0.671
584.66	0.671
584.86	0.670
585.05	0.672
585.25	0.674
585.44	0.673
585.64	0.671
585.83	0.668
586.03	0.669
586.22	0.667
586.42	0.663
586.61	0.666
586.81	0.668
587.00	0.668
587.20	0.666
587.39	0.667
587.59	0.669
587.78	0.671
587.98	0.672
588.17	0.672
588.37	0.675
588.56	0.677
588.76	0.672
588.95	0.672
589.15	0.676
589.34	0.679
589.54	0.676
589.73	0.677
589.92	0.679
590.12	0.679
590.31	0.676
590.51	0.681
590.70	0.682
590.90	0.683
591.09	0.681
591.29	0.679
591.48	0.680
591.68	0.682
591.87	0.680
592.06	0.680
592.26	0.683
592.45	0.682
592.65	0.675
592.84	0.675
593.04	0.678
593.23	0.680
593.43	0.677
593.62	0.676
593.81	0.677
594.01	0.677
594.20	0.674
594.40	0.674
594.59	0.676
594.79	0.678
594.98	0.677
595.17	0.676
595.37	0.677
595.56	0.679
595.76	0.678
595.95	0.679
596.14	0.682
596.34	0.683
596.53	0.680
596.73	0.681
596.92	0.682
597.12	0.685
597.31	0.684
597.50	0.683
597.70	0.685
597.89	0.685
598.09	0.681
598.28	0.683
598.47	0.686
598.67	0.685
598.86	0.681
599.06	0.683
599.25	0.683
599.44	0.682
599.64	0.679
599.83	0.677
600.03	0.681
600.22	0.681
600.41	0.681
600.61	0.679
600.80	0.682
601.00	0.683
601.19	0.679
601.38	0.678
601.58	0.680
601.77	0.681
601.96	0.683
602.16	0.683
602.35	0.693
602.55	0.690
602.74	0.690
602.93	0.691
603.13	0.696
603.32	0.697
603.51	0.695
603.71	0.699
603.90	0.701
604.09	0.701
604.29	0.698
604.48	0.691
604.68	0.693
604.87	0.692
605.06	0.688
605.26	0.685
605.45	0.686
605.64	0.686
605.84	0.681
606.03	0.681
606.22	0.680
606.42	0.679
606.61	0.675
606.80	0.676
607.00	0.678
607.19	0.678
607.38	0.676
607.58	0.678
607.77	0.681
607.96	0.680
608.16	0.678
608.35	0.683
608.54	0.686
608.74	0.690
608.93	0.694
609.12	0.697
609.32	0.700
609.51	0.704
609.70	0.701
609.90	0.704
610.09	0.709
610.28	0.714
610.48	0.707
610.67	0.708
610.86	0.709
611.06	0.703
611.25	0.700
611.44	0.701
611.64	0.700
611.83	0.704
612.02	0.699
612.21	0.699
612.41	0.698
612.60	0.697
612.79	0.692
612.99	0.692
613.18	0.694
613.37	0.692
613.57	0.689
613.76	0.692
613.95	0.689
614.14	0.688
614.34	0.685
614.53	0.686
614.72	0.690
614.92	0.690
615.11	0.687
615.30	0.685
615.49	0.687
615.69	0.690
615.88	0.686
616.07	0.688
616.26	0.691
616.46	0.692
616.65	0.689
616.84	0.688
617.04	0.690
617.23	0.694
617.42	0.693
617.61	0.697
617.81	0.698
618.00	0.700
618.19	0.698
618.38	0.701
618.58	0.705
618.77	0.706
618.96	0.705
619.15	0.707
619.35	0.709
619.54	0.710
619.73	0.705
619.92	0.707
620.12	0.711
620.31	0.711
620.50	0.706
620.69	0.706
620.89	0.710
621.08	0.710
621.27	0.709
621.46	0.708
621.66	0.713
621.85	0.713
622.04	0.709
622.23	0.709
622.43	0.711
622.62	0.711
622.81	0.709
623.00	0.709
623.19	0.714
623.39	0.712
623.58	0.709
623.77	0.707
623.96	0.711
624.16	0.712
624.35	0.707
624.54	0.710
624.73	0.714
624.92	0.711
625.12	0.708
625.31	0.709
625.50	0.713
625.69	0.714
625.88	0.710
626.08	0.709
626.27	0.712
626.46	0.712
626.65	0.708
626.84	0.708
627.04	0.715
627.23	0.715
627.42	0.709
627.61	0.711
627.80	0.714
628.00	0.715
628.19	0.712
628.38	0.715
628.57	0.719
628.76	0.717
628.96	0.714
629.15	0.715
629.34	0.718
629.53	0.718
629.72	0.711
629.91	0.712
630.11	0.718
630.30	0.719
630.49	0.720
630.68	0.721
630.87	0.726
631.06	0.728
631.26	0.722
631.45	0.725
631.64	0.734
631.83	0.737
632.02	0.734
632.21	0.732
632.41	0.740
632.60	0.735
632.79	0.732
632.98	0.732
633.17	0.734
633.36	0.735
633.55	0.731
633.75	0.726
633.94	0.728
634.13	0.729
634.32	0.725
634.51	0.720
634.70	0.722
634.89	0.722
635.09	0.718
635.28	0.718
635.47	0.721
635.66	0.723
635.85	0.718
636.04	0.719
636.23	0.725
636.43	0.726
636.62	0.725
636.81	0.723
637.00	0.728
637.19	0.731
637.38	0.726
637.57	0.726
637.76	0.729
637.95	0.731
638.15	0.727
638.34	0.724
638.53	0.728
638.72	0.729
638.91	0.727
639.10	0.724
639.29	0.725
639.48	0.726
639.67	0.725
639.87	0.724
640.06	0.730
640.25	0.729
640.44	0.729
640.63	0.730
640.82	0.733
641.01	0.732
641.20	0.731
641.39	0.734
641.58	0.736
641.78	0.735
641.97	0.730
642.16	0.745
642.35	0.747
642.54	0.745
642.73	0.738
642.92	0.737
643.11	0.742
643.30	0.742
643.49	0.734
643.68	0.738
643.87	0.740
644.06	0.741
644.25	0.719
644.45	0.721
644.64	0.723
644.83	0.724
645.02	0.719
645.21	0.717
645.40	0.719
645.59	0.720
645.78	0.713
645.97	0.715
646.16	0.716
646.35	0.716
646.54	0.713
646.73	0.715
646.92	0.717
647.11	0.716
647.30	0.712
647.49	0.715
647.68	0.715
647.88	0.713
648.07	0.705
648.26	0.708
648.45	0.711
648.64	0.707
648.83	0.704
649.02	0.707
649.21	0.719
649.40	0.718
649.59	0.713
649.78	0.713
649.97	0.729
650.16	0.728
650.35	0.722
650.54	0.723
650.73	0.732
650.92	0.730
651.11	0.722
651.30	0.718
651.49	0.724
651.68	0.724
651.87	0.720
652.06	0.710
652.25	0.714
652.44	0.716
652.63	0.711
652.82	0.709
653.01	0.708
653.20	0.705
653.39	0.692
653.58	0.689
653.77	0.689
653.96	0.684
654.15	0.676
654.34	0.674
654.53	0.670
654.72	0.665
654.91	0.655
655.10	0.652
655.29	0.651
655.48	0.649
655.67	0.644
655.86	0.642
656.05	0.641
656.24	0.640
656.43	0.635
656.62	0.635
656.81	0.636
657.00	0.636
657.19	0.633
657.38	0.634
657.57	0.635
657.76	0.638
657.95	0.636
658.14	0.640
658.33	0.643
658.51	0.649
658.70	0.650
658.89	0.650
659.08	0.658
659.27	0.665
659.46	0.664
659.65	0.670
659.84	0.673
660.03	0.677
660.22	0.677
660.41	0.681
660.60	0.681
660.79	0.682
660.98	0.687
661.17	0.686
661.36	0.686
661.55	0.687
661.74	0.683
661.92	0.686
662.11	0.689
662.30	0.687
662.49	0.680
662.68	0.681
662.87	0.685
663.06	0.679
663.25	0.680
663.44	0.680
663.63	0.681
663.82	0.679
664.01	0.674
664.20	0.672
664.38	0.674
664.57	0.674
664.76	0.672
664.95	0.673
665.14	0.677
665.33	0.672
665.52	0.680
665.71	0.684
665.90	0.685
666.09	0.687
666.28	0.683
666.46	0.684
666.65	0.686
666.84	0.683
667.03	0.677
667.22	0.675
667.41	0.679
667.60	0.668
667.79	0.661
667.98	0.663
668.16	0.665
668.35	0.664
668.54	0.658
668.73	0.658
668.92	0.660
669.11	0.659
669.30	0.652
669.49	0.648
669.67	0.650
669.86	0.651
670.05	0.648
670.24	0.644
670.43	0.643
670.62	0.642
670.81	0.636
671.00	0.637
671.18	0.638
671.37	0.637
671.56	0.635
671.75	0.634
671.94	0.633
672.13	0.630
672.32	0.626
672.50	0.625
672.69	0.626
672.88	0.627
673.07	0.622
673.26	0.624
673.45	0.625
673.63	0.625
673.82	0.621
674.01	0.622
674.20	0.623
674.39	0.622
674.58	0.621
674.76	0.621
674.95	0.620
675.14	0.619
675.33	0.614
675.52	0.613
675.71	0.613
675.89	0.612
676.08	0.608
676.27	0.608
676.46	0.608
676.65	0.607
676.84	0.606
677.02	0.608
677.21	0.611
677.40	0.610
677.59	0.608
677.78	0.609
677.96	0.612
678.15	0.611
678.34	0.609
678.53	0.610
678.72	0.611
678.90	0.607
679.09	0.602
679.28	0.599
679.47	0.599
679.66	0.599
679.84	0.595
680.03	0.592
680.22	0.592
680.41	0.594
680.60	0.590
680.78	0.589
680.97	0.592
681.16	0.592
681.35	0.591
681.53	0.589
681.72	0.590
681.91	0.592
682.10	0.590
682.29	0.592
682.47	0.590
682.66	0.589
682.85	0.587
683.04	0.585
683.22	0.585
683.41	0.586
683.60	0.585
683.79	0.587
683.97	0.586
684.16	0.585
684.35	0.580
684.54	0.582
684.72	0.583
684.91	0.583
685.10	0.581
685.29	0.583
685.47	0.581
685.66	0.580
685.85	0.575
686.04	0.575
686.22	0.578
686.41	0.581
686.60	0.578
686.79	0.581
686.97	0.582
687.16	0.584
687.35	0.581
687.54	0.585
687.72	0.590
687.91	0.590
688.10	0.592
688.29	0.591
688.47	0.589
688.66	0.588
688.85	0.584
689.03	0.582
689.22	0.586
689.41	0.587
689.60	0.581
689.78	0.578
689.97	0.579
690.16	0.575
690.34	0.572
690.53	0.572
690.72	0.572
690.91	0.570
691.09	0.568
691.28	0.562
691.47	0.561
691.65	0.559
691.84	0.556
692.03	0.556
692.21	0.554
692.40	0.554
692.59	0.551
692.77	0.550
692.96	0.553
693.15	0.553
693.34	0.550
693.52	0.551
693.71	0.552
693.90	0.553
694.08	0.554
694.27	0.555
694.46	0.564
694.64	0.565
694.83	0.564
695.02	0.562
695.20	0.562
695.39	0.562
695.58	0.562
695.76	0.562
695.95	0.562
696.14	0.561
696.32	0.558
696.51	0.549
696.70	0.549
696.88	0.550
697.07	0.549
697.26	0.551
697.44	0.552
697.63	0.551
697.81	0.548
698.00	0.548
698.19	0.548
698.37	0.548
698.56	0.547
698.75	0.547
698.93	0.547
699.12	0.547
699.31	0.546
699.49	0.545
699.68	0.546
699.87	0.548
700.05	0.548
700.24	0.547
700.42	0.549
700.61	0.548
700.80	0.545
700.98	0.544
701.17	0.546
701.36	0.544
701.54	0.544
701.73	0.545
701.91	0.543
702.10	0.542
702.29	0.539
702.47	0.538
702.66	0.540
702.84	0.542
703.03	0.541
703.22	0.543
703.40	0.544
703.59	0.545
703.77	0.544
703.96	0.545
704.15	0.546
704.33	0.546
704.52	0.545
704.70	0.543
704.89	0.543
705.08	0.542
705.26	0.537
705.45	0.537
705.63	0.537
705.82	0.533
706.00	0.532
706.19	0.531
706.38	0.531
706.56	0.530
706.75	0.528
706.93	0.526
707.12	0.529
707.30	0.529
707.49	0.526
707.68	0.524
707.86	0.524
708.05	0.523
708.23	0.520
708.42	0.521
708.60	0.525
708.79	0.526
708.98	0.524
709.16	0.524
709.35	0.526
709.53	0.530
709.72	0.528
709.90	0.530
710.09	0.532
710.27	0.534
710.46	0.537
710.64	0.535
710.83	0.537
711.02	0.539
711.20	0.537
711.39	0.536
711.57	0.534
711.76	0.534
711.94	0.531
712.13	0.532
712.31	0.533
712.50	0.528
712.68	0.524
712.87	0.525
713.05	0.525
713.24	0.526
713.42	0.524
713.61	0.525
713.79	0.526
713.98	0.526
714.16	0.526
714.35	0.526
714.54	0.528
714.72	0.528
714.91	0.525
715.09	0.532
715.28	0.536
715.46	0.536
715.65	0.533
715.83	0.534
716.02	0.537
716.20	0.533
716.39	0.532
716.57	0.534
716.76	0.536
716.94	0.537
717.12	0.528
717.31	0.529
717.49	0.532
717.68	0.534
717.86	0.532
718.05	0.535
718.23	0.538
718.42	0.540
718.60	0.540
718.79	0.549
718.97	0.552
719.16	0.553
719.34	0.549
719.53	0.549
719.71	0.550
719.90	0.551
720.08	0.547
720.27	0.548
720.45	0.548
720.63	0.547
720.82	0.540
721.00	0.543
721.19	0.547
721.37	0.546
721.56	0.546
721.74	0.549
721.93	0.559
722.11	0.566
722.30	0.564
722.48	0.569
722.66	0.571
722.85	0.570
723.03	0.569
723.22	0.568
723.40	0.571
723.59	0.571
723.77	0.574
723.95	0.567
724.14	0.570
724.32	0.571
724.51	0.569
724.69	0.570
724.88	0.572
725.06	0.570
725.24	0.571
725.43	0.573
725.61	0.576
725.80	0.570
725.98	0.567
726.16	0.564
726.35	0.570
726.53	0.571
726.72	0.569
726.90	0.579
727.09	0.580
727.27	0.586
727.45	0.581
727.64	0.590
727.82	0.601
728.01	0.606
728.19	0.602
728.37	0.608
728.56	0.612
728.74	0.618
728.92	0.603
729.11	0.606
729.29	0.605
729.48	0.608
729.66	0.598
729.84	0.597
730.03	0.601
730.21	0.604
730.40	0.593
730.58	0.594
730.76	0.598
730.95	0.600
731.13	0.599
731.31	0.614
731.50	0.625
731.68	0.626
731.86	0.622
732.05	0.636
732.23	0.639
732.42	0.641
732.60	0.645
732.78	0.647
732.97	0.669
733.15	0.675
733.33	0.661
733.52	0.668
733.70	0.681
733.88	0.690
734.07	0.673
734.25	0.704
734.43	0.717
734.62	0.719
734.80	0.712
734.98	0.700
735.17	0.708
735.35	0.715
735.53	0.701
735.72	0.706
735.90	0.731
736.08	0.751
736.27	0.722
736.45	0.729
736.63	0.745
736.82	0.758
737.00	0.758
737.18	0.771
737.37	0.810
737.55	0.836
737.73	0.826
737.92	0.827
738.10	0.829
738.28	0.850
738.46	0.837
738.65	0.850
738.83	0.876
739.01	0.939
739.20	0.920
739.38	0.900
739.56	0.894
739.75	0.901
739.93	0.862
740.11	0.891
740.29	0.897
740.48	0.905
740.66	0.873
740.84	0.868
741.03	0.830
741.21	0.846
741.39	0.823
741.57	0.838
741.76	0.860
741.94	0.867
742.12	0.821
742.31	0.827
742.49	0.853
742.67	0.888
742.85	0.902
743.04	0.906
743.22	0.921
743.40	0.982
743.58	0.953
743.77	0.972
743.95	1.020
744.13	1.084
744.31	1.055
744.50	1.042
744.68	1.042
744.86	1.008
745.04	1.016
745.23	1.090
745.41	1.074
745.59	1.089
745.77	1.040
745.96	1.025
746.14	1.043
746.32	1.044
746.50	1.034
746.69	1.018
746.87	1.044
747.05	1.033
747.23	0.941
747.42	0.926
747.60	0.962
747.78	0.964
747.96	0.997
748.14	0.941
748.33	0.982
748.51	0.971
748.69	0.957
748.87	0.988
749.06	0.986
749.24	0.984
749.42	0.962
749.60	0.941
749.78	0.963
749.97	0.908
750.15	0.897
750.33	0.898
750.51	0.932
750.69	0.937
750.88	0.932
751.06	0.944
751.24	0.980
751.42	0.970
751.60	0.955
751.79	1.037
751.97	1.101
752.15	1.101
752.33	1.050
752.51	1.132
752.69	1.165
752.88	1.128
753.06	1.184
753.24	1.150
753.42	1.204
753.60	1.461
753.78	1.221
753.97	1.243
754.15	1.277
754.33	1.320
754.51	1.138
754.69	1.113
754.87	1.156
755.06	1.060
755.24	1.057
755.42	1.062
755.60	0.953
755.78	0.969
755.96	0.904
756.15	0.908
756.33	0.917
756.51	0.939
756.69	0.921
756.87	0.882
757.05	0.910
757.23	0.889
757.42	0.850
757.60	0.844
757.78	0.834
757.96	0.830
758.14	0.803
758.32	0.786
758.50	0.801
758.69	0.799
758.87	0.786
759.05	0.791
759.23	0.805
759.41	0.808
759.59	0.800
759.77	0.824
759.95	0.855
760.13	0.914
760.32	0.912
760.50	0.903
760.68	0.937
760.86	0.938
761.04	0.899
761.22	0.904
761.40	0.963
761.58	0.961
761.76	0.925
761.95	0.904
762.13	0.858
762.31	0.859
762.49	0.824
762.67	0.842
762.85	0.860
763.03	0.856
763.21	0.830
763.39	0.812
763.57	0.819
763.75	0.812
763.94	0.795
764.12	0.795
764.30	0.820
764.48	0.822
764.66	0.778
764.84	0.776
765.02	0.819
765.20	0.830
765.38	0.803
765.56	0.811
765.74	0.857
765.92	0.858
766.10	0.865
766.28	0.863
766.46	0.899
766.65	0.902
766.83	0.888
767.01	0.870
767.19	0.880
767.37	0.881
767.55	0.859
767.73	0.839
767.91	0.846
768.09	0.832
768.27	0.815
768.45	0.805
768.63	0.811
768.81	0.812
768.99	0.780
769.17	0.805
769.35	0.824
769.53	0.824
769.71	0.798
769.89	0.810
770.07	0.821
770.25	0.803
770.43	0.775
770.61	0.804
770.79	0.814
770.97	0.823
771.15	0.787
771.33	0.788
771.51	0.796
771.69	0.806
771.87	0.811
772.05	0.816
772.24	0.828
772.42	0.844
772.60	0.818
772.78	0.888
772.96	0.926
773.14	0.923
773.32	0.896
773.49	0.902
773.67	0.904
773.85	0.877
774.03	0.858
774.21	0.891
774.39	0.905
774.57	0.931
774.75	0.838
774.93	0.834
775.11	0.863
775.29	0.868
775.47	0.868
775.65	0.876
775.83	0.900
776.01	0.934
776.19	0.877
776.37	0.878
776.55	0.877
776.73	0.875
776.91	0.865
777.09	0.846
777.27	0.846
777.45	0.836
777.63	0.811
777.81	0.807
777.99	0.794
778.17	0.794
778.35	0.767
778.53	0.755
778.71	0.766
778.89	0.753
779.07	0.740
779.24	0.748
779.42	0.749
779.60	0.772
779.78	0.763
779.96	0.769
780.14	0.782
780.32	0.804
780.50	0.784
780.68	0.782
780.86	0.775
781.04	0.792
781.22	0.795
781.40	0.810
781.58	0.801
781.75	0.794
781.93	0.770
782.11	0.770
782.29	0.754
782.47	0.755
782.65	0.742
782.83	0.773
783.01	0.770
783.19	0.763
783.37	0.744
783.55	0.747
783.72	0.771
783.90	0.784
784.08	0.772
784.26	0.789
784.44	0.811
784.62	0.811
784.80	0.769
784.98	0.772
785.16	0.781
785.33	0.794
785.51	0.774
785.69	0.758
785.87	0.758
786.05	0.770
786.23	0.764
786.41	0.761
786.59	0.771
786.77	0.771
786.94	0.755
787.12	0.757
787.30	0.761
787.48	0.759
787.66	0.743
787.84	0.742
788.02	0.732
788.19	0.730
788.37	0.714
788.55	0.717
788.73	0.718
788.91	0.712
789.09	0.692
789.27	0.681
789.44	0.697
789.62	0.704
789.80	0.714
789.98	0.743
790.16	0.729
790.34	0.724
790.51	0.707
790.69	0.730
790.87	0.739
791.05	0.735
791.23	0.726
791.41	0.725
791.58	0.735
791.76	0.714
791.94	0.679
792.12	0.688
792.30	0.693
792.48	0.691
792.65	0.682
792.83	0.689
793.01	0.700
793.19	0.697
793.37	0.679
793.54	0.676
793.72	0.688
793.90	0.688
794.08	0.675
794.26	0.675
794.43	0.687
794.61	0.671
794.79	0.656
794.97	0.656
795.15	0.665
795.32	0.669
795.50	0.656
795.68	0.651
795.86	0.654
796.04	0.657
796.21	0.650
796.39	0.647
796.57	0.662
796.75	0.672
796.92	0.672
797.10	0.676
797.28	0.681
797.46	0.684
797.64	0.684
797.81	0.696
797.99	0.702
798.17	0.705
798.35	0.697
798.52	0.703
798.70	0.699
798.88	0.708
799.06	0.705
799.23	0.707
799.41	0.718
799.59	0.708
799.77	0.693
799.94	0.701
800.12	0.713
800.30	0.732
800.48	0.728
800.65	0.727
800.83	0.718
801.01	0.707
801.19	0.705
801.36	0.702
801.54	0.708
801.72	0.719
801.90	0.705
802.07	0.701
802.25	0.688
802.43	0.669
802.60	0.662
802.78	0.669
802.96	0.678
803.14	0.672
803.31	0.667
803.49	0.667
803.67	0.664
803.84	0.668
804.02	0.656
804.20	0.657
804.38	0.665
804.55	0.665
804.73	0.649
804.91	0.648
805.08	0.661
805.26	0.657
805.44	0.717
805.61	0.720
805.79	0.721
805.97	0.722
806.15	0.712
806.32	0.707
806.50	0.716
806.68	0.716
806.85	0.704
807.03	0.696
807.21	0.718
807.38	0.654
807.56	0.643
807.74	0.653
807.91	0.661
808.09	0.664
808.27	0.683
808.44	0.710
808.62	0.722
808.80	0.725
808.97	0.716
809.15	0.707
809.33	0.727
809.50	0.733
809.68	0.718
809.86	0.726
810.03	0.765
810.21	0.744
810.39	0.722
810.56	0.728
810.74	0.756
810.91	0.837
811.09	0.825
811.27	0.849
811.44	0.861
811.62	0.862
811.80	0.839
811.97	0.801
812.15	0.801
812.33	0.796
812.50	0.778
812.68	0.765
812.85	0.707
813.03	0.709
813.21	0.673
813.38	0.667
813.56	0.673
813.74	0.684
813.91	0.691
814.09	0.724
814.26	0.722
814.44	0.726
814.62	0.712
814.79	0.714
814.97	0.720
815.14	0.725
815.32	0.725
815.50	0.743
815.67	0.752
815.85	0.741
816.02	0.726
816.20	0.731
816.38	0.752
816.55	0.758
816.73	0.758
816.90	0.772
817.08	0.808
817.26	0.817
817.43	0.789
817.61	0.813
817.78	0.842
817.96	0.817
818.13	0.803
818.31	0.802
818.49	0.821
818.66	0.808
818.84	0.786
819.01	0.762
819.19	0.771
819.36	0.777
819.54	0.744
819.71	0.791
819.89	0.813
820.07	0.827
820.24	0.817
820.42	0.820
820.59	0.845
820.77	0.875
820.94	0.863
821.12	0.886
821.29	0.903
821.47	0.904
821.64	0.824
821.82	0.839
822.00	0.837
822.17	0.834
822.35	0.820
822.52	0.826
822.70	0.816
822.87	0.829
823.05	0.802
823.22	0.815
823.40	0.849
823.57	0.876
823.75	0.849
823.92	0.879
824.10	0.912
824.27	0.961
824.45	0.943
824.62	1.021
824.80	1.046
824.97	1.059
825.15	1.042
825.32	1.062
825.50	1.070
825.67	1.089
825.85	1.057
826.02	1.086
826.20	1.131
826.37	1.333
826.55	1.201
826.72	1.589
826.90	1.913
827.07	2.292
827.25	1.883
827.42	-0.000
827.60	-0.000
827.77	-0.000
827.95	-0.000
828.12	-0.000
828.30	-0.000
828.47	-0.000
828.65	1.976
828.82	2.694
829.00	-0.000
829.17	-0.000
829.34	-0.000
829.52	-0.000
829.69	-0.000
829.87	-0.000
830.04	-0.000
830.22	-0.000
830.39	-0.000
830.57	-0.000
830.74	-0.000
830.92	-0.000
831.09	-0.000
831.26	-0.000
831.44	-0.000
831.61	-0.000
831.79	-0.000
831.96	-0.000
832.14	-0.000
832.31	-0.000
832.49	-0.000
832.66	-0.000
832.83	-0.000
833.01	-0.000
833.18	-0.000
833.36	-0.000
833.53	-0.000
833.70	-0.000
833.88	-0.000
834.05	-0.000
834.23	-0.000
834.40	-0.000
834.58	-0.000
834.75	-0.000
834.92	-0.000
835.10	-0.000
835.27	-0.000
835.45	-0.000
835.62	-0.000
835.79	-0.000
835.97	-0.000
836.14	-0.000
836.32	-0.000
836.49	-0.000
836.66	-0.000
836.84	-0.000
837.01	-0.000
837.18	-0.000
837.36	-0.000
837.53	-0.000
837.71	-0.000
837.88	-0.000
838.05	-0.000
838.23	-0.000
838.40	-0.000
838.58	-0.000
838.75	-0.000
838.92	-0.000
839.10	-0.000
839.27	-0.000
839.44	-0.000
839.62	-0.000
839.79	-0.000
839.96	-0.000
840.14	-0.000
840.31	-0.000
840.48	-0.000
840.66	-0.000
840.83	-0.000
841.01	-0.000
841.18	-0.000
841.35	-0.000
841.53	-0.000
841.70	-0.000
841.87	-0.000
842.05	-0.000
842.22	-0.000
842.39	-0.000
842.57	-0.000
842.74	-0.000
842.91	-0.000
843.09	-0.000
843.26	-0.000
843.43	-0.000
843.60	-0.000
843.78	-0.000
843.95	-0.000
844.12	-0.000
844.30	-0.000
844.47	-0.000
844.64	-0.000
844.82	-0.000
844.99	-0.000
845.16	-0.000
845.34	-0.000
845.51	-0.000
845.68	-0.000
845.85	-0.000
846.03	-0.000
846.20	-0.000
846.37	-0.000
846.55	-0.000
846.72	-0.000
846.89	-0.000
847.06	-0.000
847.24	-0.000
847.41	-0.000
847.58	-0.000
847.76	-0.000
847.93	-0.000
848.10	-0.000
848.27	-0.000
848.45	-0.000
848.62	-0.000
848.79	-0.000
848.97	-0.000
849.14	-0.000
849.31	-0.000
849.48	-0.000
849.66	-0.000
849.83	-0.000
850.00	-0.000
850.17	-0.000
850.35	-0.000
850.52	-0.000
850.69	-0.000
850.86	-0.000
851.04	-0.000
851.21	-0.000
851.38	-0.000
851.55	-0.000
851.72	-0.000
851.90	-0.000
852.07	-0.000
852.24	-0.000
852.41	-0.000
852.59	-0.000
852.76	-0.000
852.93	-0.000
853.10	-0.000
853.28	-0.000
853.45	-0.000
853.62	-0.000
853.79	-0.000
853.96	-0.000
854.14	-0.000
854.31	-0.000
854.48	-0.000
854.65	-0.000
854.82	-0.000
855.00	-0.000
855.17	-0.000
855.34	-0.000
855.51	-0.000
855.68	-0.000
855.86	-0.000
856.03	-0.000
856.20	-0.000
856.37	-0.000
856.54	-0.000
856.72	-0.000
856.89	-0.000
857.06	-0.000
857.23	-0.000
857.40	-0.000
857.57	-0.000
857.75	-0.000
857.92	-0.000
858.09	-0.000
858.26	-0.000
858.43	-0.000
858.60	-0.000
858.78	-0.000
858.95	-0.000
859.12	-0.000
859.29	-0.000
859.46	-0.000
859.63	-0.000
859.81	-0.000
859.98	-0.000
860.15	-0.000
860.32	-0.000
860.49	-0.000
860.66	-0.000
860.83	-0.000
861.01	-0.000
861.18	-0.000
861.35	-0.000
861.52	-0.000
861.69	-0.000
861.86	-0.000
862.03	-0.000
862.21	-0.000
862.38	-0.000
862.55	-0.000
862.72	-0.000
862.89	-0.000
863.06	-0.000
863.23	-0.000
863.40	-0.000
863.58	-0.000
863.75	-0.000
863.92	-0.000
864.09	-0.000
864.26	-0.000
864.43	-0.000
864.60	-0.000
864.77	-0.000
864.94	-0.000
865.11	-0.000
865.29	-0.000
865.46	-0.000
865.63	-0.000
865.80	-0.000
865.97	-0.000
866.14	-0.000
866.31	-0.000
866.48	-0.000
866.65	-0.000
866.82	-0.000
866.99	-0.000
867.16	-0.000
867.34	-0.000
867.51	-0.000
867.68	-0.000
867.85	-0.000
868.02	-0.000
868.19	-0.000
868.36	-0.000
868.53	-0.000
868.70	-0.000
868.87	-0.000
869.04	-0.000
869.21	-0.000
869.38	-0.000
869.55	-0.000
869.72	-0.000
869.89	-0.000
870.06	-0.000
870.24	-0.000
870.41	-0.000
870.58	-0.000
870.75	-0.000
870.92	-0.000
871.09	-0.000
871.26	-0.000
871.43	-0.000
871.60	-0.000
871.77	-0.000
871.94	-0.000
872.11	-0.000
872.28	-0.000
872.45	-0.000
872.62	-0.000
872.79	-0.000
872.96	-0.000
873.13	-0.000
873.30	-0.000
873.47	-0.000
873.64	-0.000
873.81	-0.000
873.98	-0.000
874.15	-0.000
874.32	-0.000
874.49	-0.000
874.66	-0.000
874.83	-0.000
875.00	-0.000
875.17	-0.000
875.34	-0.000
875.51	-0.000
875.68	-0.000
875.85	-0.000
876.02	-0.000
876.19	-0.000
876.36	-0.000
876.53	-0.000
876.70	-0.000
876.87	-0.000
877.04	-0.000
877.21	-0.000
877.38	-0.000
877.55	-0.000
877.72	-0.000
877.89	-0.000
878.06	-0.000
878.23	-0.000
878.39	-0.000
878.56	-0.000
878.73	-0.000
878.90	-0.000
879.07	-0.000
879.24	-0.000
879.41	-0.000
879.58	-0.000
879.75	-0.000
879.92	-0.000
880.09	-0.000
880.26	-0.000
880.43	-0.000
880.60	-0.000
880.77	-0.000
880.94	-0.000
881.11	-0.000
881.27	-0.000
881.44	-0.000
881.61	-0.000
881.78	-0.000
881.95	-0.000
882.12	-0.000
882.29	-0.000
882.46	-0.000
882.63	-0.000
882.80	-0.000
882.97	-0.000
883.14	-0.000
883.30	-0.000
883.47	-0.000
883.64	-0.000
883.81	-0.000
883.98	-0.000
884.15	-0.000
884.32	-0.000
884.49	-0.000
884.66	-0.000
884.82	-0.000
884.99	-0.000
885.16	-0.000
885.33	-0.000
885.50	-0.000
885.67	-0.000
885.84	-0.000
886.01	-0.000
886.17	-0.000
886.34	-0.000
886.51	-0.000
886.68	-0.000
886.85	-0.000
887.02	-0.000
887.19	-0.000
887.36	-0.000
887.52	-0.000
887.69	-0.000
887.86	-0.000
888.03	-0.000
888.20	-0.000
888.37	-0.000
888.54	-0.000
888.70	-0.000
888.87	-0.000
889.04	-0.000
889.21	-0.000
889.38	-0.000
889.55	-0.000
889.71	-0.000
889.88	-0.000
890.05	-0.000
890.22	-0.000
890.39	-0.000
>>>>>End Processed Spectral Data<<<<<
