SpectraSuite Data File
++++++++++++++++++++++++++++++++++++
Date: Fri Jun 19 12:38:59 CEST 2015
User: introlabs
Dark Spectrum Present: Yes
Reference Spectrum Present: Yes
Number of Sampled Component Spectra: 1
Spectrometers: USB4H08886
Integration Time (usec): 745692 (USB4H08886)
Spectra Averaged: 5 (USB4H08886)
Boxcar Smoothing: 5 (USB4H08886)
Correct for Electrical Dark: Yes (USB4H08886)
Strobe/Lamp Enabled: No (USB4H08886)
Correct for Detector Non-linearity: Yes (USB4H08886)
Correct for Stray Light: Yes (USB4H08886)
Number of Pixels in Processed Spectrum: 3648
>>>>>Begin Processed Spectral Data<<<<<
178.14	-0.000
178.36	-0.000
178.57	-0.000
178.79	-0.000
179.01	-0.000
179.22	-0.000
179.44	-0.000
179.65	-0.000
179.87	-0.000
180.08	-0.000
180.30	-0.000
180.52	-0.000
180.73	-0.000
180.95	-0.000
181.16	-0.000
181.38	-0.000
181.59	-0.000
181.81	-0.000
182.03	-0.000
182.24	-0.000
182.46	-0.000
182.67	-0.000
182.89	-0.000
183.10	-0.000
183.32	-0.000
183.54	-0.000
183.75	-0.000
183.97	-0.000
184.18	-0.000
184.40	-0.000
184.61	-0.000
184.83	-0.000
185.04	-0.000
185.26	-0.000
185.48	-0.000
185.69	-0.000
185.91	-0.000
186.12	-0.000
186.34	-0.000
186.55	-0.000
186.77	-0.000
186.98	-0.000
187.20	-0.000
187.42	-0.000
187.63	-0.000
187.85	-0.000
188.06	-0.000
188.28	-0.000
188.49	-0.000
188.71	-0.000
188.92	-0.000
189.14	-0.000
189.36	-0.000
189.57	-0.000
189.79	-0.000
190.00	-0.000
190.22	-0.000
190.43	-0.000
190.65	-0.000
190.86	-0.000
191.08	-0.000
191.29	-0.000
191.51	-0.000
191.72	-0.000
191.94	-0.000
192.16	-0.000
192.37	-0.000
192.59	-0.000
192.80	-0.000
193.02	-0.000
193.23	-0.000
193.45	-0.000
193.66	-0.000
193.88	-0.000
194.09	-0.000
194.31	-0.000
194.52	-0.000
194.74	-0.000
194.95	-0.000
195.17	-0.000
195.38	-0.000
195.60	-0.000
195.81	-0.000
196.03	-0.000
196.25	-0.000
196.46	-0.000
196.68	-0.000
196.89	-0.000
197.11	-0.000
197.32	-0.000
197.54	-0.000
197.75	-0.000
197.97	-0.000
198.18	-0.000
198.40	-0.000
198.61	-0.000
198.83	-0.000
199.04	-0.000
199.26	-0.000
199.47	-0.000
199.69	-0.000
199.90	-0.000
200.12	-0.000
200.33	-0.000
200.55	-0.000
200.76	-0.000
200.98	-0.000
201.19	-0.000
201.41	-0.000
201.62	-0.000
201.84	-0.000
202.05	-0.000
202.27	-0.000
202.48	-0.000
202.70	-0.000
202.91	-0.000
203.13	-0.000
203.34	-0.000
203.56	-0.000
203.77	-0.000
203.99	-0.000
204.20	-0.000
204.42	-0.000
204.63	-0.000
204.85	-0.000
205.06	-0.000
205.28	-0.000
205.49	-0.000
205.71	-0.000
205.92	-0.000
206.14	-0.000
206.35	-0.000
206.56	-0.000
206.78	-0.000
206.99	-0.000
207.21	-0.000
207.42	-0.000
207.64	-0.000
207.85	-0.000
208.07	-0.000
208.28	-0.000
208.50	-0.000
208.71	-0.000
208.93	-0.000
209.14	-0.000
209.36	-0.000
209.57	-0.000
209.79	-0.000
210.00	-0.000
210.22	-0.000
210.43	-0.000
210.64	-0.000
210.86	-0.000
211.07	-0.000
211.29	-0.000
211.50	-0.000
211.72	-0.000
211.93	-0.000
212.15	-0.000
212.36	-0.000
212.58	-0.000
212.79	-0.000
213.01	-0.000
213.22	-0.000
213.43	-0.000
213.65	-0.000
213.86	-0.000
214.08	-0.000
214.29	-0.000
214.51	-0.000
214.72	-0.000
214.94	-0.000
215.15	-0.000
215.36	-0.000
215.58	-0.000
215.79	-0.000
216.01	-0.000
216.22	-0.000
216.44	-0.000
216.65	-0.000
216.87	-0.000
217.08	-0.000
217.29	-0.000
217.51	-0.000
217.72	-0.000
217.94	-0.000
218.15	-0.000
218.37	-0.000
218.58	-0.000
218.80	-0.000
219.01	-0.000
219.22	-0.000
219.44	-0.000
219.65	-0.000
219.87	-0.000
220.08	-0.000
220.30	-0.000
220.51	-0.000
220.72	-0.000
220.94	-0.000
221.15	-0.000
221.37	-0.000
221.58	-0.000
221.79	-0.000
222.01	-0.000
222.22	-0.000
222.44	-0.000
222.65	-0.000
222.87	-0.000
223.08	-0.000
223.29	-0.000
223.51	-0.000
223.72	-0.000
223.94	-0.000
224.15	-0.000
224.36	-0.000
224.58	-0.000
224.79	-0.000
225.01	-0.000
225.22	-0.000
225.44	-0.000
225.65	-0.000
225.86	-0.000
226.08	-0.000
226.29	-0.000
226.51	-0.000
226.72	-0.000
226.93	-0.000
227.15	-0.000
227.36	-0.000
227.58	-0.000
227.79	-0.000
228.00	-0.000
228.22	-0.000
228.43	-0.000
228.65	-0.000
228.86	-0.000
229.07	-0.000
229.29	-0.000
229.50	-0.000
229.72	-0.000
229.93	-0.000
230.14	-0.000
230.36	-0.000
230.57	-0.000
230.78	-0.000
231.00	-0.000
231.21	-0.000
231.43	-0.000
231.64	-0.000
231.85	-0.000
232.07	-0.000
232.28	-0.000
232.50	-0.000
232.71	-0.000
232.92	-0.000
233.14	-0.000
233.35	-0.000
233.56	-0.000
233.78	-0.000
233.99	-0.000
234.21	-0.000
234.42	-0.000
234.63	-0.000
234.85	-0.000
235.06	-0.000
235.27	-0.000
235.49	-0.000
235.70	-0.000
235.91	-0.000
236.13	-0.000
236.34	-0.000
236.56	-0.000
236.77	-0.000
236.98	-0.000
237.20	-0.000
237.41	-0.000
237.62	-0.000
237.84	-0.000
238.05	-0.000
238.26	-0.000
238.48	-0.000
238.69	-0.000
238.91	-0.000
239.12	-0.000
239.33	-0.000
239.55	-0.000
239.76	-0.000
239.97	-0.000
240.19	-0.000
240.40	-0.000
240.61	-0.000
240.83	-0.000
241.04	-0.000
241.25	-0.000
241.47	-0.000
241.68	-0.000
241.89	-0.000
242.11	-0.000
242.32	-0.000
242.53	-0.000
242.75	-0.000
242.96	-0.000
243.17	-0.000
243.39	-0.000
243.60	-0.000
243.81	-0.000
244.03	-0.000
244.24	-0.000
244.45	-0.000
244.67	-0.000
244.88	-0.000
245.09	-0.000
245.31	-0.000
245.52	-0.000
245.73	-0.000
245.95	-0.000
246.16	-0.000
246.37	-0.000
246.59	-0.000
246.80	-0.000
247.01	-0.000
247.23	-0.000
247.44	-0.000
247.65	-0.000
247.87	-0.000
248.08	-0.000
248.29	-0.000
248.51	-0.000
248.72	-0.000
248.93	-0.000
249.15	-0.000
249.36	-0.000
249.57	-0.000
249.78	-0.000
250.00	-0.000
250.21	-0.000
250.42	-0.000
250.64	-0.000
250.85	-0.000
251.06	-0.000
251.28	-0.000
251.49	-0.000
251.70	-0.000
251.92	-0.000
252.13	-0.000
252.34	-0.000
252.55	-0.000
252.77	-0.000
252.98	-0.000
253.19	-0.000
253.41	-0.000
253.62	-0.000
253.83	-0.000
254.05	-0.000
254.26	-0.000
254.47	-0.000
254.68	-0.000
254.90	-0.000
255.11	-0.000
255.32	-0.000
255.54	-0.000
255.75	-0.000
255.96	-0.000
256.17	-0.000
256.39	-0.000
256.60	-0.000
256.81	-0.000
257.03	-0.000
257.24	-0.000
257.45	-0.000
257.66	-0.000
257.88	-0.000
258.09	-0.000
258.30	-0.000
258.51	-0.000
258.73	-0.000
258.94	-0.000
259.15	-0.000
259.37	-0.000
259.58	-0.000
259.79	-0.000
260.00	-0.000
260.22	-0.000
260.43	-0.000
260.64	-0.000
260.85	-0.000
261.07	-0.000
261.28	-0.000
261.49	-0.000
261.71	-0.000
261.92	-0.000
262.13	-0.000
262.34	-0.000
262.56	-0.000
262.77	-0.000
262.98	-0.000
263.19	-0.000
263.41	-0.000
263.62	-0.000
263.83	-0.000
264.04	-0.000
264.26	-0.000
264.47	-0.000
264.68	-0.000
264.89	-0.000
265.11	-0.000
265.32	-0.000
265.53	-0.000
265.74	-0.000
265.96	-0.000
266.17	-0.000
266.38	-0.000
266.59	-0.000
266.81	-0.000
267.02	-0.000
267.23	-0.000
267.44	-0.000
267.65	-0.000
267.87	-0.000
268.08	-0.000
268.29	-0.000
268.50	-0.000
268.72	-0.000
268.93	-0.000
269.14	-0.000
269.35	-0.000
269.57	-0.000
269.78	-0.000
269.99	-0.000
270.20	-0.000
270.41	-0.000
270.63	-0.000
270.84	-0.000
271.05	-0.000
271.26	-0.000
271.48	-0.000
271.69	-0.000
271.90	-0.000
272.11	-0.000
272.32	-0.000
272.54	-0.000
272.75	-0.000
272.96	-0.000
273.17	-0.000
273.39	-0.000
273.60	-0.000
273.81	-0.000
274.02	-0.000
274.23	-0.000
274.45	-0.000
274.66	-0.000
274.87	-0.000
275.08	-0.000
275.29	-0.000
275.51	-0.000
275.72	-0.000
275.93	-0.000
276.14	-0.000
276.35	-0.000
276.57	-0.000
276.78	-0.000
276.99	-0.000
277.20	-0.000
277.41	-0.000
277.63	-0.000
277.84	-0.000
278.05	-0.000
278.26	-0.000
278.47	-0.000
278.69	-0.000
278.90	-0.000
279.11	-0.000
279.32	-0.000
279.53	-0.000
279.74	-0.000
279.96	-0.000
280.17	-0.000
280.38	-0.000
280.59	-0.000
280.80	-0.000
281.02	-0.000
281.23	-0.000
281.44	-0.000
281.65	-0.000
281.86	-0.000
282.07	-0.000
282.29	-0.000
282.50	-0.000
282.71	-0.000
282.92	-0.000
283.13	-0.000
283.35	-0.000
283.56	-0.000
283.77	-0.000
283.98	-0.000
284.19	-0.000
284.40	-0.000
284.62	-0.000
284.83	-0.000
285.04	-0.000
285.25	-0.000
285.46	-0.000
285.67	-0.000
285.88	-0.000
286.10	-0.000
286.31	-0.000
286.52	-0.000
286.73	-0.000
286.94	-0.000
287.15	-0.000
287.37	-0.000
287.58	-0.000
287.79	-0.000
288.00	-0.000
288.21	-0.000
288.42	-0.000
288.63	-0.000
288.85	-0.000
289.06	-0.000
289.27	-0.000
289.48	-0.000
289.69	-0.000
289.90	-0.000
290.11	-0.000
290.33	-0.000
290.54	-0.000
290.75	-0.000
290.96	-0.000
291.17	-0.000
291.38	-0.000
291.59	-0.000
291.81	-0.000
292.02	-0.000
292.23	-0.000
292.44	-0.000
292.65	-0.000
292.86	-0.000
293.07	-0.000
293.28	-0.000
293.50	-0.000
293.71	-0.000
293.92	-0.000
294.13	-0.000
294.34	-0.000
294.55	-0.000
294.76	-0.000
294.97	-0.000
295.19	-0.000
295.40	-0.000
295.61	-0.000
295.82	-0.000
296.03	-0.000
296.24	-0.000
296.45	2.178
296.66	1.750
296.87	1.749
297.09	1.851
297.30	2.082
297.51	1.669
297.72	1.630
297.93	1.732
298.14	1.679
298.35	1.623
298.56	1.594
298.77	1.728
298.99	1.699
299.20	1.660
299.41	1.634
299.62	1.597
299.83	1.601
300.04	1.524
300.25	1.510
300.46	1.571
300.67	1.539
300.88	1.474
301.10	1.476
301.31	1.552
301.52	1.494
301.73	1.433
301.94	1.435
302.15	1.455
302.36	1.416
302.57	1.349
302.78	1.351
302.99	1.395
303.20	1.412
303.41	1.323
303.63	1.304
303.84	1.316
304.05	1.313
304.26	1.254
304.47	1.259
304.68	1.269
304.89	1.259
305.10	1.217
305.31	1.207
305.52	1.248
305.73	1.241
305.94	1.200
306.15	1.192
306.37	1.217
306.58	1.226
306.79	1.194
307.00	1.210
307.21	1.249
307.42	1.241
307.63	1.202
307.84	1.174
308.05	1.211
308.26	1.210
308.47	1.185
308.68	1.181
308.89	1.185
309.10	1.182
309.31	1.140
309.52	1.136
309.73	1.152
309.95	1.148
310.16	1.119
310.37	1.111
310.58	1.132
310.79	1.129
311.00	1.119
311.21	1.118
311.42	1.124
311.63	1.121
311.84	1.101
312.05	1.100
312.26	1.122
312.47	1.131
312.68	1.106
312.89	1.091
313.10	1.100
313.31	1.077
313.52	1.075
313.73	1.076
313.94	1.082
314.15	1.066
314.36	1.044
314.57	1.037
314.78	1.029
314.99	1.025
315.21	1.011
315.42	1.016
315.63	1.029
315.84	1.010
316.05	0.994
316.26	1.000
316.47	1.019
316.68	1.017
316.89	0.997
317.10	1.015
317.31	1.021
317.52	1.022
317.73	1.002
317.94	1.000
318.15	1.040
318.36	1.040
318.57	1.022
318.78	1.009
318.99	1.041
319.20	1.036
319.41	1.003
319.62	1.003
319.83	1.016
320.04	1.009
320.25	0.993
320.46	0.964
320.67	0.968
320.88	0.965
321.09	0.951
321.30	0.940
321.51	0.955
321.72	0.955
321.93	0.941
322.14	0.935
322.35	0.963
322.56	0.967
322.77	0.953
322.98	0.963
323.19	0.972
323.40	0.977
323.61	0.955
323.82	0.950
324.03	0.957
324.24	0.952
324.45	0.938
324.66	0.920
324.87	0.918
325.08	0.917
325.29	0.898
325.50	0.891
325.71	0.898
325.92	0.906
326.13	0.893
326.34	0.893
326.55	0.902
326.76	0.901
326.97	0.891
327.18	0.885
327.39	0.911
327.60	0.912
327.80	0.909
328.01	0.906
328.22	0.906
328.43	0.909
328.64	0.898
328.85	0.901
329.06	0.904
329.27	0.902
329.48	0.898
329.69	0.881
329.90	0.892
330.11	0.887
330.32	0.880
330.53	0.874
330.74	0.876
330.95	0.873
331.16	0.858
331.37	0.865
331.58	0.868
331.79	0.866
332.00	0.856
332.21	0.849
332.42	0.855
332.63	0.847
332.83	0.841
333.04	0.842
333.25	0.856
333.46	0.855
333.67	0.841
333.88	0.842
334.09	0.852
334.30	0.850
334.51	0.840
334.72	0.836
334.93	0.840
335.14	0.840
335.35	0.832
335.56	0.828
335.77	0.838
335.98	0.837
336.18	0.830
336.39	0.825
336.60	0.829
336.81	0.828
337.02	0.825
337.23	0.828
337.44	0.832
337.65	0.835
337.86	0.824
338.07	0.819
338.28	0.825
338.49	0.823
338.70	0.815
338.91	0.821
339.11	0.827
339.32	0.825
339.53	0.814
339.74	0.811
339.95	0.808
340.16	0.805
340.37	0.796
340.58	0.796
340.79	0.800
341.00	0.801
341.21	0.790
341.41	0.792
341.62	0.793
341.83	0.795
342.04	0.789
342.25	0.800
342.46	0.806
342.67	0.805
342.88	0.796
343.09	0.795
343.30	0.802
343.50	0.806
343.71	0.795
343.92	0.794
344.13	0.799
344.34	0.800
344.55	0.783
344.76	0.782
344.97	0.788
345.18	0.787
345.38	0.783
345.59	0.778
345.80	0.778
346.01	0.777
346.22	0.772
346.43	0.767
346.64	0.777
346.85	0.777
347.06	0.769
347.26	0.770
347.47	0.774
347.68	0.769
347.89	0.766
348.10	0.762
348.31	0.768
348.52	0.768
348.73	0.764
348.93	0.760
349.14	0.762
349.35	0.762
349.56	0.754
349.77	0.750
349.98	0.757
350.19	0.754
350.39	0.749
350.60	0.746
350.81	0.762
351.02	0.761
351.23	0.756
351.44	0.760
351.65	0.764
351.86	0.762
352.06	0.761
352.27	0.760
352.48	0.764
352.69	0.763
352.90	0.757
353.11	0.744
353.31	0.751
353.52	0.748
353.73	0.739
353.94	0.740
354.15	0.747
354.36	0.747
354.57	0.739
354.77	0.741
354.98	0.741
355.19	0.741
355.40	0.740
355.61	0.746
355.82	0.751
356.02	0.751
356.23	0.744
356.44	0.745
356.65	0.749
356.86	0.749
357.07	0.742
357.27	0.746
357.48	0.749
357.69	0.745
357.90	0.729
358.11	0.726
358.32	0.730
358.52	0.732
358.73	0.722
358.94	0.725
359.15	0.730
359.36	0.731
359.56	0.726
359.77	0.723
359.98	0.730
360.19	0.730
360.40	0.726
360.61	0.727
360.81	0.727
361.02	0.728
361.23	0.718
361.44	0.717
361.65	0.718
361.85	0.717
362.06	0.715
362.27	0.716
362.48	0.718
362.69	0.720
362.89	0.715
363.10	0.717
363.31	0.722
363.52	0.725
363.73	0.719
363.93	0.721
364.14	0.724
364.35	0.726
364.56	0.716
364.77	0.718
364.97	0.720
365.18	0.720
365.39	0.714
365.60	0.711
365.81	0.713
366.01	0.713
366.22	0.709
366.43	0.707
366.64	0.710
366.84	0.717
367.05	0.712
367.26	0.713
367.47	0.715
367.68	0.716
367.88	0.713
368.09	0.710
368.30	0.713
368.51	0.713
368.71	0.712
368.92	0.716
369.13	0.714
369.34	0.714
369.55	0.712
369.75	0.711
369.96	0.719
370.17	0.718
370.38	0.714
370.58	0.715
370.79	0.720
371.00	0.718
371.21	0.709
371.41	0.715
371.62	0.719
371.83	0.714
372.04	0.712
372.24	0.705
372.45	0.708
372.66	0.708
372.87	0.704
373.07	0.701
373.28	0.703
373.49	0.706
373.70	0.697
373.90	0.696
374.11	0.706
374.32	0.706
374.53	0.704
374.73	0.705
374.94	0.708
375.15	0.708
375.36	0.705
375.56	0.714
375.77	0.715
375.98	0.715
376.19	0.711
376.39	0.705
376.60	0.709
376.81	0.710
377.02	0.706
377.22	0.705
377.43	0.705
377.64	0.705
377.84	0.696
378.05	0.700
378.26	0.707
378.47	0.707
378.67	0.702
378.88	0.699
379.09	0.701
379.30	0.701
379.50	0.699
379.71	0.701
379.92	0.705
380.12	0.703
380.33	0.693
380.54	0.690
380.75	0.697
380.95	0.697
381.16	0.695
381.37	0.695
381.57	0.697
381.78	0.697
381.99	0.695
382.20	0.695
382.40	0.699
382.61	0.699
382.82	0.695
383.02	0.688
383.23	0.692
383.44	0.692
383.64	0.690
383.85	0.692
384.06	0.695
384.27	0.693
384.47	0.690
384.68	0.691
384.89	0.697
385.09	0.697
385.30	0.696
385.51	0.695
385.71	0.699
385.92	0.698
386.13	0.696
386.33	0.698
386.54	0.700
386.75	0.699
386.95	0.694
387.16	0.690
387.37	0.693
387.58	0.692
387.78	0.689
387.99	0.686
388.20	0.690
388.40	0.687
388.61	0.682
388.82	0.684
389.02	0.687
389.23	0.688
389.44	0.685
389.64	0.685
389.85	0.697
390.06	0.697
390.26	0.696
390.47	0.694
390.68	0.697
390.88	0.695
391.09	0.691
391.30	0.689
391.50	0.689
391.71	0.689
391.92	0.686
392.12	0.679
392.33	0.680
392.53	0.679
392.74	0.679
392.95	0.678
393.15	0.681
393.36	0.683
393.57	0.680
393.77	0.683
393.98	0.685
394.19	0.684
394.39	0.682
394.60	0.683
394.81	0.685
395.01	0.684
395.22	0.681
395.43	0.682
395.63	0.686
395.84	0.687
396.04	0.683
396.25	0.685
396.46	0.687
396.66	0.686
396.87	0.681
397.08	0.678
397.28	0.681
397.49	0.682
397.69	0.678
397.90	0.673
398.11	0.675
398.31	0.675
398.52	0.671
398.73	0.671
398.93	0.671
399.14	0.671
399.34	0.669
399.55	0.670
399.76	0.670
399.96	0.671
400.17	0.669
400.37	0.667
400.58	0.674
400.79	0.675
400.99	0.673
401.20	0.678
401.41	0.681
401.61	0.681
401.82	0.685
402.02	0.685
402.23	0.686
402.44	0.686
402.64	0.686
402.85	0.680
403.05	0.680
403.26	0.678
403.47	0.672
403.67	0.671
403.88	0.672
404.08	0.666
404.29	0.664
404.50	0.664
404.70	0.664
404.91	0.663
405.11	0.660
405.32	0.660
405.52	0.661
405.73	0.660
405.94	0.657
406.14	0.659
406.35	0.661
406.55	0.661
406.76	0.658
406.97	0.659
407.17	0.662
407.38	0.661
407.58	0.659
407.79	0.662
407.99	0.665
408.20	0.666
408.41	0.663
408.61	0.661
408.82	0.663
409.02	0.662
409.23	0.659
409.43	0.658
409.64	0.660
409.84	0.660
410.05	0.655
410.26	0.654
410.46	0.653
410.67	0.652
410.87	0.653
411.08	0.655
411.28	0.657
411.49	0.658
411.69	0.656
411.90	0.657
412.11	0.659
412.31	0.660
412.52	0.658
412.72	0.660
412.93	0.661
413.13	0.659
413.34	0.655
413.54	0.657
413.75	0.659
413.95	0.658
414.16	0.655
414.37	0.657
414.57	0.658
414.78	0.660
414.98	0.658
415.19	0.659
415.39	0.657
415.60	0.659
415.80	0.657
416.01	0.656
416.21	0.659
416.42	0.659
416.62	0.654
416.83	0.655
417.03	0.655
417.24	0.655
417.44	0.652
417.65	0.651
417.86	0.652
418.06	0.651
418.27	0.649
418.47	0.650
418.68	0.651
418.88	0.651
419.09	0.648
419.29	0.649
419.50	0.651
419.70	0.650
419.91	0.649
420.11	0.647
420.32	0.650
420.52	0.650
420.73	0.649
420.93	0.649
421.14	0.652
421.34	0.651
421.55	0.647
421.75	0.647
421.96	0.649
422.16	0.648
422.37	0.647
422.57	0.644
422.78	0.646
422.98	0.643
423.19	0.641
423.39	0.640
423.60	0.644
423.80	0.645
424.01	0.644
424.21	0.646
424.42	0.648
424.62	0.648
424.83	0.647
425.03	0.648
425.23	0.650
425.44	0.650
425.64	0.649
425.85	0.648
426.05	0.650
426.26	0.650
426.46	0.646
426.67	0.646
426.87	0.651
427.08	0.651
427.28	0.648
427.49	0.649
427.69	0.651
427.90	0.650
428.10	0.647
428.31	0.647
428.51	0.649
428.71	0.648
428.92	0.649
429.12	0.646
429.33	0.648
429.53	0.652
429.74	0.655
429.94	0.656
430.15	0.656
430.35	0.657
430.56	0.654
430.76	0.653
430.96	0.654
431.17	0.652
431.37	0.649
431.58	0.647
431.78	0.644
431.99	0.638
432.19	0.639
432.40	0.641
432.60	0.642
432.80	0.644
433.01	0.642
433.21	0.643
433.42	0.645
433.62	0.645
433.83	0.644
434.03	0.648
434.23	0.651
434.44	0.650
434.64	0.648
434.85	0.652
435.05	0.654
435.26	0.654
435.46	0.652
435.66	0.651
435.87	0.652
436.07	0.652
436.28	0.647
436.48	0.644
436.69	0.645
436.89	0.645
437.09	0.638
437.30	0.638
437.50	0.639
437.71	0.651
437.91	0.649
438.11	0.651
438.32	0.656
438.52	0.656
438.73	0.655
438.93	0.654
439.13	0.655
439.34	0.659
439.54	0.656
439.75	0.656
439.95	0.646
440.15	0.651
440.36	0.649
440.56	0.647
440.77	0.648
440.97	0.648
441.17	0.646
441.38	0.647
441.58	0.644
441.79	0.644
441.99	0.643
442.19	0.642
442.40	0.640
442.60	0.640
442.81	0.638
443.01	0.638
443.21	0.640
443.42	0.640
443.62	0.638
443.82	0.638
444.03	0.640
444.23	0.640
444.44	0.640
444.64	0.639
444.84	0.641
445.05	0.640
445.25	0.638
445.45	0.638
445.66	0.641
445.86	0.640
446.06	0.641
446.27	0.641
446.47	0.645
446.68	0.643
446.88	0.641
447.08	0.640
447.29	0.643
447.49	0.643
447.69	0.642
447.90	0.641
448.10	0.645
448.30	0.643
448.51	0.643
448.71	0.641
448.91	0.644
449.12	0.643
449.32	0.645
449.52	0.643
449.73	0.647
449.93	0.646
450.14	0.647
450.34	0.646
450.54	0.648
450.75	0.646
450.95	0.646
451.15	0.645
451.36	0.648
451.56	0.645
451.76	0.644
451.97	0.641
452.17	0.642
452.37	0.640
452.58	0.637
452.78	0.637
452.98	0.640
453.19	0.639
453.39	0.639
453.59	0.638
453.79	0.640
454.00	0.641
454.20	0.639
454.40	0.640
454.61	0.643
454.81	0.643
455.01	0.641
455.22	0.642
455.42	0.645
455.62	0.643
455.83	0.642
456.03	0.645
456.23	0.646
456.44	0.647
456.64	0.646
456.84	0.646
457.04	0.647
457.25	0.646
457.45	0.643
457.65	0.641
457.86	0.643
458.06	0.642
458.26	0.637
458.47	0.636
458.67	0.638
458.87	0.638
459.07	0.635
459.28	0.637
459.48	0.639
459.68	0.639
459.89	0.638
460.09	0.636
460.29	0.639
460.49	0.640
460.70	0.638
460.90	0.638
461.10	0.640
461.31	0.639
461.51	0.636
461.71	0.638
461.91	0.640
462.12	0.640
462.32	0.639
462.52	0.640
462.72	0.643
462.93	0.643
463.13	0.641
463.33	0.642
463.53	0.644
463.74	0.644
463.94	0.639
464.14	0.640
464.35	0.641
464.55	0.641
464.75	0.638
464.95	0.636
465.16	0.639
465.36	0.638
465.56	0.636
465.76	0.636
465.97	0.636
466.17	0.637
466.37	0.635
466.57	0.637
466.78	0.638
466.98	0.638
467.18	0.636
467.38	0.635
467.59	0.637
467.79	0.639
467.99	0.638
468.19	0.639
468.39	0.643
468.60	0.643
468.80	0.641
469.00	0.643
469.20	0.644
469.41	0.644
469.61	0.643
469.81	0.644
470.01	0.644
470.22	0.644
470.42	0.641
470.62	0.639
470.82	0.640
471.02	0.639
471.23	0.637
471.43	0.637
471.63	0.640
471.83	0.639
472.04	0.637
472.24	0.636
472.44	0.641
472.64	0.641
472.84	0.639
473.05	0.638
473.25	0.642
473.45	0.641
473.65	0.638
473.85	0.639
474.06	0.641
474.26	0.641
474.46	0.642
474.66	0.639
474.86	0.640
475.07	0.640
475.27	0.638
475.47	0.635
475.67	0.637
475.87	0.639
476.08	0.635
476.28	0.636
476.48	0.637
476.68	0.636
476.88	0.633
477.09	0.634
477.29	0.637
477.49	0.637
477.69	0.636
477.89	0.636
478.09	0.636
478.30	0.638
478.50	0.635
478.70	0.635
478.90	0.635
479.10	0.639
479.31	0.639
479.51	0.637
479.71	0.638
479.91	0.638
480.11	0.637
480.31	0.637
480.52	0.636
480.72	0.636
480.92	0.634
481.12	0.633
481.32	0.631
481.52	0.629
481.72	0.629
481.93	0.633
482.13	0.634
482.33	0.633
482.53	0.631
482.73	0.631
482.93	0.633
483.14	0.633
483.34	0.631
483.54	0.632
483.74	0.632
483.94	0.631
484.14	0.627
484.34	0.626
484.55	0.627
484.75	0.627
484.95	0.626
485.15	0.625
485.35	0.625
485.55	0.625
485.75	0.623
485.96	0.623
486.16	0.625
486.36	0.625
486.56	0.623
486.76	0.623
486.96	0.624
487.16	0.623
487.36	0.622
487.57	0.622
487.77	0.623
487.97	0.623
488.17	0.622
488.37	0.621
488.57	0.622
488.77	0.622
488.97	0.620
489.18	0.620
489.38	0.623
489.58	0.623
489.78	0.622
489.98	0.622
490.18	0.622
490.38	0.622
490.58	0.621
490.78	0.622
490.98	0.624
491.19	0.624
491.39	0.623
491.59	0.622
491.79	0.625
491.99	0.625
492.19	0.624
492.39	0.627
492.59	0.627
492.79	0.629
492.99	0.628
493.20	0.629
493.40	0.629
493.60	0.631
493.80	0.629
494.00	0.627
494.20	0.628
494.40	0.628
494.60	0.625
494.80	0.630
495.00	0.629
495.20	0.628
495.40	0.626
495.61	0.628
495.81	0.628
496.01	0.631
496.21	0.632
496.41	0.631
496.61	0.632
496.81	0.631
497.01	0.626
497.21	0.626
497.41	0.627
497.61	0.627
497.81	0.624
498.01	0.625
498.21	0.622
498.41	0.620
498.61	0.620
498.82	0.621
499.02	0.624
499.22	0.624
499.42	0.623
499.62	0.624
499.82	0.625
500.02	0.626
500.22	0.624
500.42	0.626
500.62	0.627
500.82	0.628
501.02	0.626
501.22	0.625
501.42	0.626
501.62	0.628
501.82	0.627
502.02	0.628
502.22	0.628
502.42	0.630
502.62	0.627
502.82	0.627
503.02	0.628
503.22	0.628
503.42	0.625
503.63	0.625
503.83	0.623
504.03	0.622
504.23	0.620
504.43	0.620
504.63	0.621
504.83	0.621
505.03	0.620
505.23	0.622
505.43	0.624
505.63	0.624
505.83	0.624
506.03	0.626
506.23	0.629
506.43	0.630
506.63	0.629
506.83	0.627
507.03	0.630
507.23	0.630
507.43	0.627
507.63	0.628
507.83	0.628
508.03	0.629
508.23	0.628
508.43	0.626
508.63	0.629
508.83	0.629
509.03	0.630
509.23	0.629
509.43	0.630
509.63	0.630
509.83	0.629
510.03	0.631
510.23	0.633
510.43	0.634
510.63	0.634
510.83	0.633
511.03	0.635
511.23	0.632
511.43	0.632
511.63	0.633
511.83	0.636
512.03	0.636
512.22	0.633
512.42	0.633
512.62	0.634
512.82	0.633
513.02	0.632
513.22	0.632
513.42	0.634
513.62	0.636
513.82	0.634
514.02	0.634
514.22	0.636
514.42	0.636
514.62	0.635
514.82	0.635
515.02	0.639
515.22	0.642
515.42	0.641
515.62	0.642
515.82	0.642
516.02	0.643
516.22	0.642
516.42	0.642
516.62	0.644
516.82	0.645
517.01	0.643
517.21	0.642
517.41	0.646
517.61	0.646
517.81	0.643
518.01	0.642
518.21	0.643
518.41	0.642
518.61	0.641
518.81	0.641
519.01	0.643
519.21	0.643
519.41	0.641
519.61	0.637
519.81	0.639
520.00	0.640
520.20	0.640
520.40	0.643
520.60	0.645
520.80	0.644
521.00	0.644
521.20	0.645
521.40	0.650
521.60	0.651
521.80	0.649
522.00	0.649
522.20	0.652
522.39	0.651
522.59	0.647
522.79	0.650
522.99	0.652
523.19	0.650
523.39	0.647
523.59	0.646
523.79	0.649
523.99	0.652
524.19	0.651
524.38	0.649
524.58	0.651
524.78	0.652
524.98	0.649
525.18	0.651
525.38	0.653
525.58	0.653
525.78	0.650
525.98	0.648
526.18	0.648
526.37	0.647
526.57	0.649
526.77	0.649
526.97	0.650
527.17	0.650
527.37	0.646
527.57	0.648
527.77	0.651
527.96	0.651
528.16	0.650
528.36	0.650
528.56	0.653
528.76	0.651
528.96	0.649
529.16	0.650
529.36	0.654
529.55	0.654
529.75	0.650
529.95	0.650
530.15	0.652
530.35	0.655
530.55	0.652
530.75	0.652
530.94	0.654
531.14	0.655
531.34	0.653
531.54	0.650
531.74	0.654
531.94	0.657
532.13	0.655
532.33	0.656
532.53	0.655
532.73	0.655
532.93	0.653
533.13	0.654
533.33	0.654
533.52	0.655
533.72	0.658
533.92	0.655
534.12	0.654
534.32	0.654
534.52	0.652
534.71	0.653
534.91	0.656
535.11	0.658
535.31	0.655
535.51	0.658
535.71	0.661
535.90	0.658
536.10	0.659
536.30	0.662
536.50	0.664
536.70	0.664
536.89	0.661
537.09	0.660
537.29	0.662
537.49	0.663
537.69	0.660
537.89	0.660
538.08	0.660
538.28	0.659
538.48	0.658
538.68	0.660
538.88	0.662
539.07	0.662
539.27	0.661
539.47	0.660
539.67	0.661
539.87	0.662
540.06	0.660
540.26	0.660
540.46	0.663
540.66	0.661
540.86	0.657
541.05	0.658
541.25	0.660
541.45	0.660
541.65	0.658
541.84	0.660
542.04	0.661
542.24	0.661
542.44	0.660
542.64	0.660
542.83	0.664
543.03	0.664
543.23	0.661
543.43	0.662
543.62	0.664
543.82	0.665
544.02	0.663
544.22	0.663
544.42	0.667
544.61	0.667
544.81	0.664
545.01	0.663
545.21	0.665
545.40	0.666
545.60	0.663
545.80	0.667
546.00	0.667
546.19	0.666
546.39	0.665
546.59	0.663
546.79	0.665
546.98	0.665
547.18	0.664
547.38	0.665
547.58	0.668
547.77	0.669
547.97	0.664
548.17	0.666
548.37	0.667
548.56	0.667
548.76	0.666
548.96	0.668
549.16	0.671
549.35	0.671
549.55	0.669
549.75	0.669
549.95	0.673
550.14	0.673
550.34	0.670
550.54	0.676
550.73	0.680
550.93	0.681
551.13	0.677
551.33	0.675
551.52	0.676
551.72	0.676
551.92	0.674
552.12	0.674
552.31	0.675
552.51	0.675
552.71	0.669
552.90	0.669
553.10	0.671
553.30	0.671
553.50	0.670
553.69	0.671
553.89	0.673
554.09	0.673
554.28	0.670
554.48	0.672
554.68	0.674
554.87	0.675
555.07	0.671
555.27	0.670
555.47	0.673
555.66	0.673
555.86	0.671
556.06	0.673
556.25	0.675
556.45	0.683
556.65	0.680
556.84	0.684
557.04	0.687
557.24	0.688
557.43	0.688
557.63	0.689
557.83	0.692
558.02	0.692
558.22	0.695
558.42	0.695
558.61	0.688
558.81	0.689
559.01	0.684
559.21	0.685
559.40	0.686
559.60	0.686
559.80	0.682
559.99	0.682
560.19	0.685
560.39	0.679
560.58	0.677
560.78	0.677
560.97	0.681
561.17	0.680
561.37	0.677
561.56	0.678
561.76	0.680
561.96	0.680
562.15	0.677
562.35	0.680
562.55	0.681
562.74	0.681
562.94	0.680
563.14	0.677
563.33	0.679
563.53	0.679
563.73	0.676
563.92	0.678
564.12	0.681
564.31	0.684
564.51	0.681
564.71	0.683
564.90	0.686
565.10	0.686
565.30	0.688
565.49	0.689
565.69	0.691
565.89	0.692
566.08	0.688
566.28	0.689
566.47	0.691
566.67	0.690
566.87	0.686
567.06	0.688
567.26	0.695
567.46	0.690
567.65	0.689
567.85	0.691
568.04	0.694
568.24	0.694
568.44	0.691
568.63	0.689
568.83	0.691
569.02	0.689
569.22	0.684
569.42	0.680
569.61	0.684
569.81	0.682
570.00	0.679
570.20	0.680
570.40	0.681
570.59	0.681
570.79	0.678
570.98	0.676
571.18	0.679
571.38	0.678
571.57	0.674
571.77	0.672
571.96	0.676
572.16	0.673
572.35	0.668
572.55	0.669
572.75	0.667
572.94	0.667
573.14	0.666
573.33	0.666
573.53	0.667
573.73	0.666
573.92	0.664
574.12	0.662
574.31	0.665
574.51	0.665
574.70	0.662
574.90	0.663
575.09	0.666
575.29	0.666
575.49	0.663
575.68	0.664
575.88	0.666
576.07	0.667
576.27	0.664
576.46	0.663
576.66	0.663
576.86	0.662
577.05	0.660
577.25	0.658
577.44	0.660
577.64	0.660
577.83	0.658
578.03	0.659
578.22	0.659
578.42	0.658
578.61	0.656
578.81	0.657
579.00	0.659
579.20	0.659
579.40	0.657
579.59	0.656
579.79	0.656
579.98	0.656
580.18	0.655
580.37	0.655
580.57	0.658
580.76	0.663
580.96	0.660
581.15	0.661
581.35	0.663
581.54	0.663
581.74	0.662
581.93	0.664
582.13	0.665
582.32	0.663
582.52	0.661
582.71	0.660
582.91	0.657
583.10	0.658
583.30	0.656
583.49	0.655
583.69	0.660
583.88	0.661
584.08	0.659
584.27	0.662
584.47	0.665
584.66	0.665
584.86	0.664
585.05	0.665
585.25	0.667
585.44	0.667
585.64	0.665
585.83	0.662
586.03	0.663
586.22	0.662
586.42	0.658
586.61	0.660
586.81	0.663
587.00	0.663
587.20	0.661
587.39	0.662
587.59	0.665
587.78	0.666
587.98	0.666
588.17	0.667
588.37	0.670
588.56	0.671
588.76	0.667
588.95	0.667
589.15	0.671
589.34	0.674
589.54	0.671
589.73	0.671
589.92	0.675
590.12	0.675
590.31	0.671
590.51	0.676
590.70	0.678
590.90	0.678
591.09	0.675
591.29	0.673
591.48	0.673
591.68	0.674
591.87	0.672
592.06	0.671
592.26	0.674
592.45	0.674
592.65	0.667
592.84	0.667
593.04	0.671
593.23	0.673
593.43	0.670
593.62	0.671
593.81	0.671
594.01	0.672
594.20	0.669
594.40	0.669
594.59	0.672
594.79	0.674
594.98	0.672
595.17	0.671
595.37	0.672
595.56	0.674
595.76	0.672
595.95	0.673
596.14	0.676
596.34	0.677
596.53	0.674
596.73	0.675
596.92	0.675
597.12	0.677
597.31	0.677
597.50	0.676
597.70	0.678
597.89	0.678
598.09	0.674
598.28	0.676
598.47	0.678
598.67	0.678
598.86	0.673
599.06	0.675
599.25	0.677
599.44	0.675
599.64	0.672
599.83	0.670
600.03	0.674
600.22	0.675
600.41	0.674
600.61	0.671
600.80	0.675
601.00	0.676
601.19	0.672
601.38	0.670
601.58	0.673
601.77	0.675
601.96	0.677
602.16	0.676
602.35	0.686
602.55	0.683
602.74	0.684
602.93	0.684
603.13	0.690
603.32	0.691
603.51	0.689
603.71	0.692
603.90	0.694
604.09	0.694
604.29	0.691
604.48	0.685
604.68	0.686
604.87	0.685
605.06	0.681
605.26	0.678
605.45	0.679
605.64	0.678
605.84	0.673
606.03	0.672
606.22	0.672
606.42	0.671
606.61	0.668
606.80	0.668
607.00	0.670
607.19	0.671
607.38	0.669
607.58	0.671
607.77	0.674
607.96	0.674
608.16	0.673
608.35	0.678
608.54	0.681
608.74	0.685
608.93	0.689
609.12	0.692
609.32	0.696
609.51	0.699
609.70	0.697
609.90	0.699
610.09	0.704
610.28	0.708
610.48	0.700
610.67	0.702
610.86	0.703
611.06	0.697
611.25	0.693
611.44	0.694
611.64	0.694
611.83	0.697
612.02	0.692
612.21	0.691
612.41	0.691
612.60	0.691
612.79	0.686
612.99	0.686
613.18	0.688
613.37	0.686
613.57	0.683
613.76	0.685
613.95	0.684
614.14	0.684
614.34	0.681
614.53	0.682
614.72	0.686
614.92	0.687
615.11	0.683
615.30	0.680
615.49	0.684
615.69	0.687
615.88	0.683
616.07	0.683
616.26	0.686
616.46	0.687
616.65	0.683
616.84	0.681
617.04	0.684
617.23	0.688
617.42	0.688
617.61	0.691
617.81	0.692
618.00	0.694
618.19	0.692
618.38	0.696
618.58	0.700
618.77	0.701
618.96	0.700
619.15	0.702
619.35	0.704
619.54	0.704
619.73	0.699
619.92	0.701
620.12	0.705
620.31	0.706
620.50	0.700
620.69	0.701
620.89	0.705
621.08	0.705
621.27	0.704
621.46	0.703
621.66	0.708
621.85	0.708
622.04	0.703
622.23	0.704
622.43	0.705
622.62	0.705
622.81	0.703
623.00	0.702
623.19	0.708
623.39	0.706
623.58	0.702
623.77	0.701
623.96	0.705
624.16	0.706
624.35	0.700
624.54	0.703
624.73	0.708
624.92	0.706
625.12	0.702
625.31	0.703
625.50	0.707
625.69	0.708
625.88	0.703
626.08	0.702
626.27	0.704
626.46	0.705
626.65	0.700
626.84	0.700
627.04	0.706
627.23	0.706
627.42	0.701
627.61	0.702
627.80	0.707
628.00	0.708
628.19	0.706
628.38	0.710
628.57	0.713
628.76	0.713
628.96	0.709
629.15	0.711
629.34	0.715
629.53	0.716
629.72	0.709
629.91	0.709
630.11	0.716
630.30	0.716
630.49	0.718
630.68	0.719
630.87	0.723
631.06	0.724
631.26	0.718
631.45	0.719
631.64	0.729
631.83	0.731
632.02	0.728
632.21	0.725
632.41	0.735
632.60	0.729
632.79	0.726
632.98	0.727
633.17	0.730
633.36	0.732
633.55	0.727
633.75	0.722
633.94	0.725
634.13	0.724
634.32	0.720
634.51	0.713
634.70	0.717
634.89	0.716
635.09	0.711
635.28	0.712
635.47	0.715
635.66	0.719
635.85	0.714
636.04	0.716
636.23	0.722
636.43	0.724
636.62	0.722
636.81	0.720
637.00	0.725
637.19	0.728
637.38	0.724
637.57	0.724
637.76	0.726
637.95	0.728
638.15	0.722
638.34	0.719
638.53	0.724
638.72	0.726
638.91	0.723
639.10	0.719
639.29	0.721
639.48	0.721
639.67	0.720
639.87	0.719
640.06	0.725
640.25	0.724
640.44	0.724
640.63	0.723
640.82	0.726
641.01	0.726
641.20	0.725
641.39	0.727
641.58	0.730
641.78	0.729
641.97	0.724
642.16	0.738
642.35	0.741
642.54	0.740
642.73	0.733
642.92	0.731
643.11	0.736
643.30	0.737
643.49	0.730
643.68	0.733
643.87	0.736
644.06	0.736
644.25	0.714
644.45	0.718
644.64	0.720
644.83	0.721
645.02	0.718
645.21	0.717
645.40	0.719
645.59	0.720
645.78	0.712
645.97	0.713
646.16	0.715
646.35	0.714
646.54	0.711
646.73	0.712
646.92	0.714
647.11	0.713
647.30	0.708
647.49	0.710
647.68	0.711
647.88	0.709
648.07	0.701
648.26	0.704
648.45	0.706
648.64	0.702
648.83	0.698
649.02	0.700
649.21	0.712
649.40	0.711
649.59	0.705
649.78	0.705
649.97	0.721
650.16	0.722
650.35	0.715
650.54	0.718
650.73	0.729
650.92	0.727
651.11	0.719
651.30	0.716
651.49	0.721
651.68	0.723
651.87	0.718
652.06	0.707
652.25	0.710
652.44	0.711
652.63	0.703
652.82	0.701
653.01	0.700
653.20	0.697
653.39	0.684
653.58	0.681
653.77	0.680
653.96	0.676
654.15	0.667
654.34	0.666
654.53	0.663
654.72	0.659
654.91	0.650
655.10	0.647
655.29	0.646
655.48	0.645
655.67	0.639
655.86	0.637
656.05	0.636
656.24	0.637
656.43	0.631
656.62	0.630
656.81	0.632
657.00	0.631
657.19	0.629
657.38	0.630
657.57	0.631
657.76	0.634
657.95	0.632
658.14	0.636
658.33	0.639
658.51	0.645
658.70	0.646
658.89	0.646
659.08	0.654
659.27	0.660
659.46	0.659
659.65	0.664
659.84	0.668
660.03	0.670
660.22	0.670
660.41	0.674
660.60	0.674
660.79	0.676
660.98	0.682
661.17	0.681
661.36	0.681
661.55	0.682
661.74	0.679
661.92	0.682
662.11	0.685
662.30	0.684
662.49	0.677
662.68	0.677
662.87	0.681
663.06	0.675
663.25	0.675
663.44	0.675
663.63	0.676
663.82	0.675
664.01	0.667
664.20	0.666
664.38	0.668
664.57	0.668
664.76	0.667
664.95	0.667
665.14	0.673
665.33	0.667
665.52	0.674
665.71	0.678
665.90	0.678
666.09	0.680
666.28	0.677
666.46	0.677
666.65	0.679
666.84	0.676
667.03	0.669
667.22	0.666
667.41	0.671
667.60	0.660
667.79	0.653
667.98	0.655
668.16	0.657
668.35	0.656
668.54	0.650
668.73	0.651
668.92	0.654
669.11	0.652
669.30	0.646
669.49	0.642
669.67	0.644
669.86	0.646
670.05	0.643
670.24	0.640
670.43	0.638
670.62	0.638
670.81	0.632
671.00	0.633
671.18	0.634
671.37	0.632
671.56	0.630
671.75	0.629
671.94	0.627
672.13	0.624
672.32	0.619
672.50	0.619
672.69	0.620
672.88	0.621
673.07	0.615
673.26	0.617
673.45	0.620
673.63	0.620
673.82	0.615
674.01	0.616
674.20	0.617
674.39	0.616
674.58	0.615
674.76	0.614
674.95	0.613
675.14	0.613
675.33	0.608
675.52	0.606
675.71	0.606
675.89	0.605
676.08	0.601
676.27	0.601
676.46	0.602
676.65	0.602
676.84	0.601
677.02	0.603
677.21	0.605
677.40	0.605
677.59	0.602
677.78	0.603
677.96	0.606
678.15	0.605
678.34	0.603
678.53	0.603
678.72	0.604
678.90	0.601
679.09	0.596
679.28	0.594
679.47	0.594
679.66	0.594
679.84	0.590
680.03	0.587
680.22	0.587
680.41	0.589
680.60	0.585
680.78	0.585
680.97	0.588
681.16	0.588
681.35	0.586
681.53	0.584
681.72	0.586
681.91	0.588
682.10	0.586
682.29	0.588
682.47	0.586
682.66	0.585
682.85	0.583
683.04	0.581
683.22	0.581
683.41	0.583
683.60	0.581
683.79	0.582
683.97	0.582
684.16	0.580
684.35	0.576
684.54	0.577
684.72	0.578
684.91	0.579
685.10	0.576
685.29	0.577
685.47	0.575
685.66	0.574
685.85	0.570
686.04	0.569
686.22	0.573
686.41	0.576
686.60	0.572
686.79	0.575
686.97	0.576
687.16	0.578
687.35	0.575
687.54	0.579
687.72	0.584
687.91	0.583
688.10	0.584
688.29	0.584
688.47	0.582
688.66	0.582
688.85	0.577
689.03	0.574
689.22	0.579
689.41	0.580
689.60	0.574
689.78	0.571
689.97	0.572
690.16	0.570
690.34	0.565
690.53	0.565
690.72	0.566
690.91	0.564
691.09	0.562
691.28	0.556
691.47	0.555
691.65	0.554
691.84	0.550
692.03	0.550
692.21	0.548
692.40	0.548
692.59	0.546
692.77	0.545
692.96	0.547
693.15	0.548
693.34	0.546
693.52	0.546
693.71	0.546
693.90	0.548
694.08	0.548
694.27	0.549
694.46	0.559
694.64	0.560
694.83	0.559
695.02	0.557
695.20	0.556
695.39	0.557
695.58	0.556
695.76	0.557
695.95	0.557
696.14	0.556
696.32	0.553
696.51	0.543
696.70	0.543
696.88	0.544
697.07	0.542
697.26	0.544
697.44	0.545
697.63	0.544
697.81	0.542
698.00	0.541
698.19	0.542
698.37	0.543
698.56	0.542
698.75	0.542
698.93	0.542
699.12	0.541
699.31	0.540
699.49	0.539
699.68	0.540
699.87	0.543
700.05	0.542
700.24	0.541
700.42	0.542
700.61	0.541
700.80	0.539
700.98	0.538
701.17	0.540
701.36	0.539
701.54	0.539
701.73	0.540
701.91	0.538
702.10	0.537
702.29	0.535
702.47	0.534
702.66	0.537
702.84	0.538
703.03	0.536
703.22	0.537
703.40	0.538
703.59	0.539
703.77	0.538
703.96	0.538
704.15	0.539
704.33	0.539
704.52	0.538
704.70	0.537
704.89	0.538
705.08	0.537
705.26	0.532
705.45	0.532
705.63	0.532
705.82	0.528
706.00	0.526
706.19	0.525
706.38	0.524
706.56	0.524
706.75	0.521
706.93	0.520
707.12	0.522
707.30	0.522
707.49	0.519
707.68	0.517
707.86	0.518
708.05	0.518
708.23	0.515
708.42	0.517
708.60	0.521
708.79	0.521
708.98	0.519
709.16	0.518
709.35	0.521
709.53	0.525
709.72	0.524
709.90	0.526
710.09	0.528
710.27	0.530
710.46	0.532
710.64	0.530
710.83	0.533
711.02	0.534
711.20	0.532
711.39	0.530
711.57	0.528
711.76	0.529
711.94	0.526
712.13	0.526
712.31	0.527
712.50	0.521
712.68	0.518
712.87	0.518
713.05	0.520
713.24	0.520
713.42	0.519
713.61	0.520
713.79	0.521
713.98	0.521
714.16	0.521
714.35	0.521
714.54	0.523
714.72	0.523
714.91	0.520
715.09	0.527
715.28	0.531
715.46	0.530
715.65	0.527
715.83	0.527
716.02	0.530
716.20	0.526
716.39	0.525
716.57	0.526
716.76	0.529
716.94	0.530
717.12	0.521
717.31	0.522
717.49	0.525
717.68	0.527
717.86	0.526
718.05	0.529
718.23	0.531
718.42	0.535
718.60	0.535
718.79	0.543
718.97	0.546
719.16	0.546
719.34	0.544
719.53	0.544
719.71	0.545
719.90	0.546
720.08	0.543
720.27	0.544
720.45	0.545
720.63	0.544
720.82	0.537
721.00	0.539
721.19	0.544
721.37	0.543
721.56	0.542
721.74	0.545
721.93	0.554
722.11	0.560
722.30	0.558
722.48	0.561
722.66	0.563
722.85	0.563
723.03	0.562
723.22	0.560
723.40	0.564
723.59	0.564
723.77	0.567
723.95	0.561
724.14	0.565
724.32	0.567
724.51	0.566
724.69	0.567
724.88	0.568
725.06	0.566
725.24	0.567
725.43	0.567
725.61	0.571
725.80	0.564
725.98	0.560
726.16	0.556
726.35	0.563
726.53	0.561
726.72	0.559
726.90	0.570
727.09	0.570
727.27	0.576
727.45	0.572
727.64	0.581
727.82	0.591
728.01	0.596
728.19	0.591
728.37	0.597
728.56	0.601
728.74	0.608
728.92	0.594
729.11	0.598
729.29	0.598
729.48	0.601
729.66	0.589
729.84	0.587
730.03	0.591
730.21	0.593
730.40	0.581
730.58	0.585
730.76	0.585
730.95	0.588
731.13	0.586
731.31	0.600
731.50	0.611
731.68	0.615
731.86	0.610
732.05	0.626
732.23	0.632
732.42	0.636
732.60	0.636
732.78	0.643
732.97	0.664
733.15	0.671
733.33	0.655
733.52	0.663
733.70	0.677
733.88	0.686
734.07	0.669
734.25	0.696
734.43	0.707
734.62	0.710
734.80	0.703
734.98	0.694
735.17	0.704
735.35	0.711
735.53	0.697
735.72	0.700
735.90	0.725
736.08	0.746
736.27	0.717
736.45	0.729
736.63	0.742
736.82	0.752
737.00	0.750
737.18	0.760
737.37	0.797
737.55	0.823
737.73	0.814
737.92	0.816
738.10	0.819
738.28	0.843
738.46	0.824
738.65	0.841
738.83	0.869
739.01	0.926
739.20	0.911
739.38	0.896
739.56	0.891
739.75	0.897
739.93	0.857
740.11	0.882
740.29	0.888
740.48	0.897
740.66	0.868
740.84	0.861
741.03	0.831
741.21	0.844
741.39	0.814
741.57	0.825
741.76	0.845
741.94	0.852
742.12	0.812
742.31	0.819
742.49	0.847
742.67	0.874
742.85	0.883
743.04	0.885
743.22	0.904
743.40	0.966
743.58	0.940
743.77	0.967
743.95	1.015
744.13	1.074
744.31	1.045
744.50	1.036
744.68	1.042
744.86	1.015
745.04	1.023
745.23	1.090
745.41	1.085
745.59	1.093
745.77	1.038
745.96	1.021
746.14	1.042
746.32	1.038
746.50	1.015
746.69	0.998
746.87	1.017
747.05	1.002
747.23	0.917
747.42	0.894
747.60	0.940
747.78	0.947
747.96	0.981
748.14	0.921
748.33	0.958
748.51	0.953
748.69	0.941
748.87	0.975
749.06	0.983
749.24	0.981
749.42	0.961
749.60	0.932
749.78	0.947
749.97	0.895
750.15	0.889
750.33	0.890
750.51	0.925
750.69	0.929
750.88	0.926
751.06	0.935
751.24	0.972
751.42	0.960
751.60	0.945
751.79	1.030
751.97	1.083
752.15	1.079
752.33	1.034
752.51	1.121
752.69	1.153
752.88	1.115
753.06	1.159
753.24	1.126
753.42	1.181
753.60	1.420
753.78	1.200
753.97	1.227
754.15	1.275
754.33	1.306
754.51	1.114
754.69	1.092
754.87	1.132
755.06	1.046
755.24	1.042
755.42	1.054
755.60	0.940
755.78	0.948
755.96	0.882
756.15	0.880
756.33	0.896
756.51	0.919
756.69	0.902
756.87	0.861
757.05	0.885
757.23	0.867
757.42	0.827
757.60	0.826
757.78	0.814
757.96	0.815
758.14	0.792
758.32	0.775
758.50	0.797
758.69	0.791
758.87	0.782
759.05	0.786
759.23	0.802
759.41	0.802
759.59	0.793
759.77	0.821
759.95	0.858
760.13	0.915
760.32	0.911
760.50	0.900
760.68	0.938
760.86	0.941
761.04	0.906
761.22	0.908
761.40	0.969
761.58	0.970
761.76	0.930
761.95	0.910
762.13	0.863
762.31	0.859
762.49	0.822
762.67	0.840
762.85	0.858
763.03	0.852
763.21	0.829
763.39	0.806
763.57	0.812
763.75	0.807
763.94	0.785
764.12	0.786
764.30	0.817
764.48	0.822
764.66	0.777
764.84	0.776
765.02	0.821
765.20	0.828
765.38	0.804
765.56	0.811
765.74	0.862
765.92	0.860
766.10	0.867
766.28	0.857
766.46	0.892
766.65	0.893
766.83	0.873
767.01	0.854
767.19	0.867
767.37	0.870
767.55	0.849
767.73	0.826
767.91	0.833
768.09	0.815
768.27	0.803
768.45	0.791
768.63	0.798
768.81	0.801
768.99	0.769
769.17	0.794
769.35	0.811
769.53	0.811
769.71	0.786
769.89	0.799
770.07	0.811
770.25	0.793
770.43	0.767
770.61	0.797
770.79	0.806
770.97	0.818
771.15	0.778
771.33	0.784
771.51	0.790
771.69	0.801
771.87	0.805
772.05	0.813
772.24	0.823
772.42	0.833
772.60	0.805
772.78	0.872
772.96	0.907
773.14	0.904
773.32	0.872
773.49	0.881
773.67	0.886
773.85	0.862
774.03	0.844
774.21	0.882
774.39	0.903
774.57	0.930
774.75	0.839
774.93	0.835
775.11	0.870
775.29	0.878
775.47	0.871
775.65	0.882
775.83	0.903
776.01	0.931
776.19	0.871
776.37	0.870
776.55	0.873
776.73	0.872
776.91	0.863
777.09	0.841
777.27	0.843
777.45	0.834
777.63	0.807
777.81	0.804
777.99	0.793
778.17	0.794
778.35	0.768
778.53	0.758
778.71	0.768
778.89	0.752
779.07	0.736
779.24	0.743
779.42	0.746
779.60	0.767
779.78	0.761
779.96	0.769
780.14	0.779
780.32	0.798
780.50	0.775
780.68	0.771
780.86	0.766
781.04	0.782
781.22	0.784
781.40	0.799
781.58	0.790
781.75	0.783
781.93	0.757
782.11	0.759
782.29	0.749
782.47	0.750
782.65	0.734
782.83	0.767
783.01	0.766
783.19	0.757
783.37	0.736
783.55	0.740
783.72	0.763
783.90	0.775
784.08	0.761
784.26	0.776
784.44	0.798
784.62	0.802
784.80	0.762
784.98	0.766
785.16	0.776
785.33	0.792
785.51	0.770
785.69	0.752
785.87	0.752
786.05	0.765
786.23	0.754
786.41	0.751
786.59	0.761
786.77	0.760
786.94	0.743
787.12	0.746
787.30	0.750
787.48	0.749
787.66	0.737
787.84	0.738
788.02	0.731
788.19	0.730
788.37	0.713
788.55	0.716
788.73	0.719
788.91	0.714
789.09	0.694
789.27	0.683
789.44	0.698
789.62	0.704
789.80	0.711
789.98	0.736
790.16	0.723
790.34	0.721
790.51	0.704
790.69	0.724
790.87	0.734
791.05	0.732
791.23	0.724
791.41	0.723
791.58	0.734
791.76	0.712
791.94	0.677
792.12	0.688
792.30	0.692
792.48	0.690
792.65	0.681
792.83	0.687
793.01	0.697
793.19	0.693
793.37	0.674
793.54	0.668
793.72	0.682
793.90	0.680
794.08	0.668
794.26	0.669
794.43	0.682
794.61	0.662
794.79	0.646
794.97	0.646
795.15	0.655
795.32	0.661
795.50	0.647
795.68	0.643
795.86	0.652
796.04	0.652
796.21	0.644
796.39	0.641
796.57	0.660
796.75	0.669
796.92	0.668
797.10	0.672
797.28	0.677
797.46	0.681
797.64	0.679
797.81	0.686
797.99	0.693
798.17	0.697
798.35	0.688
798.52	0.692
798.70	0.690
798.88	0.697
799.06	0.695
799.23	0.699
799.41	0.711
799.59	0.705
799.77	0.689
799.94	0.701
800.12	0.714
800.30	0.734
800.48	0.731
800.65	0.732
800.83	0.723
801.01	0.713
801.19	0.708
801.36	0.705
801.54	0.712
801.72	0.723
801.90	0.702
802.07	0.699
802.25	0.686
802.43	0.667
802.60	0.661
802.78	0.671
802.96	0.677
803.14	0.670
803.31	0.665
803.49	0.663
803.67	0.661
803.84	0.666
804.02	0.654
804.20	0.657
804.38	0.665
804.55	0.662
804.73	0.643
804.91	0.644
805.08	0.659
805.26	0.654
805.44	0.716
805.61	0.719
805.79	0.721
805.97	0.719
806.15	0.708
806.32	0.704
806.50	0.714
806.68	0.714
806.85	0.702
807.03	0.694
807.21	0.716
807.38	0.648
807.56	0.636
807.74	0.647
807.91	0.656
808.09	0.658
808.27	0.676
808.44	0.703
808.62	0.716
808.80	0.719
808.97	0.710
809.15	0.703
809.33	0.725
809.50	0.732
809.68	0.713
809.86	0.721
810.03	0.759
810.21	0.738
810.39	0.715
810.56	0.724
810.74	0.753
810.91	0.833
811.09	0.818
811.27	0.841
811.44	0.851
811.62	0.857
811.80	0.835
811.97	0.801
812.15	0.802
812.33	0.796
812.50	0.776
812.68	0.766
812.85	0.708
813.03	0.711
813.21	0.674
813.38	0.666
813.56	0.670
813.74	0.682
813.91	0.686
814.09	0.721
814.26	0.718
814.44	0.720
814.62	0.705
814.79	0.709
814.97	0.717
815.14	0.722
815.32	0.724
815.50	0.742
815.67	0.747
815.85	0.738
816.02	0.721
816.20	0.729
816.38	0.750
816.55	0.753
816.73	0.751
816.90	0.762
817.08	0.801
817.26	0.808
817.43	0.782
817.61	0.808
817.78	0.836
817.96	0.813
818.13	0.795
818.31	0.796
818.49	0.814
818.66	0.803
818.84	0.785
819.01	0.760
819.19	0.770
819.36	0.774
819.54	0.740
819.71	0.787
819.89	0.806
820.07	0.823
820.24	0.810
820.42	0.813
820.59	0.838
820.77	0.864
820.94	0.849
821.12	0.871
821.29	0.891
821.47	0.894
821.64	0.812
821.82	0.828
822.00	0.829
822.17	0.827
822.35	0.815
822.52	0.817
822.70	0.805
822.87	0.815
823.05	0.785
823.22	0.802
823.40	0.837
823.57	0.865
823.75	0.839
823.92	0.872
824.10	0.903
824.27	0.956
824.45	0.941
824.62	1.023
824.80	1.056
824.97	1.077
825.15	1.050
825.32	1.074
825.50	1.087
825.67	1.098
825.85	1.053
826.02	1.076
826.20	1.115
826.37	1.296
826.55	1.169
826.72	1.495
826.90	1.730
827.07	1.943
827.25	1.695
827.42	2.929
827.60	-0.000
827.77	-0.000
827.95	-0.000
828.12	-0.000
828.30	-0.000
828.47	-0.000
828.65	1.782
828.82	2.123
829.00	-0.000
829.17	-0.000
829.34	-0.000
829.52	-0.000
829.69	-0.000
829.87	-0.000
830.04	-0.000
830.22	-0.000
830.39	-0.000
830.57	-0.000
830.74	-0.000
830.92	-0.000
831.09	-0.000
831.26	-0.000
831.44	-0.000
831.61	-0.000
831.79	-0.000
831.96	-0.000
832.14	-0.000
832.31	-0.000
832.49	-0.000
832.66	-0.000
832.83	-0.000
833.01	-0.000
833.18	-0.000
833.36	-0.000
833.53	-0.000
833.70	-0.000
833.88	-0.000
834.05	-0.000
834.23	-0.000
834.40	-0.000
834.58	-0.000
834.75	-0.000
834.92	-0.000
835.10	-0.000
835.27	-0.000
835.45	-0.000
835.62	-0.000
835.79	-0.000
835.97	-0.000
836.14	-0.000
836.32	-0.000
836.49	-0.000
836.66	-0.000
836.84	-0.000
837.01	-0.000
837.18	-0.000
837.36	-0.000
837.53	-0.000
837.71	-0.000
837.88	-0.000
838.05	-0.000
838.23	-0.000
838.40	-0.000
838.58	-0.000
838.75	-0.000
838.92	-0.000
839.10	-0.000
839.27	-0.000
839.44	-0.000
839.62	-0.000
839.79	-0.000
839.96	-0.000
840.14	-0.000
840.31	-0.000
840.48	-0.000
840.66	-0.000
840.83	-0.000
841.01	-0.000
841.18	-0.000
841.35	-0.000
841.53	-0.000
841.70	-0.000
841.87	-0.000
842.05	-0.000
842.22	-0.000
842.39	-0.000
842.57	-0.000
842.74	-0.000
842.91	-0.000
843.09	-0.000
843.26	-0.000
843.43	-0.000
843.60	-0.000
843.78	-0.000
843.95	-0.000
844.12	-0.000
844.30	-0.000
844.47	-0.000
844.64	-0.000
844.82	-0.000
844.99	-0.000
845.16	-0.000
845.34	-0.000
845.51	-0.000
845.68	-0.000
845.85	-0.000
846.03	-0.000
846.20	-0.000
846.37	-0.000
846.55	-0.000
846.72	-0.000
846.89	-0.000
847.06	-0.000
847.24	-0.000
847.41	-0.000
847.58	-0.000
847.76	-0.000
847.93	-0.000
848.10	-0.000
848.27	-0.000
848.45	-0.000
848.62	-0.000
848.79	-0.000
848.97	-0.000
849.14	-0.000
849.31	-0.000
849.48	-0.000
849.66	-0.000
849.83	-0.000
850.00	-0.000
850.17	-0.000
850.35	-0.000
850.52	-0.000
850.69	-0.000
850.86	-0.000
851.04	-0.000
851.21	-0.000
851.38	-0.000
851.55	-0.000
851.72	-0.000
851.90	-0.000
852.07	-0.000
852.24	-0.000
852.41	-0.000
852.59	-0.000
852.76	-0.000
852.93	-0.000
853.10	-0.000
853.28	-0.000
853.45	-0.000
853.62	-0.000
853.79	-0.000
853.96	-0.000
854.14	-0.000
854.31	-0.000
854.48	-0.000
854.65	-0.000
854.82	-0.000
855.00	-0.000
855.17	-0.000
855.34	-0.000
855.51	-0.000
855.68	-0.000
855.86	-0.000
856.03	-0.000
856.20	-0.000
856.37	-0.000
856.54	-0.000
856.72	-0.000
856.89	-0.000
857.06	-0.000
857.23	-0.000
857.40	-0.000
857.57	-0.000
857.75	-0.000
857.92	-0.000
858.09	-0.000
858.26	-0.000
858.43	-0.000
858.60	-0.000
858.78	-0.000
858.95	-0.000
859.12	-0.000
859.29	-0.000
859.46	-0.000
859.63	-0.000
859.81	-0.000
859.98	-0.000
860.15	-0.000
860.32	-0.000
860.49	-0.000
860.66	-0.000
860.83	-0.000
861.01	-0.000
861.18	-0.000
861.35	-0.000
861.52	-0.000
861.69	-0.000
861.86	-0.000
862.03	-0.000
862.21	-0.000
862.38	-0.000
862.55	-0.000
862.72	-0.000
862.89	-0.000
863.06	-0.000
863.23	-0.000
863.40	-0.000
863.58	-0.000
863.75	-0.000
863.92	-0.000
864.09	-0.000
864.26	-0.000
864.43	-0.000
864.60	-0.000
864.77	-0.000
864.94	-0.000
865.11	-0.000
865.29	-0.000
865.46	-0.000
865.63	-0.000
865.80	-0.000
865.97	-0.000
866.14	-0.000
866.31	-0.000
866.48	-0.000
866.65	-0.000
866.82	-0.000
866.99	-0.000
867.16	-0.000
867.34	-0.000
867.51	-0.000
867.68	-0.000
867.85	-0.000
868.02	-0.000
868.19	-0.000
868.36	-0.000
868.53	-0.000
868.70	-0.000
868.87	-0.000
869.04	-0.000
869.21	-0.000
869.38	-0.000
869.55	-0.000
869.72	-0.000
869.89	-0.000
870.06	-0.000
870.24	-0.000
870.41	-0.000
870.58	-0.000
870.75	-0.000
870.92	-0.000
871.09	-0.000
871.26	-0.000
871.43	-0.000
871.60	-0.000
871.77	-0.000
871.94	-0.000
872.11	-0.000
872.28	-0.000
872.45	-0.000
872.62	-0.000
872.79	-0.000
872.96	-0.000
873.13	-0.000
873.30	-0.000
873.47	-0.000
873.64	-0.000
873.81	-0.000
873.98	-0.000
874.15	-0.000
874.32	-0.000
874.49	-0.000
874.66	-0.000
874.83	-0.000
875.00	-0.000
875.17	-0.000
875.34	-0.000
875.51	-0.000
875.68	-0.000
875.85	-0.000
876.02	-0.000
876.19	-0.000
876.36	-0.000
876.53	-0.000
876.70	-0.000
876.87	-0.000
877.04	-0.000
877.21	-0.000
877.38	-0.000
877.55	-0.000
877.72	-0.000
877.89	-0.000
878.06	-0.000
878.23	-0.000
878.39	-0.000
878.56	-0.000
878.73	-0.000
878.90	-0.000
879.07	-0.000
879.24	-0.000
879.41	-0.000
879.58	-0.000
879.75	-0.000
879.92	-0.000
880.09	-0.000
880.26	-0.000
880.43	-0.000
880.60	-0.000
880.77	-0.000
880.94	-0.000
881.11	-0.000
881.27	-0.000
881.44	-0.000
881.61	-0.000
881.78	-0.000
881.95	-0.000
882.12	-0.000
882.29	-0.000
882.46	-0.000
882.63	-0.000
882.80	-0.000
882.97	-0.000
883.14	-0.000
883.30	-0.000
883.47	-0.000
883.64	-0.000
883.81	-0.000
883.98	-0.000
884.15	-0.000
884.32	-0.000
884.49	-0.000
884.66	-0.000
884.82	-0.000
884.99	-0.000
885.16	-0.000
885.33	-0.000
885.50	-0.000
885.67	-0.000
885.84	-0.000
886.01	-0.000
886.17	-0.000
886.34	-0.000
886.51	-0.000
886.68	-0.000
886.85	-0.000
887.02	-0.000
887.19	-0.000
887.36	-0.000
887.52	-0.000
887.69	-0.000
887.86	-0.000
888.03	-0.000
888.20	-0.000
888.37	-0.000
888.54	-0.000
888.70	-0.000
888.87	-0.000
889.04	-0.000
889.21	-0.000
889.38	-0.000
889.55	-0.000
889.71	-0.000
889.88	-0.000
890.05	-0.000
890.22	-0.000
890.39	-0.000
>>>>>End Processed Spectral Data<<<<<
