SpectraSuite Data File
++++++++++++++++++++++++++++++++++++
Date: Fri Jun 19 15:34:27 CEST 2015
User: introlabs
Dark Spectrum Present: Yes
Reference Spectrum Present: Yes
Number of Sampled Component Spectra: 1
Spectrometers: USB4H08886
Integration Time (usec): 745692 (USB4H08886)
Spectra Averaged: 5 (USB4H08886)
Boxcar Smoothing: 5 (USB4H08886)
Correct for Electrical Dark: Yes (USB4H08886)
Strobe/Lamp Enabled: No (USB4H08886)
Correct for Detector Non-linearity: Yes (USB4H08886)
Correct for Stray Light: Yes (USB4H08886)
Number of Pixels in Processed Spectrum: 3648
>>>>>Begin Processed Spectral Data<<<<<
178.14	-0.000
178.36	-0.000
178.57	-0.000
178.79	-0.000
179.01	-0.000
179.22	-0.000
179.44	-0.000
179.65	-0.000
179.87	-0.000
180.08	-0.000
180.30	-0.000
180.52	-0.000
180.73	-0.000
180.95	-0.000
181.16	-0.000
181.38	-0.000
181.59	-0.000
181.81	-0.000
182.03	-0.000
182.24	-0.000
182.46	-0.000
182.67	-0.000
182.89	-0.000
183.10	-0.000
183.32	-0.000
183.54	-0.000
183.75	-0.000
183.97	-0.000
184.18	-0.000
184.40	-0.000
184.61	-0.000
184.83	-0.000
185.04	-0.000
185.26	-0.000
185.48	-0.000
185.69	-0.000
185.91	-0.000
186.12	-0.000
186.34	-0.000
186.55	-0.000
186.77	-0.000
186.98	-0.000
187.20	-0.000
187.42	-0.000
187.63	-0.000
187.85	-0.000
188.06	-0.000
188.28	-0.000
188.49	-0.000
188.71	-0.000
188.92	-0.000
189.14	-0.000
189.36	-0.000
189.57	-0.000
189.79	-0.000
190.00	-0.000
190.22	-0.000
190.43	-0.000
190.65	-0.000
190.86	-0.000
191.08	-0.000
191.29	-0.000
191.51	-0.000
191.72	-0.000
191.94	-0.000
192.16	-0.000
192.37	-0.000
192.59	-0.000
192.80	-0.000
193.02	-0.000
193.23	-0.000
193.45	-0.000
193.66	-0.000
193.88	-0.000
194.09	-0.000
194.31	-0.000
194.52	-0.000
194.74	-0.000
194.95	-0.000
195.17	-0.000
195.38	-0.000
195.60	-0.000
195.81	-0.000
196.03	-0.000
196.25	-0.000
196.46	-0.000
196.68	-0.000
196.89	-0.000
197.11	-0.000
197.32	-0.000
197.54	-0.000
197.75	-0.000
197.97	-0.000
198.18	-0.000
198.40	-0.000
198.61	-0.000
198.83	-0.000
199.04	-0.000
199.26	-0.000
199.47	-0.000
199.69	-0.000
199.90	-0.000
200.12	-0.000
200.33	-0.000
200.55	-0.000
200.76	-0.000
200.98	-0.000
201.19	-0.000
201.41	-0.000
201.62	-0.000
201.84	-0.000
202.05	-0.000
202.27	-0.000
202.48	-0.000
202.70	-0.000
202.91	-0.000
203.13	-0.000
203.34	-0.000
203.56	-0.000
203.77	-0.000
203.99	-0.000
204.20	-0.000
204.42	-0.000
204.63	-0.000
204.85	-0.000
205.06	-0.000
205.28	-0.000
205.49	-0.000
205.71	-0.000
205.92	-0.000
206.14	-0.000
206.35	-0.000
206.56	-0.000
206.78	-0.000
206.99	-0.000
207.21	-0.000
207.42	-0.000
207.64	-0.000
207.85	-0.000
208.07	-0.000
208.28	-0.000
208.50	-0.000
208.71	-0.000
208.93	-0.000
209.14	-0.000
209.36	-0.000
209.57	-0.000
209.79	-0.000
210.00	-0.000
210.22	-0.000
210.43	-0.000
210.64	-0.000
210.86	-0.000
211.07	-0.000
211.29	-0.000
211.50	-0.000
211.72	-0.000
211.93	-0.000
212.15	-0.000
212.36	-0.000
212.58	-0.000
212.79	-0.000
213.01	-0.000
213.22	-0.000
213.43	-0.000
213.65	-0.000
213.86	-0.000
214.08	-0.000
214.29	-0.000
214.51	-0.000
214.72	-0.000
214.94	-0.000
215.15	-0.000
215.36	-0.000
215.58	-0.000
215.79	-0.000
216.01	-0.000
216.22	-0.000
216.44	-0.000
216.65	-0.000
216.87	-0.000
217.08	-0.000
217.29	-0.000
217.51	-0.000
217.72	-0.000
217.94	-0.000
218.15	-0.000
218.37	-0.000
218.58	-0.000
218.80	-0.000
219.01	-0.000
219.22	-0.000
219.44	-0.000
219.65	-0.000
219.87	-0.000
220.08	-0.000
220.30	-0.000
220.51	-0.000
220.72	-0.000
220.94	-0.000
221.15	-0.000
221.37	-0.000
221.58	-0.000
221.79	-0.000
222.01	-0.000
222.22	-0.000
222.44	-0.000
222.65	-0.000
222.87	-0.000
223.08	-0.000
223.29	-0.000
223.51	-0.000
223.72	-0.000
223.94	-0.000
224.15	-0.000
224.36	-0.000
224.58	-0.000
224.79	-0.000
225.01	-0.000
225.22	-0.000
225.44	-0.000
225.65	-0.000
225.86	-0.000
226.08	-0.000
226.29	-0.000
226.51	-0.000
226.72	-0.000
226.93	-0.000
227.15	-0.000
227.36	-0.000
227.58	-0.000
227.79	-0.000
228.00	-0.000
228.22	-0.000
228.43	-0.000
228.65	-0.000
228.86	-0.000
229.07	-0.000
229.29	-0.000
229.50	-0.000
229.72	-0.000
229.93	-0.000
230.14	-0.000
230.36	-0.000
230.57	-0.000
230.78	-0.000
231.00	-0.000
231.21	-0.000
231.43	-0.000
231.64	-0.000
231.85	-0.000
232.07	-0.000
232.28	-0.000
232.50	-0.000
232.71	-0.000
232.92	-0.000
233.14	-0.000
233.35	-0.000
233.56	-0.000
233.78	-0.000
233.99	-0.000
234.21	-0.000
234.42	-0.000
234.63	-0.000
234.85	-0.000
235.06	-0.000
235.27	-0.000
235.49	-0.000
235.70	-0.000
235.91	-0.000
236.13	-0.000
236.34	-0.000
236.56	-0.000
236.77	-0.000
236.98	-0.000
237.20	-0.000
237.41	-0.000
237.62	-0.000
237.84	-0.000
238.05	-0.000
238.26	-0.000
238.48	-0.000
238.69	-0.000
238.91	-0.000
239.12	-0.000
239.33	-0.000
239.55	-0.000
239.76	-0.000
239.97	-0.000
240.19	-0.000
240.40	-0.000
240.61	-0.000
240.83	-0.000
241.04	-0.000
241.25	-0.000
241.47	-0.000
241.68	-0.000
241.89	-0.000
242.11	-0.000
242.32	-0.000
242.53	-0.000
242.75	-0.000
242.96	-0.000
243.17	-0.000
243.39	-0.000
243.60	-0.000
243.81	-0.000
244.03	-0.000
244.24	-0.000
244.45	-0.000
244.67	-0.000
244.88	-0.000
245.09	-0.000
245.31	-0.000
245.52	-0.000
245.73	-0.000
245.95	-0.000
246.16	-0.000
246.37	-0.000
246.59	-0.000
246.80	-0.000
247.01	-0.000
247.23	-0.000
247.44	-0.000
247.65	-0.000
247.87	-0.000
248.08	-0.000
248.29	-0.000
248.51	-0.000
248.72	-0.000
248.93	-0.000
249.15	-0.000
249.36	-0.000
249.57	-0.000
249.78	-0.000
250.00	-0.000
250.21	-0.000
250.42	-0.000
250.64	-0.000
250.85	-0.000
251.06	-0.000
251.28	-0.000
251.49	-0.000
251.70	-0.000
251.92	-0.000
252.13	-0.000
252.34	-0.000
252.55	-0.000
252.77	-0.000
252.98	-0.000
253.19	-0.000
253.41	-0.000
253.62	-0.000
253.83	-0.000
254.05	-0.000
254.26	-0.000
254.47	-0.000
254.68	-0.000
254.90	-0.000
255.11	-0.000
255.32	-0.000
255.54	-0.000
255.75	-0.000
255.96	-0.000
256.17	-0.000
256.39	-0.000
256.60	-0.000
256.81	-0.000
257.03	-0.000
257.24	-0.000
257.45	-0.000
257.66	-0.000
257.88	-0.000
258.09	-0.000
258.30	-0.000
258.51	-0.000
258.73	-0.000
258.94	-0.000
259.15	-0.000
259.37	-0.000
259.58	-0.000
259.79	-0.000
260.00	-0.000
260.22	-0.000
260.43	-0.000
260.64	-0.000
260.85	-0.000
261.07	-0.000
261.28	-0.000
261.49	-0.000
261.71	-0.000
261.92	-0.000
262.13	-0.000
262.34	-0.000
262.56	-0.000
262.77	-0.000
262.98	-0.000
263.19	-0.000
263.41	-0.000
263.62	-0.000
263.83	-0.000
264.04	-0.000
264.26	-0.000
264.47	-0.000
264.68	-0.000
264.89	-0.000
265.11	-0.000
265.32	-0.000
265.53	-0.000
265.74	-0.000
265.96	-0.000
266.17	-0.000
266.38	-0.000
266.59	-0.000
266.81	-0.000
267.02	-0.000
267.23	-0.000
267.44	-0.000
267.65	-0.000
267.87	-0.000
268.08	-0.000
268.29	-0.000
268.50	-0.000
268.72	-0.000
268.93	-0.000
269.14	-0.000
269.35	-0.000
269.57	-0.000
269.78	-0.000
269.99	-0.000
270.20	-0.000
270.41	-0.000
270.63	-0.000
270.84	-0.000
271.05	-0.000
271.26	-0.000
271.48	-0.000
271.69	-0.000
271.90	-0.000
272.11	-0.000
272.32	-0.000
272.54	-0.000
272.75	-0.000
272.96	-0.000
273.17	-0.000
273.39	-0.000
273.60	-0.000
273.81	-0.000
274.02	-0.000
274.23	-0.000
274.45	-0.000
274.66	-0.000
274.87	-0.000
275.08	-0.000
275.29	-0.000
275.51	-0.000
275.72	-0.000
275.93	-0.000
276.14	-0.000
276.35	-0.000
276.57	-0.000
276.78	-0.000
276.99	-0.000
277.20	-0.000
277.41	-0.000
277.63	-0.000
277.84	-0.000
278.05	-0.000
278.26	-0.000
278.47	-0.000
278.69	-0.000
278.90	-0.000
279.11	-0.000
279.32	-0.000
279.53	-0.000
279.74	-0.000
279.96	-0.000
280.17	-0.000
280.38	-0.000
280.59	-0.000
280.80	-0.000
281.02	-0.000
281.23	-0.000
281.44	-0.000
281.65	-0.000
281.86	-0.000
282.07	-0.000
282.29	-0.000
282.50	-0.000
282.71	-0.000
282.92	-0.000
283.13	-0.000
283.35	-0.000
283.56	-0.000
283.77	-0.000
283.98	-0.000
284.19	-0.000
284.40	-0.000
284.62	-0.000
284.83	-0.000
285.04	-0.000
285.25	-0.000
285.46	-0.000
285.67	-0.000
285.88	-0.000
286.10	-0.000
286.31	-0.000
286.52	-0.000
286.73	-0.000
286.94	-0.000
287.15	-0.000
287.37	-0.000
287.58	-0.000
287.79	-0.000
288.00	-0.000
288.21	-0.000
288.42	-0.000
288.63	-0.000
288.85	-0.000
289.06	-0.000
289.27	-0.000
289.48	-0.000
289.69	-0.000
289.90	-0.000
290.11	-0.000
290.33	-0.000
290.54	-0.000
290.75	-0.000
290.96	-0.000
291.17	-0.000
291.38	-0.000
291.59	-0.000
291.81	-0.000
292.02	-0.000
292.23	-0.000
292.44	-0.000
292.65	-0.000
292.86	-0.000
293.07	-0.000
293.28	-0.000
293.50	-0.000
293.71	-0.000
293.92	-0.000
294.13	-0.000
294.34	-0.000
294.55	-0.000
294.76	-0.000
294.97	-0.000
295.19	-0.000
295.40	-0.000
295.61	-0.000
295.82	-0.000
296.03	-0.000
296.24	-0.000
296.45	2.066
296.66	1.759
296.87	1.796
297.09	1.846
297.30	2.044
297.51	1.706
297.72	1.684
297.93	1.755
298.14	1.730
298.35	1.698
298.56	1.671
298.77	1.775
298.99	1.739
299.20	1.710
299.41	1.692
299.62	1.640
299.83	1.634
300.04	1.583
300.25	1.582
300.46	1.607
300.67	1.577
300.88	1.529
301.10	1.539
301.31	1.607
301.52	1.552
301.73	1.501
301.94	1.507
302.15	1.517
302.36	1.470
302.57	1.409
302.78	1.421
302.99	1.459
303.20	1.480
303.41	1.395
303.63	1.379
303.84	1.383
304.05	1.378
304.26	1.325
304.47	1.327
304.68	1.325
304.89	1.313
305.10	1.277
305.31	1.266
305.52	1.307
305.73	1.298
305.94	1.262
306.15	1.250
306.37	1.271
306.58	1.276
306.79	1.252
307.00	1.276
307.21	1.319
307.42	1.312
307.63	1.280
307.84	1.245
308.05	1.280
308.26	1.283
308.47	1.267
308.68	1.261
308.89	1.259
309.10	1.257
309.31	1.218
309.52	1.208
309.73	1.220
309.95	1.212
310.16	1.187
310.37	1.173
310.58	1.186
310.79	1.184
311.00	1.183
311.21	1.183
311.42	1.184
311.63	1.182
311.84	1.164
312.05	1.162
312.26	1.185
312.47	1.198
312.68	1.177
312.89	1.161
313.10	1.166
313.31	1.138
313.52	1.141
313.73	1.138
313.94	1.137
314.15	1.121
314.36	1.102
314.57	1.094
314.78	1.080
314.99	1.076
315.21	1.067
315.42	1.073
315.63	1.085
315.84	1.063
316.05	1.052
316.26	1.059
316.47	1.076
316.68	1.071
316.89	1.055
317.10	1.075
317.31	1.081
317.52	1.081
317.73	1.062
317.94	1.061
318.15	1.101
318.36	1.102
318.57	1.086
318.78	1.076
318.99	1.108
319.20	1.104
319.41	1.073
319.62	1.072
319.83	1.085
320.04	1.080
320.25	1.070
320.46	1.039
320.67	1.041
320.88	1.038
321.09	1.024
321.30	1.012
321.51	1.025
321.72	1.023
321.93	1.008
322.14	0.998
322.35	1.026
322.56	1.027
322.77	1.016
322.98	1.026
323.19	1.033
323.40	1.041
323.61	1.021
323.82	1.017
324.03	1.021
324.24	1.019
324.45	1.009
324.66	0.987
324.87	0.983
325.08	0.982
325.29	0.963
325.50	0.955
325.71	0.959
325.92	0.966
326.13	0.952
326.34	0.953
326.55	0.961
326.76	0.960
326.97	0.952
327.18	0.946
327.39	0.970
327.60	0.972
327.80	0.976
328.01	0.974
328.22	0.972
328.43	0.977
328.64	0.966
328.85	0.969
329.06	0.970
329.27	0.969
329.48	0.966
329.69	0.946
329.90	0.955
330.11	0.948
330.32	0.941
330.53	0.936
330.74	0.935
330.95	0.933
331.16	0.920
331.37	0.928
331.58	0.926
331.79	0.926
332.00	0.918
332.21	0.912
332.42	0.916
332.63	0.908
332.83	0.905
333.04	0.906
333.25	0.917
333.46	0.916
333.67	0.903
333.88	0.906
334.09	0.916
334.30	0.913
334.51	0.906
334.72	0.902
334.93	0.905
335.14	0.904
335.35	0.897
335.56	0.893
335.77	0.900
335.98	0.898
336.18	0.892
336.39	0.884
336.60	0.887
336.81	0.885
337.02	0.883
337.23	0.888
337.44	0.889
337.65	0.890
337.86	0.882
338.07	0.877
338.28	0.881
338.49	0.879
338.70	0.872
338.91	0.878
339.11	0.884
339.32	0.879
339.53	0.868
339.74	0.866
339.95	0.861
340.16	0.859
340.37	0.853
340.58	0.851
340.79	0.855
341.00	0.855
341.21	0.846
341.41	0.846
341.62	0.847
341.83	0.849
342.04	0.845
342.25	0.856
342.46	0.860
342.67	0.858
342.88	0.853
343.09	0.851
343.30	0.858
343.50	0.860
343.71	0.852
343.92	0.850
344.13	0.853
344.34	0.852
344.55	0.836
344.76	0.834
344.97	0.838
345.18	0.837
345.38	0.834
345.59	0.830
345.80	0.829
346.01	0.827
346.22	0.824
346.43	0.818
346.64	0.826
346.85	0.825
347.06	0.819
347.26	0.819
347.47	0.822
347.68	0.817
347.89	0.814
348.10	0.809
348.31	0.815
348.52	0.814
348.73	0.813
348.93	0.810
349.14	0.813
349.35	0.813
349.56	0.808
349.77	0.803
349.98	0.810
350.19	0.806
350.39	0.802
350.60	0.798
350.81	0.813
351.02	0.811
351.23	0.807
351.44	0.809
351.65	0.811
351.86	0.809
352.06	0.807
352.27	0.807
352.48	0.809
352.69	0.808
352.90	0.803
353.11	0.789
353.31	0.796
353.52	0.792
353.73	0.784
353.94	0.785
354.15	0.790
354.36	0.789
354.57	0.782
354.77	0.783
354.98	0.783
355.19	0.781
355.40	0.781
355.61	0.787
355.82	0.790
356.02	0.788
356.23	0.782
356.44	0.783
356.65	0.786
356.86	0.786
357.07	0.780
357.27	0.783
357.48	0.785
357.69	0.781
357.90	0.765
358.11	0.763
358.32	0.767
358.52	0.769
358.73	0.760
358.94	0.763
359.15	0.767
359.36	0.766
359.56	0.763
359.77	0.761
359.98	0.768
360.19	0.768
360.40	0.765
360.61	0.766
360.81	0.764
361.02	0.765
361.23	0.757
361.44	0.755
361.65	0.756
361.85	0.755
362.06	0.754
362.27	0.755
362.48	0.756
362.69	0.758
362.89	0.752
363.10	0.754
363.31	0.758
363.52	0.760
363.73	0.756
363.93	0.757
364.14	0.758
364.35	0.759
364.56	0.749
364.77	0.750
364.97	0.752
365.18	0.752
365.39	0.747
365.60	0.744
365.81	0.745
366.01	0.745
366.22	0.742
366.43	0.741
366.64	0.744
366.84	0.749
367.05	0.747
367.26	0.746
367.47	0.747
367.68	0.748
367.88	0.745
368.09	0.742
368.30	0.744
368.51	0.743
368.71	0.743
368.92	0.747
369.13	0.744
369.34	0.743
369.55	0.742
369.75	0.743
369.96	0.749
370.17	0.749
370.38	0.746
370.58	0.746
370.79	0.752
371.00	0.750
371.21	0.742
371.41	0.747
371.62	0.750
371.83	0.746
372.04	0.744
372.24	0.738
372.45	0.739
372.66	0.740
372.87	0.737
373.07	0.734
373.28	0.735
373.49	0.738
373.70	0.730
373.90	0.729
374.11	0.737
374.32	0.737
374.53	0.736
374.73	0.736
374.94	0.736
375.15	0.736
375.36	0.734
375.56	0.742
375.77	0.741
375.98	0.741
376.19	0.740
376.39	0.734
376.60	0.737
376.81	0.738
377.02	0.736
377.22	0.735
377.43	0.735
377.64	0.734
377.84	0.726
378.05	0.731
378.26	0.737
378.47	0.736
378.67	0.733
378.88	0.731
379.09	0.731
379.30	0.731
379.50	0.730
379.71	0.731
379.92	0.735
380.12	0.733
380.33	0.725
380.54	0.721
380.75	0.727
380.95	0.727
381.16	0.725
381.37	0.725
381.57	0.727
381.78	0.727
381.99	0.728
382.20	0.726
382.40	0.729
382.61	0.729
382.82	0.727
383.02	0.721
383.23	0.724
383.44	0.724
383.64	0.723
383.85	0.726
384.06	0.728
384.27	0.726
384.47	0.726
384.68	0.727
384.89	0.732
385.09	0.732
385.30	0.732
385.51	0.730
385.71	0.734
385.92	0.734
386.13	0.733
386.33	0.736
386.54	0.737
386.75	0.735
386.95	0.732
387.16	0.727
387.37	0.730
387.58	0.729
387.78	0.728
387.99	0.725
388.20	0.727
388.40	0.724
388.61	0.719
388.82	0.722
389.02	0.724
389.23	0.724
389.44	0.722
389.64	0.723
389.85	0.734
390.06	0.734
390.26	0.734
390.47	0.733
390.68	0.736
390.88	0.734
391.09	0.730
391.30	0.730
391.50	0.730
391.71	0.730
391.92	0.728
392.12	0.721
392.33	0.721
392.53	0.721
392.74	0.721
392.95	0.721
393.15	0.723
393.36	0.725
393.57	0.723
393.77	0.727
393.98	0.728
394.19	0.728
394.39	0.727
394.60	0.729
394.81	0.731
395.01	0.729
395.22	0.727
395.43	0.729
395.63	0.734
395.84	0.735
396.04	0.731
396.25	0.733
396.46	0.734
396.66	0.732
396.87	0.730
397.08	0.727
397.28	0.729
397.49	0.730
397.69	0.726
397.90	0.720
398.11	0.721
398.31	0.722
398.52	0.719
398.73	0.719
398.93	0.718
399.14	0.718
399.34	0.717
399.55	0.718
399.76	0.719
399.96	0.720
400.17	0.719
400.37	0.718
400.58	0.724
400.79	0.726
400.99	0.725
401.20	0.730
401.41	0.733
401.61	0.734
401.82	0.739
402.02	0.738
402.23	0.740
402.44	0.740
402.64	0.740
402.85	0.735
403.05	0.733
403.26	0.732
403.47	0.727
403.67	0.725
403.88	0.726
404.08	0.721
404.29	0.719
404.50	0.718
404.70	0.718
404.91	0.717
405.11	0.715
405.32	0.716
405.52	0.716
405.73	0.715
405.94	0.714
406.14	0.717
406.35	0.719
406.55	0.719
406.76	0.716
406.97	0.718
407.17	0.721
407.38	0.720
407.58	0.718
407.79	0.720
407.99	0.723
408.20	0.724
408.41	0.719
408.61	0.716
408.82	0.717
409.02	0.717
409.23	0.715
409.43	0.713
409.64	0.715
409.84	0.714
410.05	0.712
410.26	0.710
410.46	0.710
410.67	0.710
410.87	0.712
411.08	0.713
411.28	0.715
411.49	0.716
411.69	0.715
411.90	0.716
412.11	0.718
412.31	0.719
412.52	0.717
412.72	0.718
412.93	0.719
413.13	0.718
413.34	0.715
413.54	0.717
413.75	0.718
413.95	0.718
414.16	0.714
414.37	0.717
414.57	0.717
414.78	0.720
414.98	0.718
415.19	0.719
415.39	0.716
415.60	0.717
415.80	0.716
416.01	0.714
416.21	0.716
416.42	0.716
416.62	0.710
416.83	0.710
417.03	0.709
417.24	0.709
417.44	0.707
417.65	0.706
417.86	0.706
418.06	0.705
418.27	0.703
418.47	0.705
418.68	0.706
418.88	0.707
419.09	0.706
419.29	0.707
419.50	0.707
419.70	0.707
419.91	0.706
420.11	0.704
420.32	0.706
420.52	0.706
420.73	0.705
420.93	0.705
421.14	0.707
421.34	0.705
421.55	0.702
421.75	0.702
421.96	0.703
422.16	0.704
422.37	0.703
422.57	0.699
422.78	0.701
422.98	0.698
423.19	0.696
423.39	0.695
423.60	0.698
423.80	0.700
424.01	0.699
424.21	0.701
424.42	0.701
424.62	0.701
424.83	0.701
425.03	0.701
425.23	0.702
425.44	0.702
425.64	0.702
425.85	0.700
426.05	0.700
426.26	0.700
426.46	0.697
426.67	0.696
426.87	0.700
427.08	0.700
427.28	0.698
427.49	0.699
427.69	0.699
427.90	0.698
428.10	0.696
428.31	0.696
428.51	0.698
428.71	0.698
428.92	0.699
429.12	0.696
429.33	0.697
429.53	0.701
429.74	0.706
429.94	0.706
430.15	0.705
430.35	0.704
430.56	0.702
430.76	0.701
430.96	0.701
431.17	0.699
431.37	0.696
431.58	0.694
431.78	0.690
431.99	0.682
432.19	0.684
432.40	0.686
432.60	0.687
432.80	0.689
433.01	0.687
433.21	0.687
433.42	0.688
433.62	0.689
433.83	0.689
434.03	0.691
434.23	0.694
434.44	0.693
434.64	0.690
434.85	0.695
435.05	0.696
435.26	0.696
435.46	0.695
435.66	0.695
435.87	0.694
436.07	0.695
436.28	0.691
436.48	0.688
436.69	0.687
436.89	0.688
437.09	0.682
437.30	0.681
437.50	0.681
437.71	0.692
437.91	0.691
438.11	0.692
438.32	0.697
438.52	0.697
438.73	0.696
438.93	0.694
439.13	0.694
439.34	0.697
439.54	0.694
439.75	0.694
439.95	0.684
440.15	0.688
440.36	0.687
440.56	0.685
440.77	0.685
440.97	0.686
441.17	0.684
441.38	0.686
441.58	0.683
441.79	0.683
441.99	0.682
442.19	0.682
442.40	0.679
442.60	0.679
442.81	0.676
443.01	0.676
443.21	0.676
443.42	0.676
443.62	0.674
443.82	0.674
444.03	0.675
444.23	0.674
444.44	0.674
444.64	0.673
444.84	0.674
445.05	0.674
445.25	0.673
445.45	0.672
445.66	0.675
445.86	0.673
446.06	0.674
446.27	0.674
446.47	0.677
446.68	0.675
446.88	0.674
447.08	0.673
447.29	0.674
447.49	0.674
447.69	0.674
447.90	0.672
448.10	0.676
448.30	0.673
448.51	0.675
448.71	0.672
448.91	0.674
449.12	0.673
449.32	0.674
449.52	0.674
449.73	0.677
449.93	0.677
450.14	0.678
450.34	0.677
450.54	0.679
450.75	0.676
450.95	0.675
451.15	0.675
451.36	0.677
451.56	0.674
451.76	0.673
451.97	0.670
452.17	0.670
452.37	0.668
452.58	0.665
452.78	0.664
452.98	0.667
453.19	0.666
453.39	0.666
453.59	0.665
453.79	0.666
454.00	0.666
454.20	0.665
454.40	0.666
454.61	0.669
454.81	0.669
455.01	0.668
455.22	0.669
455.42	0.671
455.62	0.668
455.83	0.668
456.03	0.671
456.23	0.671
456.44	0.672
456.64	0.670
456.84	0.670
457.04	0.670
457.25	0.669
457.45	0.666
457.65	0.664
457.86	0.666
458.06	0.664
458.26	0.660
458.47	0.659
458.67	0.660
458.87	0.660
459.07	0.658
459.28	0.660
459.48	0.662
459.68	0.663
459.89	0.662
460.09	0.661
460.29	0.662
460.49	0.663
460.70	0.662
460.90	0.662
461.10	0.662
461.31	0.662
461.51	0.660
461.71	0.662
461.91	0.662
462.12	0.663
462.32	0.662
462.52	0.662
462.72	0.665
462.93	0.665
463.13	0.665
463.33	0.665
463.53	0.667
463.74	0.666
463.94	0.662
464.14	0.662
464.35	0.663
464.55	0.663
464.75	0.662
464.95	0.660
465.16	0.661
465.36	0.660
465.56	0.659
465.76	0.658
465.97	0.658
466.17	0.659
466.37	0.657
466.57	0.658
466.78	0.658
466.98	0.657
467.18	0.656
467.38	0.655
467.59	0.656
467.79	0.657
467.99	0.656
468.19	0.657
468.39	0.660
468.60	0.659
468.80	0.658
469.00	0.660
469.20	0.661
469.41	0.662
469.61	0.660
469.81	0.661
470.01	0.660
470.22	0.660
470.42	0.658
470.62	0.656
470.82	0.658
471.02	0.658
471.23	0.655
471.43	0.655
471.63	0.657
471.83	0.657
472.04	0.655
472.24	0.654
472.44	0.660
472.64	0.660
472.84	0.658
473.05	0.658
473.25	0.660
473.45	0.659
473.65	0.658
473.85	0.659
474.06	0.659
474.26	0.659
474.46	0.661
474.66	0.657
474.86	0.658
475.07	0.658
475.27	0.657
475.47	0.654
475.67	0.655
475.87	0.657
476.08	0.654
476.28	0.655
476.48	0.656
476.68	0.654
476.88	0.652
477.09	0.654
477.29	0.655
477.49	0.655
477.69	0.655
477.89	0.654
478.09	0.653
478.30	0.656
478.50	0.653
478.70	0.653
478.90	0.653
479.10	0.656
479.31	0.657
479.51	0.655
479.71	0.655
479.91	0.655
480.11	0.655
480.31	0.655
480.52	0.654
480.72	0.653
480.92	0.652
481.12	0.651
481.32	0.648
481.52	0.646
481.72	0.647
481.93	0.650
482.13	0.650
482.33	0.650
482.53	0.648
482.73	0.649
482.93	0.650
483.14	0.650
483.34	0.649
483.54	0.650
483.74	0.650
483.94	0.649
484.14	0.645
484.34	0.645
484.55	0.646
484.75	0.645
484.95	0.644
485.15	0.644
485.35	0.643
485.55	0.642
485.75	0.640
485.96	0.641
486.16	0.642
486.36	0.641
486.56	0.639
486.76	0.639
486.96	0.639
487.16	0.638
487.36	0.636
487.57	0.637
487.77	0.637
487.97	0.638
488.17	0.636
488.37	0.635
488.57	0.636
488.77	0.636
488.97	0.634
489.18	0.634
489.38	0.636
489.58	0.637
489.78	0.636
489.98	0.635
490.18	0.635
490.38	0.636
490.58	0.635
490.78	0.636
490.98	0.637
491.19	0.638
491.39	0.637
491.59	0.636
491.79	0.639
491.99	0.639
492.19	0.639
492.39	0.642
492.59	0.642
492.79	0.644
492.99	0.644
493.20	0.644
493.40	0.644
493.60	0.646
493.80	0.644
494.00	0.642
494.20	0.642
494.40	0.642
494.60	0.640
494.80	0.644
495.00	0.643
495.20	0.641
495.40	0.640
495.61	0.642
495.81	0.641
496.01	0.644
496.21	0.645
496.41	0.644
496.61	0.644
496.81	0.643
497.01	0.638
497.21	0.638
497.41	0.638
497.61	0.638
497.81	0.636
498.01	0.636
498.21	0.634
498.41	0.632
498.61	0.633
498.82	0.635
499.02	0.636
499.22	0.637
499.42	0.636
499.62	0.638
499.82	0.639
500.02	0.640
500.22	0.639
500.42	0.641
500.62	0.641
500.82	0.641
501.02	0.639
501.22	0.639
501.42	0.639
501.62	0.641
501.82	0.640
502.02	0.640
502.22	0.640
502.42	0.642
502.62	0.639
502.82	0.638
503.02	0.639
503.22	0.638
503.42	0.637
503.63	0.637
503.83	0.635
504.03	0.634
504.23	0.633
504.43	0.633
504.63	0.634
504.83	0.634
505.03	0.633
505.23	0.635
505.43	0.637
505.63	0.637
505.83	0.637
506.03	0.638
506.23	0.639
506.43	0.640
506.63	0.639
506.83	0.638
507.03	0.639
507.23	0.639
507.43	0.637
507.63	0.637
507.83	0.637
508.03	0.637
508.23	0.637
508.43	0.636
508.63	0.638
508.83	0.638
509.03	0.639
509.23	0.638
509.43	0.639
509.63	0.639
509.83	0.638
510.03	0.641
510.23	0.642
510.43	0.643
510.63	0.643
510.83	0.643
511.03	0.645
511.23	0.642
511.43	0.642
511.63	0.644
511.83	0.646
512.03	0.646
512.22	0.643
512.42	0.642
512.62	0.643
512.82	0.642
513.02	0.642
513.22	0.642
513.42	0.643
513.62	0.646
513.82	0.644
514.02	0.643
514.22	0.645
514.42	0.645
514.62	0.646
514.82	0.645
515.02	0.648
515.22	0.650
515.42	0.649
515.62	0.651
515.82	0.650
516.02	0.651
516.22	0.652
516.42	0.652
516.62	0.654
516.82	0.655
517.01	0.653
517.21	0.652
517.41	0.656
517.61	0.656
517.81	0.652
518.01	0.651
518.21	0.651
518.41	0.650
518.61	0.649
518.81	0.649
519.01	0.649
519.21	0.650
519.41	0.649
519.61	0.644
519.81	0.647
520.00	0.647
520.20	0.647
520.40	0.650
520.60	0.650
520.80	0.650
521.00	0.651
521.20	0.652
521.40	0.656
521.60	0.656
521.80	0.656
522.00	0.656
522.20	0.658
522.39	0.658
522.59	0.656
522.79	0.657
522.99	0.659
523.19	0.656
523.39	0.655
523.59	0.652
523.79	0.655
523.99	0.658
524.19	0.657
524.38	0.656
524.58	0.657
524.78	0.658
524.98	0.657
525.18	0.659
525.38	0.660
525.58	0.660
525.78	0.658
525.98	0.657
526.18	0.656
526.37	0.655
526.57	0.657
526.77	0.657
526.97	0.657
527.17	0.657
527.37	0.653
527.57	0.656
527.77	0.658
527.96	0.658
528.16	0.657
528.36	0.658
528.56	0.660
528.76	0.658
528.96	0.657
529.16	0.658
529.36	0.661
529.55	0.661
529.75	0.657
529.95	0.657
530.15	0.658
530.35	0.660
530.55	0.658
530.75	0.659
530.94	0.659
531.14	0.660
531.34	0.658
531.54	0.657
531.74	0.660
531.94	0.663
532.13	0.662
532.33	0.664
532.53	0.662
532.73	0.661
532.93	0.659
533.13	0.661
533.33	0.661
533.52	0.662
533.72	0.665
533.92	0.663
534.12	0.661
534.32	0.660
534.52	0.659
534.71	0.661
534.91	0.663
535.11	0.665
535.31	0.663
535.51	0.665
535.71	0.666
535.90	0.664
536.10	0.666
536.30	0.667
536.50	0.668
536.70	0.668
536.89	0.666
537.09	0.666
537.29	0.668
537.49	0.668
537.69	0.666
537.89	0.667
538.08	0.667
538.28	0.665
538.48	0.666
538.68	0.667
538.88	0.669
539.07	0.669
539.27	0.667
539.47	0.666
539.67	0.667
539.87	0.668
540.06	0.666
540.26	0.666
540.46	0.668
540.66	0.665
540.86	0.663
541.05	0.662
541.25	0.664
541.45	0.664
541.65	0.663
541.84	0.665
542.04	0.665
542.24	0.665
542.44	0.664
542.64	0.666
542.83	0.669
543.03	0.669
543.23	0.667
543.43	0.668
543.62	0.669
543.82	0.669
544.02	0.668
544.22	0.669
544.42	0.672
544.61	0.673
544.81	0.669
545.01	0.668
545.21	0.671
545.40	0.671
545.60	0.669
545.80	0.672
546.00	0.672
546.19	0.671
546.39	0.670
546.59	0.668
546.79	0.669
546.98	0.669
547.18	0.669
547.38	0.669
547.58	0.671
547.77	0.672
547.97	0.668
548.17	0.670
548.37	0.671
548.56	0.670
548.76	0.669
548.96	0.671
549.16	0.673
549.35	0.673
549.55	0.671
549.75	0.672
549.95	0.675
550.14	0.675
550.34	0.673
550.54	0.678
550.73	0.682
550.93	0.683
551.13	0.681
551.33	0.680
551.52	0.680
551.72	0.681
551.92	0.679
552.12	0.680
552.31	0.680
552.51	0.680
552.71	0.675
552.90	0.675
553.10	0.675
553.30	0.675
553.50	0.675
553.69	0.676
553.89	0.676
554.09	0.676
554.28	0.673
554.48	0.675
554.68	0.676
554.87	0.676
555.07	0.673
555.27	0.673
555.47	0.675
555.66	0.675
555.86	0.673
556.06	0.675
556.25	0.676
556.45	0.683
556.65	0.682
556.84	0.685
557.04	0.689
557.24	0.690
557.43	0.690
557.63	0.692
557.83	0.694
558.02	0.695
558.22	0.699
558.42	0.700
558.61	0.694
558.81	0.694
559.01	0.690
559.21	0.690
559.40	0.690
559.60	0.690
559.80	0.687
559.99	0.687
560.19	0.689
560.39	0.683
560.58	0.681
560.78	0.681
560.97	0.684
561.17	0.683
561.37	0.681
561.56	0.682
561.76	0.684
561.96	0.684
562.15	0.682
562.35	0.684
562.55	0.685
562.74	0.685
562.94	0.684
563.14	0.681
563.33	0.682
563.53	0.682
563.73	0.680
563.92	0.681
564.12	0.683
564.31	0.685
564.51	0.682
564.71	0.685
564.90	0.688
565.10	0.688
565.30	0.692
565.49	0.693
565.69	0.695
565.89	0.696
566.08	0.693
566.28	0.695
566.47	0.695
566.67	0.694
566.87	0.692
567.06	0.693
567.26	0.699
567.46	0.695
567.65	0.694
567.85	0.696
568.04	0.698
568.24	0.697
568.44	0.695
568.63	0.694
568.83	0.695
569.02	0.694
569.22	0.690
569.42	0.686
569.61	0.689
569.81	0.688
570.00	0.686
570.20	0.687
570.40	0.688
570.59	0.688
570.79	0.686
570.98	0.685
571.18	0.686
571.38	0.686
571.57	0.683
571.77	0.681
571.96	0.684
572.16	0.681
572.35	0.677
572.55	0.677
572.75	0.675
572.94	0.675
573.14	0.673
573.33	0.673
573.53	0.673
573.73	0.672
573.92	0.671
574.12	0.669
574.31	0.671
574.51	0.672
574.70	0.669
574.90	0.671
575.09	0.673
575.29	0.673
575.49	0.670
575.68	0.671
575.88	0.673
576.07	0.674
576.27	0.672
576.46	0.670
576.66	0.669
576.86	0.668
577.05	0.666
577.25	0.665
577.44	0.666
577.64	0.666
577.83	0.665
578.03	0.666
578.22	0.665
578.42	0.664
578.61	0.663
578.81	0.664
579.00	0.664
579.20	0.664
579.40	0.663
579.59	0.662
579.79	0.662
579.98	0.661
580.18	0.661
580.37	0.661
580.57	0.663
580.76	0.667
580.96	0.666
581.15	0.667
581.35	0.669
581.54	0.668
581.74	0.668
581.93	0.669
582.13	0.670
582.32	0.667
582.52	0.665
582.71	0.665
582.91	0.661
583.10	0.660
583.30	0.659
583.49	0.658
583.69	0.662
583.88	0.663
584.08	0.661
584.27	0.664
584.47	0.667
584.66	0.668
584.86	0.667
585.05	0.670
585.25	0.672
585.44	0.672
585.64	0.670
585.83	0.667
586.03	0.667
586.22	0.666
586.42	0.661
586.61	0.663
586.81	0.665
587.00	0.664
587.20	0.662
587.39	0.662
587.59	0.663
587.78	0.664
587.98	0.665
588.17	0.665
588.37	0.667
588.56	0.669
588.76	0.665
588.95	0.665
589.15	0.669
589.34	0.672
589.54	0.671
589.73	0.672
589.92	0.676
590.12	0.677
590.31	0.674
590.51	0.680
590.70	0.681
590.90	0.682
591.09	0.680
591.29	0.679
591.48	0.679
591.68	0.680
591.87	0.678
592.06	0.677
592.26	0.679
592.45	0.679
592.65	0.673
592.84	0.673
593.04	0.675
593.23	0.677
593.43	0.675
593.62	0.674
593.81	0.673
594.01	0.673
594.20	0.670
594.40	0.669
594.59	0.670
594.79	0.671
594.98	0.669
595.17	0.668
595.37	0.669
595.56	0.671
595.76	0.671
595.95	0.673
596.14	0.676
596.34	0.677
596.53	0.676
596.73	0.678
596.92	0.679
597.12	0.683
597.31	0.683
597.50	0.682
597.70	0.684
597.89	0.683
598.09	0.680
598.28	0.681
598.47	0.684
598.67	0.683
598.86	0.679
599.06	0.681
599.25	0.680
599.44	0.678
599.64	0.675
599.83	0.672
600.03	0.675
600.22	0.675
600.41	0.674
600.61	0.672
600.80	0.674
601.00	0.674
601.19	0.670
601.38	0.669
601.58	0.671
601.77	0.673
601.96	0.676
602.16	0.676
602.35	0.684
602.55	0.682
602.74	0.684
602.93	0.685
603.13	0.690
603.32	0.691
603.51	0.690
603.71	0.694
603.90	0.695
604.09	0.695
604.29	0.693
604.48	0.687
604.68	0.689
604.87	0.686
605.06	0.684
605.26	0.681
605.45	0.682
605.64	0.682
605.84	0.677
606.03	0.677
606.22	0.675
606.42	0.674
606.61	0.671
606.80	0.671
607.00	0.673
607.19	0.673
607.38	0.671
607.58	0.673
607.77	0.675
607.96	0.674
608.16	0.673
608.35	0.677
608.54	0.680
608.74	0.682
608.93	0.687
609.12	0.690
609.32	0.692
609.51	0.695
609.70	0.695
609.90	0.697
610.09	0.701
610.28	0.707
610.48	0.702
610.67	0.703
610.86	0.704
611.06	0.699
611.25	0.697
611.44	0.698
611.64	0.698
611.83	0.700
612.02	0.697
612.21	0.695
612.41	0.693
612.60	0.692
612.79	0.688
612.99	0.688
613.18	0.690
613.37	0.688
613.57	0.685
613.76	0.686
613.95	0.683
614.14	0.683
614.34	0.681
614.53	0.681
614.72	0.685
614.92	0.684
615.11	0.681
615.30	0.678
615.49	0.679
615.69	0.681
615.88	0.678
616.07	0.679
616.26	0.681
616.46	0.682
616.65	0.679
616.84	0.677
617.04	0.680
617.23	0.682
617.42	0.683
617.61	0.687
617.81	0.687
618.00	0.688
618.19	0.687
618.38	0.691
618.58	0.695
618.77	0.696
618.96	0.696
619.15	0.697
619.35	0.699
619.54	0.700
619.73	0.695
619.92	0.698
620.12	0.702
620.31	0.703
620.50	0.698
620.69	0.699
620.89	0.702
621.08	0.702
621.27	0.702
621.46	0.700
621.66	0.704
621.85	0.705
622.04	0.701
622.23	0.702
622.43	0.702
622.62	0.702
622.81	0.701
623.00	0.700
623.19	0.703
623.39	0.702
623.58	0.699
623.77	0.698
623.96	0.701
624.16	0.701
624.35	0.696
624.54	0.698
624.73	0.701
624.92	0.699
625.12	0.696
625.31	0.697
625.50	0.700
625.69	0.701
625.88	0.698
626.08	0.696
626.27	0.698
626.46	0.698
626.65	0.695
626.84	0.695
627.04	0.700
627.23	0.700
627.42	0.696
627.61	0.698
627.80	0.700
628.00	0.700
628.19	0.699
628.38	0.701
628.57	0.704
628.76	0.702
628.96	0.700
629.15	0.700
629.34	0.703
629.53	0.704
629.72	0.699
629.91	0.700
630.11	0.703
630.30	0.704
630.49	0.707
630.68	0.708
630.87	0.711
631.06	0.714
631.26	0.710
631.45	0.711
631.64	0.717
631.83	0.719
632.02	0.717
632.21	0.717
632.41	0.724
632.60	0.719
632.79	0.716
632.98	0.717
633.17	0.716
633.36	0.718
633.55	0.715
633.75	0.711
633.94	0.712
634.13	0.711
634.32	0.708
634.51	0.703
634.70	0.704
634.89	0.705
635.09	0.702
635.28	0.703
635.47	0.705
635.66	0.708
635.85	0.704
636.04	0.706
636.23	0.710
636.43	0.712
636.62	0.711
636.81	0.710
637.00	0.711
637.19	0.714
637.38	0.710
637.57	0.709
637.76	0.710
637.95	0.711
638.15	0.707
638.34	0.705
638.53	0.708
638.72	0.709
638.91	0.707
639.10	0.706
639.29	0.705
639.48	0.706
639.67	0.707
639.87	0.706
640.06	0.711
640.25	0.711
640.44	0.712
640.63	0.712
640.82	0.714
641.01	0.714
641.20	0.714
641.39	0.716
641.58	0.718
641.78	0.718
641.97	0.714
642.16	0.726
642.35	0.727
642.54	0.726
642.73	0.721
642.92	0.719
643.11	0.722
643.30	0.722
643.49	0.717
643.68	0.719
643.87	0.719
644.06	0.719
644.25	0.700
644.45	0.702
644.64	0.703
644.83	0.704
645.02	0.701
645.21	0.700
645.40	0.701
645.59	0.702
645.78	0.698
645.97	0.700
646.16	0.701
646.35	0.701
646.54	0.699
646.73	0.701
646.92	0.702
647.11	0.702
647.30	0.698
647.49	0.699
647.68	0.699
647.88	0.697
648.07	0.690
648.26	0.693
648.45	0.694
648.64	0.691
648.83	0.688
649.02	0.690
649.21	0.700
649.40	0.699
649.59	0.695
649.78	0.696
649.97	0.710
650.16	0.709
650.35	0.704
650.54	0.707
650.73	0.714
650.92	0.711
651.11	0.705
651.30	0.703
651.49	0.706
651.68	0.706
651.87	0.703
652.06	0.693
652.25	0.697
652.44	0.700
652.63	0.700
652.82	0.701
653.01	0.703
653.20	0.702
653.39	0.691
653.58	0.689
653.77	0.688
653.96	0.684
654.15	0.676
654.34	0.674
654.53	0.669
654.72	0.662
654.91	0.652
655.10	0.648
655.29	0.646
655.48	0.643
655.67	0.638
655.86	0.636
656.05	0.634
656.24	0.634
656.43	0.629
656.62	0.627
656.81	0.627
657.00	0.623
657.19	0.620
657.38	0.618
657.57	0.617
657.76	0.618
657.95	0.616
658.14	0.619
658.33	0.620
658.51	0.625
658.70	0.625
658.89	0.626
659.08	0.636
659.27	0.645
659.46	0.645
659.65	0.653
659.84	0.656
660.03	0.659
660.22	0.660
660.41	0.665
660.60	0.664
660.79	0.665
660.98	0.671
661.17	0.671
661.36	0.670
661.55	0.671
661.74	0.669
661.92	0.672
662.11	0.674
662.30	0.673
662.49	0.666
662.68	0.666
662.87	0.669
663.06	0.663
663.25	0.664
663.44	0.665
663.63	0.665
663.82	0.664
664.01	0.658
664.20	0.657
664.38	0.659
664.57	0.660
664.76	0.660
664.95	0.661
665.14	0.665
665.33	0.659
665.52	0.666
665.71	0.670
665.90	0.670
666.09	0.672
666.28	0.670
666.46	0.669
666.65	0.669
666.84	0.667
667.03	0.661
667.22	0.660
667.41	0.663
667.60	0.653
667.79	0.646
667.98	0.648
668.16	0.648
668.35	0.647
668.54	0.642
668.73	0.644
668.92	0.644
669.11	0.644
669.30	0.638
669.49	0.635
669.67	0.636
669.86	0.638
670.05	0.636
670.24	0.634
670.43	0.632
670.62	0.631
670.81	0.627
671.00	0.628
671.18	0.628
671.37	0.627
671.56	0.626
671.75	0.625
671.94	0.622
672.13	0.620
672.32	0.616
672.50	0.614
672.69	0.614
672.88	0.614
673.07	0.610
673.26	0.612
673.45	0.612
673.63	0.612
673.82	0.608
674.01	0.609
674.20	0.609
674.39	0.608
674.58	0.609
674.76	0.609
674.95	0.608
675.14	0.607
675.33	0.603
675.52	0.602
675.71	0.602
675.89	0.602
676.08	0.599
676.27	0.599
676.46	0.599
676.65	0.598
676.84	0.598
677.02	0.600
677.21	0.602
677.40	0.600
677.59	0.598
677.78	0.598
677.96	0.600
678.15	0.599
678.34	0.598
678.53	0.598
678.72	0.598
678.90	0.595
679.09	0.590
679.28	0.587
679.47	0.587
679.66	0.586
679.84	0.583
680.03	0.580
680.22	0.578
680.41	0.580
680.60	0.576
680.78	0.575
680.97	0.577
681.16	0.578
681.35	0.577
681.53	0.576
681.72	0.578
681.91	0.579
682.10	0.578
682.29	0.581
682.47	0.578
682.66	0.576
682.85	0.575
683.04	0.573
683.22	0.572
683.41	0.573
683.60	0.573
683.79	0.573
683.97	0.572
684.16	0.571
684.35	0.568
684.54	0.569
684.72	0.571
684.91	0.572
685.10	0.570
685.29	0.571
685.47	0.568
685.66	0.568
685.85	0.565
686.04	0.564
686.22	0.567
686.41	0.569
686.60	0.566
686.79	0.569
686.97	0.570
687.16	0.571
687.35	0.569
687.54	0.573
687.72	0.576
687.91	0.576
688.10	0.577
688.29	0.577
688.47	0.575
688.66	0.574
688.85	0.571
689.03	0.569
689.22	0.573
689.41	0.573
689.60	0.569
689.78	0.567
689.97	0.567
690.16	0.565
690.34	0.562
690.53	0.561
690.72	0.561
690.91	0.559
691.09	0.557
691.28	0.551
691.47	0.550
691.65	0.549
691.84	0.546
692.03	0.545
692.21	0.543
692.40	0.542
692.59	0.540
692.77	0.539
692.96	0.540
693.15	0.541
693.34	0.538
693.52	0.538
693.71	0.538
693.90	0.540
694.08	0.541
694.27	0.542
694.46	0.551
694.64	0.552
694.83	0.552
695.02	0.551
695.20	0.551
695.39	0.551
695.58	0.551
695.76	0.551
695.95	0.549
696.14	0.548
696.32	0.546
696.51	0.536
696.70	0.536
696.88	0.537
697.07	0.535
697.26	0.536
697.44	0.537
697.63	0.537
697.81	0.534
698.00	0.534
698.19	0.533
698.37	0.534
698.56	0.534
698.75	0.533
698.93	0.532
699.12	0.532
699.31	0.532
699.49	0.531
699.68	0.532
699.87	0.534
700.05	0.535
700.24	0.534
700.42	0.536
700.61	0.536
700.80	0.534
700.98	0.534
701.17	0.536
701.36	0.535
701.54	0.534
701.73	0.535
701.91	0.532
702.10	0.532
702.29	0.530
702.47	0.528
702.66	0.529
702.84	0.530
703.03	0.528
703.22	0.529
703.40	0.528
703.59	0.530
703.77	0.529
703.96	0.529
704.15	0.530
704.33	0.530
704.52	0.530
704.70	0.529
704.89	0.529
705.08	0.528
705.26	0.524
705.45	0.525
705.63	0.524
705.82	0.521
706.00	0.521
706.19	0.521
706.38	0.520
706.56	0.519
706.75	0.517
706.93	0.516
707.12	0.517
707.30	0.518
707.49	0.516
707.68	0.514
707.86	0.513
708.05	0.513
708.23	0.510
708.42	0.510
708.60	0.512
708.79	0.512
708.98	0.511
709.16	0.510
709.35	0.512
709.53	0.516
709.72	0.515
709.90	0.517
710.09	0.518
710.27	0.520
710.46	0.524
710.64	0.523
710.83	0.525
711.02	0.526
711.20	0.525
711.39	0.523
711.57	0.521
711.76	0.522
711.94	0.521
712.13	0.522
712.31	0.521
712.50	0.517
712.68	0.515
712.87	0.516
713.05	0.516
713.24	0.517
713.42	0.516
713.61	0.517
713.79	0.517
713.98	0.518
714.16	0.518
714.35	0.518
714.54	0.519
714.72	0.519
714.91	0.517
715.09	0.523
715.28	0.525
715.46	0.525
715.65	0.523
715.83	0.523
716.02	0.524
716.20	0.521
716.39	0.520
716.57	0.522
716.76	0.523
716.94	0.523
717.12	0.516
717.31	0.517
717.49	0.520
717.68	0.522
717.86	0.522
718.05	0.524
718.23	0.525
718.42	0.528
718.60	0.528
718.79	0.536
718.97	0.538
719.16	0.539
719.34	0.537
719.53	0.536
719.71	0.535
719.90	0.535
720.08	0.533
720.27	0.533
720.45	0.532
720.63	0.531
720.82	0.527
721.00	0.529
721.19	0.532
721.37	0.531
721.56	0.532
721.74	0.535
721.93	0.544
722.11	0.550
722.30	0.549
722.48	0.553
722.66	0.554
722.85	0.553
723.03	0.553
723.22	0.552
723.40	0.555
723.59	0.555
723.77	0.559
723.95	0.554
724.14	0.557
724.32	0.559
724.51	0.558
724.69	0.560
724.88	0.559
725.06	0.558
725.24	0.560
725.43	0.561
725.61	0.564
725.80	0.558
725.98	0.555
726.16	0.551
726.35	0.557
726.53	0.556
726.72	0.555
726.90	0.566
727.09	0.567
727.27	0.571
727.45	0.568
727.64	0.576
727.82	0.585
728.01	0.590
728.19	0.588
728.37	0.593
728.56	0.596
728.74	0.601
728.92	0.590
729.11	0.591
729.29	0.590
729.48	0.592
729.66	0.583
729.84	0.581
730.03	0.582
730.21	0.585
730.40	0.576
730.58	0.577
730.76	0.578
730.95	0.581
731.13	0.581
731.31	0.595
731.50	0.603
731.68	0.605
731.86	0.603
732.05	0.617
732.23	0.619
732.42	0.623
732.60	0.628
732.78	0.632
732.97	0.648
733.15	0.654
733.33	0.644
733.52	0.651
733.70	0.661
733.88	0.670
734.07	0.657
734.25	0.682
734.43	0.687
734.62	0.690
734.80	0.686
734.98	0.678
735.17	0.683
735.35	0.687
735.53	0.676
735.72	0.678
735.90	0.700
736.08	0.718
736.27	0.696
736.45	0.706
736.63	0.716
736.82	0.725
737.00	0.725
737.18	0.736
737.37	0.765
737.55	0.788
737.73	0.784
737.92	0.783
738.10	0.780
738.28	0.797
738.46	0.787
738.65	0.796
738.83	0.813
739.01	0.867
739.20	0.855
739.38	0.839
739.56	0.828
739.75	0.834
739.93	0.805
740.11	0.824
740.29	0.825
740.48	0.832
740.66	0.814
740.84	0.810
741.03	0.774
741.21	0.783
741.39	0.766
741.57	0.781
741.76	0.791
741.94	0.797
742.12	0.766
742.31	0.772
742.49	0.789
742.67	0.814
742.85	0.828
743.04	0.833
743.22	0.842
743.40	0.892
743.58	0.876
743.77	0.891
743.95	0.915
744.13	0.970
744.31	0.948
744.50	0.941
744.68	0.934
744.86	0.908
745.04	0.921
745.23	0.980
745.41	0.960
745.59	0.962
745.77	0.936
745.96	0.930
746.14	0.931
746.32	0.931
746.50	0.921
746.69	0.906
746.87	0.913
747.05	0.898
747.23	0.834
747.42	0.821
747.60	0.839
747.78	0.842
747.96	0.867
748.14	0.828
748.33	0.850
748.51	0.847
748.69	0.840
748.87	0.860
749.06	0.857
749.24	0.855
749.42	0.842
749.60	0.831
749.78	0.836
749.97	0.798
750.15	0.791
750.33	0.795
750.51	0.815
750.69	0.823
750.88	0.833
751.06	0.835
751.24	0.852
751.42	0.847
751.60	0.840
751.79	0.904
751.97	0.941
752.15	0.945
752.33	0.919
752.51	0.980
752.69	0.994
752.88	0.962
753.06	1.010
753.24	0.990
753.42	1.017
753.60	1.164
753.78	1.043
753.97	1.061
754.15	1.069
754.33	1.097
754.51	0.987
754.69	0.974
754.87	0.998
755.06	0.935
755.24	0.941
755.42	0.953
755.60	0.859
755.78	0.867
755.96	0.818
756.15	0.821
756.33	0.825
756.51	0.841
756.69	0.826
756.87	0.796
757.05	0.815
757.23	0.802
757.42	0.770
757.60	0.771
757.78	0.761
757.96	0.759
758.14	0.744
758.32	0.729
758.50	0.737
758.69	0.735
758.87	0.728
759.05	0.729
759.23	0.736
759.41	0.737
759.59	0.733
759.77	0.750
759.95	0.772
760.13	0.815
760.32	0.816
760.50	0.814
760.68	0.833
760.86	0.837
761.04	0.813
761.22	0.816
761.40	0.856
761.58	0.854
761.76	0.835
761.95	0.821
762.13	0.781
762.31	0.781
762.49	0.753
762.67	0.771
762.85	0.781
763.03	0.776
763.21	0.762
763.39	0.745
763.57	0.745
763.75	0.741
763.94	0.729
764.12	0.730
764.30	0.750
764.48	0.756
764.66	0.724
764.84	0.722
765.02	0.756
765.20	0.763
765.38	0.745
765.56	0.753
765.74	0.787
765.92	0.788
766.10	0.795
766.28	0.786
766.46	0.808
766.65	0.809
766.83	0.801
767.01	0.788
767.19	0.791
767.37	0.793
767.55	0.783
767.73	0.765
767.91	0.766
768.09	0.755
768.27	0.746
768.45	0.735
768.63	0.740
768.81	0.739
768.99	0.714
769.17	0.735
769.35	0.744
769.53	0.740
769.71	0.721
769.89	0.728
770.07	0.730
770.25	0.718
770.43	0.698
770.61	0.718
770.79	0.723
770.97	0.732
771.15	0.707
771.33	0.709
771.51	0.712
771.69	0.725
771.87	0.731
772.05	0.734
772.24	0.740
772.42	0.751
772.60	0.734
772.78	0.787
772.96	0.811
773.14	0.808
773.32	0.790
773.49	0.796
773.67	0.791
773.85	0.773
774.03	0.767
774.21	0.795
774.39	0.802
774.57	0.821
774.75	0.757
774.93	0.752
775.11	0.771
775.29	0.778
775.47	0.777
775.65	0.785
775.83	0.802
776.01	0.820
776.19	0.781
776.37	0.784
776.55	0.785
776.73	0.785
776.91	0.781
777.09	0.764
777.27	0.760
777.45	0.751
777.63	0.730
777.81	0.727
777.99	0.714
778.17	0.714
778.35	0.695
778.53	0.679
778.71	0.683
778.89	0.672
779.07	0.663
779.24	0.667
779.42	0.669
779.60	0.687
779.78	0.683
779.96	0.687
780.14	0.691
780.32	0.709
780.50	0.696
780.68	0.694
780.86	0.686
781.04	0.701
781.22	0.705
781.40	0.712
781.58	0.702
781.75	0.695
781.93	0.681
782.11	0.680
782.29	0.668
782.47	0.667
782.65	0.658
782.83	0.684
783.01	0.678
783.19	0.672
783.37	0.662
783.55	0.665
783.72	0.682
783.90	0.693
784.08	0.688
784.26	0.696
784.44	0.716
784.62	0.718
784.80	0.688
784.98	0.694
785.16	0.699
785.33	0.713
785.51	0.702
785.69	0.688
785.87	0.687
786.05	0.700
786.23	0.699
786.41	0.694
786.59	0.699
786.77	0.699
786.94	0.688
787.12	0.692
787.30	0.692
787.48	0.688
787.66	0.679
787.84	0.681
788.02	0.670
788.19	0.669
788.37	0.656
788.55	0.658
788.73	0.657
788.91	0.652
789.09	0.639
789.27	0.628
789.44	0.638
789.62	0.643
789.80	0.650
789.98	0.670
790.16	0.658
790.34	0.654
790.51	0.644
790.69	0.662
790.87	0.667
791.05	0.663
791.23	0.659
791.41	0.659
791.58	0.664
791.76	0.645
791.94	0.619
792.12	0.626
792.30	0.629
792.48	0.628
792.65	0.623
792.83	0.629
793.01	0.635
793.19	0.633
793.37	0.622
793.54	0.619
793.72	0.629
793.90	0.629
794.08	0.620
794.26	0.623
794.43	0.630
794.61	0.614
794.79	0.604
794.97	0.602
795.15	0.607
795.32	0.610
795.50	0.600
795.68	0.594
795.86	0.597
796.04	0.596
796.21	0.588
796.39	0.584
796.57	0.597
796.75	0.606
796.92	0.607
797.10	0.609
797.28	0.611
797.46	0.614
797.64	0.619
797.81	0.626
797.99	0.630
798.17	0.637
798.35	0.635
798.52	0.637
798.70	0.631
798.88	0.639
799.06	0.641
799.23	0.643
799.41	0.650
799.59	0.641
799.77	0.632
799.94	0.637
800.12	0.643
800.30	0.659
800.48	0.658
800.65	0.658
800.83	0.647
801.01	0.640
801.19	0.641
801.36	0.637
801.54	0.640
801.72	0.649
801.90	0.640
802.07	0.635
802.25	0.622
802.43	0.607
802.60	0.603
802.78	0.611
802.96	0.614
803.14	0.609
803.31	0.609
803.49	0.611
803.67	0.605
803.84	0.609
804.02	0.604
804.20	0.606
804.38	0.611
804.55	0.610
804.73	0.596
804.91	0.597
805.08	0.607
805.26	0.604
805.44	0.665
805.61	0.668
805.79	0.667
805.97	0.667
806.15	0.660
806.32	0.658
806.50	0.664
806.68	0.665
806.85	0.659
807.03	0.648
807.21	0.662
807.38	0.597
807.56	0.589
807.74	0.598
807.91	0.603
808.09	0.604
808.27	0.621
808.44	0.644
808.62	0.652
808.80	0.654
808.97	0.650
809.15	0.646
809.33	0.660
809.50	0.667
809.68	0.654
809.86	0.661
810.03	0.688
810.21	0.670
810.39	0.654
810.56	0.659
810.74	0.680
810.91	0.749
811.09	0.736
811.27	0.757
811.44	0.760
811.62	0.762
811.80	0.748
811.97	0.721
812.15	0.721
812.33	0.717
812.50	0.704
812.68	0.693
812.85	0.639
813.03	0.642
813.21	0.612
813.38	0.607
813.56	0.608
813.74	0.617
813.91	0.625
814.09	0.652
814.26	0.644
814.44	0.648
814.62	0.639
814.79	0.641
814.97	0.645
815.14	0.649
815.32	0.652
815.50	0.668
815.67	0.670
815.85	0.661
816.02	0.651
816.20	0.658
816.38	0.671
816.55	0.674
816.73	0.676
816.90	0.688
817.08	0.714
817.26	0.722
817.43	0.703
817.61	0.725
817.78	0.742
817.96	0.727
818.13	0.717
818.31	0.713
818.49	0.722
818.66	0.713
818.84	0.700
819.01	0.681
819.19	0.683
819.36	0.685
819.54	0.660
819.71	0.696
819.89	0.704
820.07	0.716
820.24	0.715
820.42	0.716
820.59	0.732
820.77	0.752
820.94	0.748
821.12	0.764
821.29	0.775
821.47	0.775
821.64	0.721
821.82	0.736
822.00	0.736
822.17	0.733
822.35	0.731
822.52	0.733
822.70	0.727
822.87	0.736
823.05	0.718
823.22	0.728
823.40	0.750
823.57	0.773
823.75	0.756
823.92	0.776
824.10	0.792
824.27	0.831
824.45	0.820
824.62	0.867
824.80	0.876
824.97	0.889
825.15	0.889
825.32	0.901
825.50	0.893
825.67	0.898
825.85	0.881
826.02	0.895
826.20	0.907
826.37	1.014
826.55	0.951
826.72	1.109
826.90	1.161
827.07	1.191
827.25	1.158
827.42	1.284
827.60	1.401
827.77	1.510
827.95	1.491
828.12	1.550
828.30	1.302
828.47	1.395
828.65	1.118
828.82	1.167
829.00	1.202
829.17	1.265
829.34	1.269
829.52	1.293
829.69	-0.000
829.87	-0.000
830.04	-0.000
830.22	-0.000
830.39	-0.000
830.57	-0.000
830.74	-0.000
830.92	-0.000
831.09	-0.000
831.26	-0.000
831.44	-0.000
831.61	-0.000
831.79	-0.000
831.96	-0.000
832.14	-0.000
832.31	-0.000
832.49	-0.000
832.66	-0.000
832.83	-0.000
833.01	-0.000
833.18	-0.000
833.36	-0.000
833.53	-0.000
833.70	-0.000
833.88	-0.000
834.05	-0.000
834.23	-0.000
834.40	-0.000
834.58	-0.000
834.75	-0.000
834.92	-0.000
835.10	-0.000
835.27	-0.000
835.45	-0.000
835.62	-0.000
835.79	-0.000
835.97	-0.000
836.14	-0.000
836.32	-0.000
836.49	-0.000
836.66	-0.000
836.84	-0.000
837.01	-0.000
837.18	-0.000
837.36	-0.000
837.53	-0.000
837.71	-0.000
837.88	-0.000
838.05	-0.000
838.23	-0.000
838.40	-0.000
838.58	-0.000
838.75	-0.000
838.92	-0.000
839.10	-0.000
839.27	-0.000
839.44	-0.000
839.62	-0.000
839.79	-0.000
839.96	-0.000
840.14	-0.000
840.31	-0.000
840.48	-0.000
840.66	-0.000
840.83	-0.000
841.01	-0.000
841.18	-0.000
841.35	-0.000
841.53	-0.000
841.70	-0.000
841.87	-0.000
842.05	-0.000
842.22	-0.000
842.39	-0.000
842.57	-0.000
842.74	-0.000
842.91	-0.000
843.09	-0.000
843.26	-0.000
843.43	-0.000
843.60	-0.000
843.78	-0.000
843.95	-0.000
844.12	-0.000
844.30	-0.000
844.47	-0.000
844.64	-0.000
844.82	-0.000
844.99	-0.000
845.16	-0.000
845.34	-0.000
845.51	-0.000
845.68	-0.000
845.85	-0.000
846.03	-0.000
846.20	-0.000
846.37	-0.000
846.55	-0.000
846.72	-0.000
846.89	-0.000
847.06	-0.000
847.24	-0.000
847.41	-0.000
847.58	-0.000
847.76	-0.000
847.93	-0.000
848.10	-0.000
848.27	-0.000
848.45	-0.000
848.62	-0.000
848.79	-0.000
848.97	-0.000
849.14	-0.000
849.31	-0.000
849.48	-0.000
849.66	-0.000
849.83	-0.000
850.00	-0.000
850.17	-0.000
850.35	-0.000
850.52	-0.000
850.69	-0.000
850.86	-0.000
851.04	-0.000
851.21	-0.000
851.38	-0.000
851.55	-0.000
851.72	-0.000
851.90	-0.000
852.07	-0.000
852.24	-0.000
852.41	-0.000
852.59	-0.000
852.76	-0.000
852.93	-0.000
853.10	-0.000
853.28	-0.000
853.45	-0.000
853.62	-0.000
853.79	-0.000
853.96	-0.000
854.14	-0.000
854.31	-0.000
854.48	-0.000
854.65	-0.000
854.82	-0.000
855.00	-0.000
855.17	-0.000
855.34	-0.000
855.51	-0.000
855.68	-0.000
855.86	-0.000
856.03	-0.000
856.20	-0.000
856.37	-0.000
856.54	-0.000
856.72	-0.000
856.89	-0.000
857.06	-0.000
857.23	-0.000
857.40	-0.000
857.57	-0.000
857.75	-0.000
857.92	-0.000
858.09	-0.000
858.26	-0.000
858.43	-0.000
858.60	-0.000
858.78	-0.000
858.95	-0.000
859.12	-0.000
859.29	-0.000
859.46	-0.000
859.63	-0.000
859.81	-0.000
859.98	-0.000
860.15	-0.000
860.32	-0.000
860.49	-0.000
860.66	-0.000
860.83	-0.000
861.01	-0.000
861.18	-0.000
861.35	-0.000
861.52	-0.000
861.69	-0.000
861.86	-0.000
862.03	-0.000
862.21	-0.000
862.38	-0.000
862.55	-0.000
862.72	-0.000
862.89	-0.000
863.06	-0.000
863.23	-0.000
863.40	-0.000
863.58	-0.000
863.75	-0.000
863.92	-0.000
864.09	-0.000
864.26	-0.000
864.43	-0.000
864.60	-0.000
864.77	-0.000
864.94	-0.000
865.11	-0.000
865.29	-0.000
865.46	-0.000
865.63	-0.000
865.80	-0.000
865.97	-0.000
866.14	-0.000
866.31	-0.000
866.48	-0.000
866.65	-0.000
866.82	-0.000
866.99	-0.000
867.16	-0.000
867.34	-0.000
867.51	-0.000
867.68	-0.000
867.85	-0.000
868.02	-0.000
868.19	-0.000
868.36	-0.000
868.53	-0.000
868.70	-0.000
868.87	-0.000
869.04	-0.000
869.21	-0.000
869.38	-0.000
869.55	-0.000
869.72	-0.000
869.89	-0.000
870.06	-0.000
870.24	-0.000
870.41	-0.000
870.58	-0.000
870.75	-0.000
870.92	-0.000
871.09	-0.000
871.26	-0.000
871.43	-0.000
871.60	-0.000
871.77	-0.000
871.94	-0.000
872.11	-0.000
872.28	-0.000
872.45	-0.000
872.62	-0.000
872.79	-0.000
872.96	-0.000
873.13	-0.000
873.30	-0.000
873.47	-0.000
873.64	-0.000
873.81	-0.000
873.98	-0.000
874.15	-0.000
874.32	-0.000
874.49	-0.000
874.66	-0.000
874.83	-0.000
875.00	-0.000
875.17	-0.000
875.34	-0.000
875.51	-0.000
875.68	-0.000
875.85	-0.000
876.02	-0.000
876.19	-0.000
876.36	-0.000
876.53	-0.000
876.70	-0.000
876.87	-0.000
877.04	-0.000
877.21	-0.000
877.38	-0.000
877.55	-0.000
877.72	-0.000
877.89	-0.000
878.06	-0.000
878.23	-0.000
878.39	-0.000
878.56	-0.000
878.73	-0.000
878.90	-0.000
879.07	-0.000
879.24	-0.000
879.41	-0.000
879.58	-0.000
879.75	-0.000
879.92	-0.000
880.09	-0.000
880.26	-0.000
880.43	-0.000
880.60	-0.000
880.77	-0.000
880.94	-0.000
881.11	-0.000
881.27	-0.000
881.44	-0.000
881.61	-0.000
881.78	-0.000
881.95	-0.000
882.12	-0.000
882.29	-0.000
882.46	-0.000
882.63	-0.000
882.80	-0.000
882.97	-0.000
883.14	-0.000
883.30	-0.000
883.47	-0.000
883.64	-0.000
883.81	-0.000
883.98	-0.000
884.15	-0.000
884.32	-0.000
884.49	-0.000
884.66	-0.000
884.82	-0.000
884.99	-0.000
885.16	-0.000
885.33	-0.000
885.50	-0.000
885.67	-0.000
885.84	-0.000
886.01	-0.000
886.17	-0.000
886.34	-0.000
886.51	-0.000
886.68	-0.000
886.85	-0.000
887.02	-0.000
887.19	-0.000
887.36	-0.000
887.52	-0.000
887.69	-0.000
887.86	-0.000
888.03	-0.000
888.20	-0.000
888.37	-0.000
888.54	-0.000
888.70	-0.000
888.87	-0.000
889.04	-0.000
889.21	-0.000
889.38	-0.000
889.55	-0.000
889.71	-0.000
889.88	-0.000
890.05	-0.000
890.22	-0.000
890.39	-0.000
>>>>>End Processed Spectral Data<<<<<
