SpectraSuite Data File
++++++++++++++++++++++++++++++++++++
Date: Fri Jun 19 16:55:51 CEST 2015
User: introlabs
Dark Spectrum Present: Yes
Reference Spectrum Present: Yes
Number of Sampled Component Spectra: 1
Spectrometers: USB4H08886
Integration Time (usec): 745692 (USB4H08886)
Spectra Averaged: 5 (USB4H08886)
Boxcar Smoothing: 5 (USB4H08886)
Correct for Electrical Dark: Yes (USB4H08886)
Strobe/Lamp Enabled: No (USB4H08886)
Correct for Detector Non-linearity: Yes (USB4H08886)
Correct for Stray Light: Yes (USB4H08886)
Number of Pixels in Processed Spectrum: 3648
>>>>>Begin Processed Spectral Data<<<<<
178.14	-0.000
178.36	-0.000
178.57	-0.000
178.79	-0.000
179.01	-0.000
179.22	-0.000
179.44	-0.000
179.65	-0.000
179.87	-0.000
180.08	-0.000
180.30	-0.000
180.52	-0.000
180.73	-0.000
180.95	-0.000
181.16	-0.000
181.38	-0.000
181.59	-0.000
181.81	-0.000
182.03	-0.000
182.24	-0.000
182.46	-0.000
182.67	-0.000
182.89	-0.000
183.10	-0.000
183.32	-0.000
183.54	-0.000
183.75	-0.000
183.97	-0.000
184.18	-0.000
184.40	-0.000
184.61	-0.000
184.83	-0.000
185.04	-0.000
185.26	-0.000
185.48	-0.000
185.69	-0.000
185.91	-0.000
186.12	-0.000
186.34	-0.000
186.55	-0.000
186.77	-0.000
186.98	-0.000
187.20	-0.000
187.42	-0.000
187.63	-0.000
187.85	-0.000
188.06	-0.000
188.28	-0.000
188.49	-0.000
188.71	-0.000
188.92	-0.000
189.14	-0.000
189.36	-0.000
189.57	-0.000
189.79	-0.000
190.00	-0.000
190.22	-0.000
190.43	-0.000
190.65	-0.000
190.86	-0.000
191.08	-0.000
191.29	-0.000
191.51	-0.000
191.72	-0.000
191.94	-0.000
192.16	-0.000
192.37	-0.000
192.59	-0.000
192.80	-0.000
193.02	-0.000
193.23	-0.000
193.45	-0.000
193.66	-0.000
193.88	-0.000
194.09	-0.000
194.31	-0.000
194.52	-0.000
194.74	-0.000
194.95	-0.000
195.17	-0.000
195.38	-0.000
195.60	-0.000
195.81	-0.000
196.03	-0.000
196.25	-0.000
196.46	-0.000
196.68	-0.000
196.89	-0.000
197.11	-0.000
197.32	-0.000
197.54	-0.000
197.75	-0.000
197.97	-0.000
198.18	-0.000
198.40	-0.000
198.61	-0.000
198.83	-0.000
199.04	-0.000
199.26	-0.000
199.47	-0.000
199.69	-0.000
199.90	-0.000
200.12	-0.000
200.33	-0.000
200.55	-0.000
200.76	-0.000
200.98	-0.000
201.19	-0.000
201.41	-0.000
201.62	-0.000
201.84	-0.000
202.05	-0.000
202.27	-0.000
202.48	-0.000
202.70	-0.000
202.91	-0.000
203.13	-0.000
203.34	-0.000
203.56	-0.000
203.77	-0.000
203.99	-0.000
204.20	-0.000
204.42	-0.000
204.63	-0.000
204.85	-0.000
205.06	-0.000
205.28	-0.000
205.49	-0.000
205.71	-0.000
205.92	-0.000
206.14	-0.000
206.35	-0.000
206.56	-0.000
206.78	-0.000
206.99	-0.000
207.21	-0.000
207.42	-0.000
207.64	-0.000
207.85	-0.000
208.07	-0.000
208.28	-0.000
208.50	-0.000
208.71	-0.000
208.93	-0.000
209.14	-0.000
209.36	-0.000
209.57	-0.000
209.79	-0.000
210.00	-0.000
210.22	-0.000
210.43	-0.000
210.64	-0.000
210.86	-0.000
211.07	-0.000
211.29	-0.000
211.50	-0.000
211.72	-0.000
211.93	-0.000
212.15	-0.000
212.36	-0.000
212.58	-0.000
212.79	-0.000
213.01	-0.000
213.22	-0.000
213.43	-0.000
213.65	-0.000
213.86	-0.000
214.08	-0.000
214.29	-0.000
214.51	-0.000
214.72	-0.000
214.94	-0.000
215.15	-0.000
215.36	-0.000
215.58	-0.000
215.79	-0.000
216.01	-0.000
216.22	-0.000
216.44	-0.000
216.65	-0.000
216.87	-0.000
217.08	-0.000
217.29	-0.000
217.51	-0.000
217.72	-0.000
217.94	-0.000
218.15	-0.000
218.37	-0.000
218.58	-0.000
218.80	-0.000
219.01	-0.000
219.22	-0.000
219.44	-0.000
219.65	-0.000
219.87	-0.000
220.08	-0.000
220.30	-0.000
220.51	-0.000
220.72	-0.000
220.94	-0.000
221.15	-0.000
221.37	-0.000
221.58	-0.000
221.79	-0.000
222.01	-0.000
222.22	-0.000
222.44	-0.000
222.65	-0.000
222.87	-0.000
223.08	-0.000
223.29	-0.000
223.51	-0.000
223.72	-0.000
223.94	-0.000
224.15	-0.000
224.36	-0.000
224.58	-0.000
224.79	-0.000
225.01	-0.000
225.22	-0.000
225.44	-0.000
225.65	-0.000
225.86	-0.000
226.08	-0.000
226.29	-0.000
226.51	-0.000
226.72	-0.000
226.93	-0.000
227.15	-0.000
227.36	-0.000
227.58	-0.000
227.79	-0.000
228.00	-0.000
228.22	-0.000
228.43	-0.000
228.65	-0.000
228.86	-0.000
229.07	-0.000
229.29	-0.000
229.50	-0.000
229.72	-0.000
229.93	-0.000
230.14	-0.000
230.36	-0.000
230.57	-0.000
230.78	-0.000
231.00	-0.000
231.21	-0.000
231.43	-0.000
231.64	-0.000
231.85	-0.000
232.07	-0.000
232.28	-0.000
232.50	-0.000
232.71	-0.000
232.92	-0.000
233.14	-0.000
233.35	-0.000
233.56	-0.000
233.78	-0.000
233.99	-0.000
234.21	-0.000
234.42	-0.000
234.63	-0.000
234.85	-0.000
235.06	-0.000
235.27	-0.000
235.49	-0.000
235.70	-0.000
235.91	-0.000
236.13	-0.000
236.34	-0.000
236.56	-0.000
236.77	-0.000
236.98	-0.000
237.20	-0.000
237.41	-0.000
237.62	-0.000
237.84	-0.000
238.05	-0.000
238.26	-0.000
238.48	-0.000
238.69	-0.000
238.91	-0.000
239.12	-0.000
239.33	-0.000
239.55	-0.000
239.76	-0.000
239.97	-0.000
240.19	-0.000
240.40	-0.000
240.61	-0.000
240.83	-0.000
241.04	-0.000
241.25	-0.000
241.47	-0.000
241.68	-0.000
241.89	-0.000
242.11	-0.000
242.32	-0.000
242.53	-0.000
242.75	-0.000
242.96	-0.000
243.17	-0.000
243.39	-0.000
243.60	-0.000
243.81	-0.000
244.03	-0.000
244.24	-0.000
244.45	-0.000
244.67	-0.000
244.88	-0.000
245.09	-0.000
245.31	-0.000
245.52	-0.000
245.73	-0.000
245.95	-0.000
246.16	-0.000
246.37	-0.000
246.59	-0.000
246.80	-0.000
247.01	-0.000
247.23	-0.000
247.44	-0.000
247.65	-0.000
247.87	-0.000
248.08	-0.000
248.29	-0.000
248.51	-0.000
248.72	-0.000
248.93	-0.000
249.15	-0.000
249.36	-0.000
249.57	-0.000
249.78	-0.000
250.00	-0.000
250.21	-0.000
250.42	-0.000
250.64	-0.000
250.85	-0.000
251.06	-0.000
251.28	-0.000
251.49	-0.000
251.70	-0.000
251.92	-0.000
252.13	-0.000
252.34	-0.000
252.55	-0.000
252.77	-0.000
252.98	-0.000
253.19	-0.000
253.41	-0.000
253.62	-0.000
253.83	-0.000
254.05	-0.000
254.26	-0.000
254.47	-0.000
254.68	-0.000
254.90	-0.000
255.11	-0.000
255.32	-0.000
255.54	-0.000
255.75	-0.000
255.96	-0.000
256.17	-0.000
256.39	-0.000
256.60	-0.000
256.81	-0.000
257.03	-0.000
257.24	-0.000
257.45	-0.000
257.66	-0.000
257.88	-0.000
258.09	-0.000
258.30	-0.000
258.51	-0.000
258.73	-0.000
258.94	-0.000
259.15	-0.000
259.37	-0.000
259.58	-0.000
259.79	-0.000
260.00	-0.000
260.22	-0.000
260.43	-0.000
260.64	-0.000
260.85	-0.000
261.07	-0.000
261.28	-0.000
261.49	-0.000
261.71	-0.000
261.92	-0.000
262.13	-0.000
262.34	-0.000
262.56	-0.000
262.77	-0.000
262.98	-0.000
263.19	-0.000
263.41	-0.000
263.62	-0.000
263.83	-0.000
264.04	-0.000
264.26	-0.000
264.47	-0.000
264.68	-0.000
264.89	-0.000
265.11	-0.000
265.32	-0.000
265.53	-0.000
265.74	-0.000
265.96	-0.000
266.17	-0.000
266.38	-0.000
266.59	-0.000
266.81	-0.000
267.02	-0.000
267.23	-0.000
267.44	-0.000
267.65	-0.000
267.87	-0.000
268.08	-0.000
268.29	-0.000
268.50	-0.000
268.72	-0.000
268.93	-0.000
269.14	-0.000
269.35	-0.000
269.57	-0.000
269.78	-0.000
269.99	-0.000
270.20	-0.000
270.41	-0.000
270.63	-0.000
270.84	-0.000
271.05	-0.000
271.26	-0.000
271.48	-0.000
271.69	-0.000
271.90	-0.000
272.11	-0.000
272.32	-0.000
272.54	-0.000
272.75	-0.000
272.96	-0.000
273.17	-0.000
273.39	-0.000
273.60	-0.000
273.81	-0.000
274.02	-0.000
274.23	-0.000
274.45	-0.000
274.66	-0.000
274.87	-0.000
275.08	-0.000
275.29	-0.000
275.51	-0.000
275.72	-0.000
275.93	-0.000
276.14	-0.000
276.35	-0.000
276.57	-0.000
276.78	-0.000
276.99	-0.000
277.20	-0.000
277.41	-0.000
277.63	-0.000
277.84	-0.000
278.05	-0.000
278.26	-0.000
278.47	-0.000
278.69	-0.000
278.90	-0.000
279.11	-0.000
279.32	-0.000
279.53	-0.000
279.74	-0.000
279.96	-0.000
280.17	-0.000
280.38	-0.000
280.59	-0.000
280.80	-0.000
281.02	-0.000
281.23	-0.000
281.44	-0.000
281.65	-0.000
281.86	-0.000
282.07	-0.000
282.29	-0.000
282.50	-0.000
282.71	-0.000
282.92	-0.000
283.13	-0.000
283.35	-0.000
283.56	-0.000
283.77	-0.000
283.98	-0.000
284.19	-0.000
284.40	-0.000
284.62	-0.000
284.83	-0.000
285.04	-0.000
285.25	-0.000
285.46	-0.000
285.67	-0.000
285.88	-0.000
286.10	-0.000
286.31	-0.000
286.52	-0.000
286.73	-0.000
286.94	-0.000
287.15	-0.000
287.37	-0.000
287.58	-0.000
287.79	-0.000
288.00	-0.000
288.21	-0.000
288.42	-0.000
288.63	-0.000
288.85	-0.000
289.06	-0.000
289.27	-0.000
289.48	-0.000
289.69	-0.000
289.90	-0.000
290.11	-0.000
290.33	-0.000
290.54	-0.000
290.75	-0.000
290.96	-0.000
291.17	-0.000
291.38	-0.000
291.59	-0.000
291.81	-0.000
292.02	-0.000
292.23	-0.000
292.44	-0.000
292.65	-0.000
292.86	-0.000
293.07	-0.000
293.28	-0.000
293.50	-0.000
293.71	-0.000
293.92	-0.000
294.13	-0.000
294.34	-0.000
294.55	-0.000
294.76	-0.000
294.97	-0.000
295.19	-0.000
295.40	-0.000
295.61	-0.000
295.82	-0.000
296.03	-0.000
296.24	-0.000
296.45	-0.000
296.66	-0.000
296.87	-0.000
297.09	-0.000
297.30	-0.000
297.51	-0.000
297.72	-0.000
297.93	-0.000
298.14	-0.000
298.35	-0.000
298.56	-0.000
298.77	-0.000
298.99	-0.000
299.20	-0.000
299.41	-0.000
299.62	-0.000
299.83	-0.000
300.04	-0.000
300.25	-0.000
300.46	-0.000
300.67	-0.000
300.88	-0.000
301.10	-0.000
301.31	-0.000
301.52	-0.000
301.73	-0.000
301.94	-0.000
302.15	-0.000
302.36	-0.000
302.57	-0.000
302.78	-0.000
302.99	-0.000
303.20	-0.000
303.41	-0.000
303.63	-0.000
303.84	-0.000
304.05	-0.000
304.26	-0.000
304.47	-0.000
304.68	-0.000
304.89	-0.000
305.10	-0.000
305.31	-0.000
305.52	-0.000
305.73	-0.000
305.94	-0.000
306.15	-0.000
306.37	-0.000
306.58	-0.000
306.79	-0.000
307.00	-0.000
307.21	-0.000
307.42	-0.000
307.63	-0.000
307.84	-0.000
308.05	-0.000
308.26	-0.000
308.47	-0.000
308.68	-0.000
308.89	-0.000
309.10	-0.000
309.31	-0.000
309.52	2.895
309.73	3.538
309.95	3.131
310.16	2.403
310.37	2.254
310.58	2.392
310.79	2.364
311.00	2.468
311.21	2.546
311.42	2.535
311.63	2.494
311.84	2.331
312.05	2.303
312.26	2.610
312.47	3.155
312.68	2.531
312.89	2.320
313.10	2.354
313.31	2.089
313.52	2.170
313.73	2.159
313.94	2.158
314.15	2.045
314.36	1.957
314.57	1.924
314.78	1.848
314.99	1.824
315.21	1.784
315.42	1.808
315.63	1.840
315.84	1.746
316.05	1.716
316.26	1.738
316.47	1.792
316.68	1.784
316.89	1.720
317.10	1.808
317.31	1.821
317.52	1.841
317.73	1.770
317.94	1.767
318.15	1.954
318.36	1.954
318.57	1.900
318.78	1.849
318.99	2.027
319.20	2.032
319.41	1.840
319.62	1.856
319.83	1.929
320.04	1.912
320.25	1.884
320.46	1.731
320.67	1.726
320.88	1.710
321.09	1.675
321.30	1.622
321.51	1.661
321.72	1.661
321.93	1.611
322.14	1.574
322.35	1.656
322.56	1.665
322.77	1.630
322.98	1.681
323.19	1.695
323.40	1.724
323.61	1.658
323.82	1.642
324.03	1.653
324.24	1.653
324.45	1.619
324.66	1.555
324.87	1.536
325.08	1.543
325.29	1.492
325.50	1.475
325.71	1.477
325.92	1.499
326.13	1.465
326.34	1.467
326.55	1.479
326.76	1.477
326.97	1.460
327.18	1.447
327.39	1.510
327.60	1.513
327.80	1.528
328.01	1.531
328.22	1.529
328.43	1.542
328.64	1.517
328.85	1.535
329.06	1.542
329.27	1.542
329.48	1.535
329.69	1.474
329.90	1.497
330.11	1.477
330.32	1.466
330.53	1.444
330.74	1.438
330.95	1.434
331.16	1.397
331.37	1.418
331.58	1.414
331.79	1.415
332.00	1.403
332.21	1.391
332.42	1.395
332.63	1.372
332.83	1.369
333.04	1.377
333.25	1.402
333.46	1.402
333.67	1.368
333.88	1.371
334.09	1.395
334.30	1.390
334.51	1.372
334.72	1.364
334.93	1.367
335.14	1.363
335.35	1.350
335.56	1.339
335.77	1.351
335.98	1.355
336.18	1.344
336.39	1.323
336.60	1.325
336.81	1.322
337.02	1.324
337.23	1.336
337.44	1.341
337.65	1.348
337.86	1.328
338.07	1.319
338.28	1.323
338.49	1.326
338.70	1.314
338.91	1.332
339.11	1.349
339.32	1.340
339.53	1.319
339.74	1.315
339.95	1.304
340.16	1.307
340.37	1.298
340.58	1.294
340.79	1.292
341.00	1.297
341.21	1.279
341.41	1.278
341.62	1.282
341.83	1.283
342.04	1.276
342.25	1.305
342.46	1.309
342.67	1.307
342.88	1.298
343.09	1.301
343.30	1.313
343.50	1.321
343.71	1.302
343.92	1.299
344.13	1.309
344.34	1.310
344.55	1.273
344.76	1.273
344.97	1.282
345.18	1.282
345.38	1.279
345.59	1.273
345.80	1.271
346.01	1.271
346.22	1.269
346.43	1.257
346.64	1.275
346.85	1.274
347.06	1.263
347.26	1.260
347.47	1.265
347.68	1.259
347.89	1.250
348.10	1.238
348.31	1.248
348.52	1.244
348.73	1.241
348.93	1.236
349.14	1.240
349.35	1.242
349.56	1.235
349.77	1.228
349.98	1.238
350.19	1.235
350.39	1.231
350.60	1.224
350.81	1.261
351.02	1.260
351.23	1.250
351.44	1.256
351.65	1.259
351.86	1.256
352.06	1.252
352.27	1.253
352.48	1.256
352.69	1.257
352.90	1.247
353.11	1.216
353.31	1.234
353.52	1.229
353.73	1.217
353.94	1.222
354.15	1.232
354.36	1.234
354.57	1.218
354.77	1.222
354.98	1.219
355.19	1.221
355.40	1.222
355.61	1.236
355.82	1.241
356.02	1.241
356.23	1.229
356.44	1.233
356.65	1.240
356.86	1.239
357.07	1.231
357.27	1.235
357.48	1.238
357.69	1.230
357.90	1.195
358.11	1.189
358.32	1.193
358.52	1.200
358.73	1.183
358.94	1.190
359.15	1.203
359.36	1.203
359.56	1.197
359.77	1.193
359.98	1.205
360.19	1.206
360.40	1.205
360.61	1.210
360.81	1.203
361.02	1.204
361.23	1.187
361.44	1.182
361.65	1.182
361.85	1.181
362.06	1.179
362.27	1.185
362.48	1.185
362.69	1.188
362.89	1.177
363.10	1.182
363.31	1.192
363.52	1.200
363.73	1.191
363.93	1.194
364.14	1.196
364.35	1.199
364.56	1.181
364.77	1.181
364.97	1.184
365.18	1.184
365.39	1.176
365.60	1.169
365.81	1.170
366.01	1.170
366.22	1.164
366.43	1.163
366.64	1.165
366.84	1.176
367.05	1.175
367.26	1.174
367.47	1.179
367.68	1.178
367.88	1.176
368.09	1.170
368.30	1.175
368.51	1.176
368.71	1.176
368.92	1.189
369.13	1.184
369.34	1.185
369.55	1.186
369.75	1.186
369.96	1.199
370.17	1.200
370.38	1.198
370.58	1.198
370.79	1.209
371.00	1.207
371.21	1.190
371.41	1.202
371.62	1.209
371.83	1.201
372.04	1.200
372.24	1.188
372.45	1.188
372.66	1.188
372.87	1.186
373.07	1.180
373.28	1.182
373.49	1.191
373.70	1.172
373.90	1.169
374.11	1.188
374.32	1.186
374.53	1.186
374.73	1.188
374.94	1.192
375.15	1.190
375.36	1.185
375.56	1.208
375.77	1.207
375.98	1.207
376.19	1.202
376.39	1.189
376.60	1.194
376.81	1.195
377.02	1.191
377.22	1.192
377.43	1.192
377.64	1.194
377.84	1.174
378.05	1.184
378.26	1.199
378.47	1.200
378.67	1.196
378.88	1.192
379.09	1.192
379.30	1.192
379.50	1.188
379.71	1.192
379.92	1.196
380.12	1.194
380.33	1.178
380.54	1.169
380.75	1.184
380.95	1.183
381.16	1.182
381.37	1.183
381.57	1.185
381.78	1.186
381.99	1.187
382.20	1.188
382.40	1.196
382.61	1.196
382.82	1.191
383.02	1.176
383.23	1.184
383.44	1.184
383.64	1.183
383.85	1.190
384.06	1.197
384.27	1.194
384.47	1.192
384.68	1.190
384.89	1.203
385.09	1.203
385.30	1.203
385.51	1.200
385.71	1.207
385.92	1.206
386.13	1.205
386.33	1.212
386.54	1.212
386.75	1.210
386.95	1.204
387.16	1.193
387.37	1.197
387.58	1.195
387.78	1.191
387.99	1.187
388.20	1.190
388.40	1.182
388.61	1.171
388.82	1.182
389.02	1.183
389.23	1.182
389.44	1.180
389.64	1.182
389.85	1.211
390.06	1.210
390.26	1.212
390.47	1.211
390.68	1.217
390.88	1.213
391.09	1.202
391.30	1.202
391.50	1.202
391.71	1.202
391.92	1.196
392.12	1.173
392.33	1.175
392.53	1.174
392.74	1.176
392.95	1.172
393.15	1.178
393.36	1.181
393.57	1.178
393.77	1.182
393.98	1.184
394.19	1.185
394.39	1.185
394.60	1.187
394.81	1.190
395.01	1.185
395.22	1.184
395.43	1.184
395.63	1.195
395.84	1.197
396.04	1.191
396.25	1.195
396.46	1.196
396.66	1.191
396.87	1.186
397.08	1.180
397.28	1.183
397.49	1.185
397.69	1.179
397.90	1.164
398.11	1.164
398.31	1.164
398.52	1.155
398.73	1.158
398.93	1.155
399.14	1.153
399.34	1.152
399.55	1.153
399.76	1.151
399.96	1.152
400.17	1.151
400.37	1.149
400.58	1.163
400.79	1.168
400.99	1.160
401.20	1.173
401.41	1.176
401.61	1.176
401.82	1.190
402.02	1.190
402.23	1.192
402.44	1.189
402.64	1.190
402.85	1.175
403.05	1.171
403.26	1.170
403.47	1.156
403.67	1.153
403.88	1.154
404.08	1.138
404.29	1.135
404.50	1.133
404.70	1.133
404.91	1.130
405.11	1.126
405.32	1.126
405.52	1.125
405.73	1.125
405.94	1.123
406.14	1.128
406.35	1.131
406.55	1.130
406.76	1.125
406.97	1.125
407.17	1.130
407.38	1.130
407.58	1.127
407.79	1.131
407.99	1.135
408.20	1.136
408.41	1.126
408.61	1.122
408.82	1.122
409.02	1.122
409.23	1.118
409.43	1.114
409.64	1.114
409.84	1.113
410.05	1.108
410.26	1.103
410.46	1.101
410.67	1.101
410.87	1.106
411.08	1.109
411.28	1.110
411.49	1.113
411.69	1.111
411.90	1.113
412.11	1.114
412.31	1.115
412.52	1.113
412.72	1.114
412.93	1.114
413.13	1.111
413.34	1.104
413.54	1.108
413.75	1.111
413.95	1.109
414.16	1.104
414.37	1.108
414.57	1.107
414.78	1.113
414.98	1.111
415.19	1.113
415.39	1.105
415.60	1.110
415.80	1.107
416.01	1.102
416.21	1.103
416.42	1.101
416.62	1.093
416.83	1.093
417.03	1.089
417.24	1.087
417.44	1.083
417.65	1.082
417.86	1.081
418.06	1.076
418.27	1.073
418.47	1.077
418.68	1.076
418.88	1.077
419.09	1.074
419.29	1.075
419.50	1.075
419.70	1.075
419.91	1.073
420.11	1.068
420.32	1.071
420.52	1.070
420.73	1.068
420.93	1.069
421.14	1.072
421.34	1.070
421.55	1.066
421.75	1.065
421.96	1.066
422.16	1.066
422.37	1.064
422.57	1.059
422.78	1.062
422.98	1.055
423.19	1.052
423.39	1.047
423.60	1.053
423.80	1.054
424.01	1.051
424.21	1.056
424.42	1.055
424.62	1.055
424.83	1.054
425.03	1.053
425.23	1.054
425.44	1.054
425.64	1.055
425.85	1.052
426.05	1.052
426.26	1.053
426.46	1.046
426.67	1.045
426.87	1.051
427.08	1.052
427.28	1.050
427.49	1.053
427.69	1.054
427.90	1.051
428.10	1.047
428.31	1.047
428.51	1.050
428.71	1.048
428.92	1.051
429.12	1.046
429.33	1.045
429.53	1.053
429.74	1.064
429.94	1.063
430.15	1.061
430.35	1.060
430.56	1.055
430.76	1.052
430.96	1.053
431.17	1.047
431.37	1.044
431.58	1.042
431.78	1.033
431.99	1.019
432.19	1.024
432.40	1.028
432.60	1.028
432.80	1.034
433.01	1.032
433.21	1.031
433.42	1.034
433.62	1.034
433.83	1.034
434.03	1.039
434.23	1.043
434.44	1.040
434.64	1.036
434.85	1.045
435.05	1.045
435.26	1.044
435.46	1.043
435.66	1.041
435.87	1.040
436.07	1.040
436.28	1.032
436.48	1.027
436.69	1.026
436.89	1.026
437.09	1.015
437.30	1.013
437.50	1.013
437.71	1.037
437.91	1.036
438.11	1.039
438.32	1.045
438.52	1.046
438.73	1.045
438.93	1.041
439.13	1.040
439.34	1.047
439.54	1.043
439.75	1.044
439.95	1.022
440.15	1.030
440.36	1.027
440.56	1.023
440.77	1.024
440.97	1.024
441.17	1.022
441.38	1.024
441.58	1.018
441.79	1.016
441.99	1.015
442.19	1.011
442.40	1.005
442.60	1.005
442.81	1.002
443.01	1.001
443.21	1.001
443.42	1.002
443.62	1.000
443.82	0.999
444.03	1.002
444.23	1.002
444.44	1.003
444.64	1.002
444.84	1.005
445.05	1.005
445.25	1.002
445.45	1.002
445.66	1.005
445.86	1.004
446.06	1.008
446.27	1.005
446.47	1.010
446.68	1.006
446.88	1.004
447.08	1.003
447.29	1.003
447.49	1.004
447.69	1.003
447.90	1.001
448.10	1.005
448.30	0.999
448.51	1.004
448.71	1.000
448.91	1.003
449.12	1.002
449.32	1.005
449.52	1.005
449.73	1.010
449.93	1.008
450.14	1.010
450.34	1.008
450.54	1.012
450.75	1.006
450.95	1.005
451.15	1.004
451.36	1.008
451.56	1.002
451.76	1.001
451.97	0.997
452.17	0.998
452.37	0.995
452.58	0.991
452.78	0.990
452.98	0.994
453.19	0.993
453.39	0.995
453.59	0.992
453.79	0.992
454.00	0.993
454.20	0.991
454.40	0.992
454.61	0.996
454.81	0.996
455.01	0.995
455.22	0.996
455.42	0.998
455.62	0.994
455.83	0.993
456.03	0.998
456.23	0.999
456.44	1.000
456.64	0.998
456.84	0.998
457.04	0.999
457.25	0.998
457.45	0.993
457.65	0.992
457.86	0.994
458.06	0.993
458.26	0.987
458.47	0.986
458.67	0.988
458.87	0.987
459.07	0.984
459.28	0.986
459.48	0.989
459.68	0.989
459.89	0.987
460.09	0.985
460.29	0.986
460.49	0.988
460.70	0.988
460.90	0.987
461.10	0.988
461.31	0.988
461.51	0.984
461.71	0.989
461.91	0.990
462.12	0.991
462.32	0.989
462.52	0.989
462.72	0.991
462.93	0.991
463.13	0.990
463.33	0.991
463.53	0.992
463.74	0.992
463.94	0.984
464.14	0.986
464.35	0.986
464.55	0.986
464.75	0.985
464.95	0.982
465.16	0.983
465.36	0.981
465.56	0.980
465.76	0.978
465.97	0.979
466.17	0.979
466.37	0.976
466.57	0.978
466.78	0.979
466.98	0.978
467.18	0.976
467.38	0.974
467.59	0.975
467.79	0.978
467.99	0.977
468.19	0.978
468.39	0.981
468.60	0.981
468.80	0.978
469.00	0.979
469.20	0.981
469.41	0.981
469.61	0.981
469.81	0.982
470.01	0.980
470.22	0.981
470.42	0.979
470.62	0.976
470.82	0.977
471.02	0.977
471.23	0.974
471.43	0.974
471.63	0.979
471.83	0.979
472.04	0.978
472.24	0.975
472.44	0.983
472.64	0.983
472.84	0.981
473.05	0.980
473.25	0.982
473.45	0.982
473.65	0.980
473.85	0.979
474.06	0.978
474.26	0.978
474.46	0.982
474.66	0.975
474.86	0.975
475.07	0.975
475.27	0.973
475.47	0.969
475.67	0.968
475.87	0.972
476.08	0.968
476.28	0.971
476.48	0.972
476.68	0.969
476.88	0.966
477.09	0.968
477.29	0.970
477.49	0.970
477.69	0.970
477.89	0.971
478.09	0.968
478.30	0.972
478.50	0.966
478.70	0.965
478.90	0.965
479.10	0.970
479.31	0.973
479.51	0.970
479.71	0.970
479.91	0.970
480.11	0.967
480.31	0.968
480.52	0.963
480.72	0.964
480.92	0.962
481.12	0.960
481.32	0.955
481.52	0.951
481.72	0.951
481.93	0.956
482.13	0.957
482.33	0.957
482.53	0.955
482.73	0.957
482.93	0.958
483.14	0.957
483.34	0.956
483.54	0.957
483.74	0.955
483.94	0.954
484.14	0.948
484.34	0.948
484.55	0.948
484.75	0.947
484.95	0.944
485.15	0.944
485.35	0.943
485.55	0.943
485.75	0.940
485.96	0.941
486.16	0.943
486.36	0.942
486.56	0.939
486.76	0.939
486.96	0.940
487.16	0.939
487.36	0.936
487.57	0.936
487.77	0.936
487.97	0.937
488.17	0.935
488.37	0.933
488.57	0.933
488.77	0.934
488.97	0.932
489.18	0.931
489.38	0.934
489.58	0.934
489.78	0.934
489.98	0.933
490.18	0.932
490.38	0.933
490.58	0.932
490.78	0.933
490.98	0.934
491.19	0.934
491.39	0.934
491.59	0.932
491.79	0.937
491.99	0.937
492.19	0.937
492.39	0.942
492.59	0.942
492.79	0.945
492.99	0.946
493.20	0.947
493.40	0.947
493.60	0.949
493.80	0.948
494.00	0.943
494.20	0.943
494.40	0.942
494.60	0.938
494.80	0.946
495.00	0.943
495.20	0.940
495.40	0.938
495.61	0.940
495.81	0.939
496.01	0.945
496.21	0.948
496.41	0.947
496.61	0.948
496.81	0.946
497.01	0.937
497.21	0.937
497.41	0.937
497.61	0.937
497.81	0.934
498.01	0.934
498.21	0.929
498.41	0.926
498.61	0.926
498.82	0.928
499.02	0.930
499.22	0.931
499.42	0.930
499.62	0.932
499.82	0.933
500.02	0.934
500.22	0.932
500.42	0.936
500.62	0.936
500.82	0.936
501.02	0.933
501.22	0.933
501.42	0.933
501.62	0.935
501.82	0.934
502.02	0.933
502.22	0.932
502.42	0.936
502.62	0.932
502.82	0.932
503.02	0.933
503.22	0.933
503.42	0.931
503.63	0.931
503.83	0.928
504.03	0.926
504.23	0.925
504.43	0.926
504.63	0.926
504.83	0.926
505.03	0.925
505.23	0.927
505.43	0.929
505.63	0.930
505.83	0.930
506.03	0.931
506.23	0.933
506.43	0.933
506.63	0.932
506.83	0.929
507.03	0.931
507.23	0.932
507.43	0.928
507.63	0.928
507.83	0.928
508.03	0.929
508.23	0.929
508.43	0.927
508.63	0.930
508.83	0.930
509.03	0.933
509.23	0.932
509.43	0.934
509.63	0.935
509.83	0.933
510.03	0.937
510.23	0.938
510.43	0.939
510.63	0.940
510.83	0.939
511.03	0.941
511.23	0.937
511.43	0.937
511.63	0.938
511.83	0.940
512.03	0.939
512.22	0.935
512.42	0.934
512.62	0.935
512.82	0.935
513.02	0.935
513.22	0.934
513.42	0.936
513.62	0.941
513.82	0.938
514.02	0.936
514.22	0.937
514.42	0.937
514.62	0.937
514.82	0.936
515.02	0.939
515.22	0.945
515.42	0.944
515.62	0.947
515.82	0.944
516.02	0.945
516.22	0.948
516.42	0.951
516.62	0.953
516.82	0.955
517.01	0.954
517.21	0.952
517.41	0.958
517.61	0.959
517.81	0.953
518.01	0.953
518.21	0.951
518.41	0.949
518.61	0.948
518.81	0.949
519.01	0.949
519.21	0.949
519.41	0.949
519.61	0.939
519.81	0.941
520.00	0.942
520.20	0.943
520.40	0.948
520.60	0.949
520.80	0.947
521.00	0.949
521.20	0.949
521.40	0.956
521.60	0.956
521.80	0.955
522.00	0.955
522.20	0.957
522.39	0.956
522.59	0.952
522.79	0.954
522.99	0.956
523.19	0.954
523.39	0.952
523.59	0.949
523.79	0.953
523.99	0.956
524.19	0.956
524.38	0.954
524.58	0.955
524.78	0.955
524.98	0.952
525.18	0.955
525.38	0.955
525.58	0.955
525.78	0.952
525.98	0.950
526.18	0.949
526.37	0.948
526.57	0.952
526.77	0.951
526.97	0.952
527.17	0.952
527.37	0.947
527.57	0.950
527.77	0.951
527.96	0.952
528.16	0.950
528.36	0.952
528.56	0.954
528.76	0.951
528.96	0.951
529.16	0.952
529.36	0.956
529.55	0.956
529.75	0.953
529.95	0.952
530.15	0.954
530.35	0.958
530.55	0.953
530.75	0.954
530.94	0.955
531.14	0.954
531.34	0.953
531.54	0.950
531.74	0.953
531.94	0.958
532.13	0.957
532.33	0.960
532.53	0.957
532.73	0.957
532.93	0.955
533.13	0.956
533.33	0.957
533.52	0.957
533.72	0.965
533.92	0.962
534.12	0.957
534.32	0.957
534.52	0.955
534.71	0.958
534.91	0.960
535.11	0.964
535.31	0.962
535.51	0.964
535.71	0.965
535.90	0.959
536.10	0.962
536.30	0.965
536.50	0.965
536.70	0.966
536.89	0.962
537.09	0.963
537.29	0.963
537.49	0.964
537.69	0.961
537.89	0.963
538.08	0.962
538.28	0.959
538.48	0.960
538.68	0.963
538.88	0.964
539.07	0.965
539.27	0.962
539.47	0.961
539.67	0.960
539.87	0.962
540.06	0.960
540.26	0.960
540.46	0.962
540.66	0.958
540.86	0.955
541.05	0.954
541.25	0.956
541.45	0.956
541.65	0.955
541.84	0.959
542.04	0.958
542.24	0.959
542.44	0.958
542.64	0.959
542.83	0.962
543.03	0.963
543.23	0.961
543.43	0.962
543.62	0.964
543.82	0.963
544.02	0.961
544.22	0.962
544.42	0.965
544.61	0.967
544.81	0.965
545.01	0.962
545.21	0.965
545.40	0.965
545.60	0.962
545.80	0.967
546.00	0.967
546.19	0.966
546.39	0.964
546.59	0.961
546.79	0.962
546.98	0.962
547.18	0.961
547.38	0.961
547.58	0.964
547.77	0.965
547.97	0.959
548.17	0.960
548.37	0.960
548.56	0.961
548.76	0.961
548.96	0.962
549.16	0.965
549.35	0.965
549.55	0.962
549.75	0.961
549.95	0.965
550.14	0.966
550.34	0.965
550.54	0.973
550.73	0.977
550.93	0.978
551.13	0.976
551.33	0.975
551.52	0.975
551.72	0.976
551.92	0.975
552.12	0.976
552.31	0.976
552.51	0.977
552.71	0.969
552.90	0.969
553.10	0.970
553.30	0.968
553.50	0.968
553.69	0.970
553.89	0.971
554.09	0.971
554.28	0.966
554.48	0.969
554.68	0.970
554.87	0.970
555.07	0.966
555.27	0.966
555.47	0.968
555.66	0.968
555.86	0.965
556.06	0.968
556.25	0.970
556.45	0.983
556.65	0.980
556.84	0.986
557.04	0.991
557.24	0.992
557.43	0.992
557.63	0.997
557.83	1.000
558.02	1.003
558.22	1.012
558.42	1.011
558.61	0.998
558.81	0.999
559.01	0.992
559.21	0.989
559.40	0.990
559.60	0.991
559.80	0.985
559.99	0.986
560.19	0.987
560.39	0.978
560.58	0.976
560.78	0.976
560.97	0.981
561.17	0.980
561.37	0.978
561.56	0.980
561.76	0.981
561.96	0.981
562.15	0.978
562.35	0.982
562.55	0.980
562.74	0.980
562.94	0.978
563.14	0.974
563.33	0.975
563.53	0.976
563.73	0.973
563.92	0.976
564.12	0.977
564.31	0.980
564.51	0.978
564.71	0.981
564.90	0.983
565.10	0.984
565.30	0.990
565.49	0.991
565.69	0.993
565.89	0.994
566.08	0.990
566.28	0.993
566.47	0.995
566.67	0.991
566.87	0.989
567.06	0.994
567.26	1.003
567.46	0.997
567.65	0.996
567.85	0.999
568.04	1.001
568.24	1.000
568.44	0.996
568.63	0.994
568.83	0.997
569.02	0.994
569.22	0.987
569.42	0.981
569.61	0.983
569.81	0.980
570.00	0.978
570.20	0.980
570.40	0.981
570.59	0.981
570.79	0.979
570.98	0.976
571.18	0.977
571.38	0.976
571.57	0.973
571.77	0.970
571.96	0.974
572.16	0.970
572.35	0.963
572.55	0.965
572.75	0.961
572.94	0.960
573.14	0.958
573.33	0.958
573.53	0.957
573.73	0.955
573.92	0.953
574.12	0.951
574.31	0.954
574.51	0.955
574.70	0.951
574.90	0.954
575.09	0.957
575.29	0.958
575.49	0.955
575.68	0.956
575.88	0.958
576.07	0.959
576.27	0.957
576.46	0.954
576.66	0.952
576.86	0.952
577.05	0.949
577.25	0.946
577.44	0.948
577.64	0.947
577.83	0.945
578.03	0.947
578.22	0.946
578.42	0.945
578.61	0.944
578.81	0.945
579.00	0.944
579.20	0.944
579.40	0.943
579.59	0.941
579.79	0.941
579.98	0.940
580.18	0.940
580.37	0.941
580.57	0.943
580.76	0.951
580.96	0.949
581.15	0.951
581.35	0.953
581.54	0.953
581.74	0.952
581.93	0.955
582.13	0.955
582.32	0.950
582.52	0.947
582.71	0.945
582.91	0.937
583.10	0.936
583.30	0.935
583.49	0.933
583.69	0.938
583.88	0.940
584.08	0.939
584.27	0.942
584.47	0.946
584.66	0.948
584.86	0.948
585.05	0.950
585.25	0.954
585.44	0.955
585.64	0.955
585.83	0.950
586.03	0.950
586.22	0.948
586.42	0.943
586.61	0.946
586.81	0.949
587.00	0.949
587.20	0.946
587.39	0.945
587.59	0.947
587.78	0.947
587.98	0.948
588.17	0.949
588.37	0.952
588.56	0.954
588.76	0.948
588.95	0.947
589.15	0.953
589.34	0.958
589.54	0.957
589.73	0.958
589.92	0.962
590.12	0.962
590.31	0.960
590.51	0.970
590.70	0.971
590.90	0.973
591.09	0.971
591.29	0.967
591.48	0.966
591.68	0.968
591.87	0.966
592.06	0.966
592.26	0.970
592.45	0.969
592.65	0.958
592.84	0.958
593.04	0.961
593.23	0.964
593.43	0.962
593.62	0.962
593.81	0.961
594.01	0.960
594.20	0.956
594.40	0.953
594.59	0.954
594.79	0.956
594.98	0.954
595.17	0.953
595.37	0.953
595.56	0.955
595.76	0.955
595.95	0.959
596.14	0.963
596.34	0.965
596.53	0.965
596.73	0.968
596.92	0.969
597.12	0.975
597.31	0.975
597.50	0.973
597.70	0.976
597.89	0.974
598.09	0.969
598.28	0.970
598.47	0.975
598.67	0.972
598.86	0.966
599.06	0.970
599.25	0.969
599.44	0.965
599.64	0.963
599.83	0.959
600.03	0.963
600.22	0.963
600.41	0.963
600.61	0.958
600.80	0.960
601.00	0.961
601.19	0.954
601.38	0.951
601.58	0.953
601.77	0.955
601.96	0.959
602.16	0.958
602.35	0.972
602.55	0.968
602.74	0.971
602.93	0.975
603.13	0.982
603.32	0.985
603.51	0.987
603.71	0.994
603.90	0.997
604.09	0.998
604.29	0.996
604.48	0.986
604.68	0.988
604.87	0.985
605.06	0.980
605.26	0.975
605.45	0.974
605.64	0.973
605.84	0.965
606.03	0.964
606.22	0.960
606.42	0.959
606.61	0.954
606.80	0.953
607.00	0.957
607.19	0.957
607.38	0.956
607.58	0.959
607.77	0.961
607.96	0.960
608.16	0.958
608.35	0.967
608.54	0.971
608.74	0.976
608.93	0.986
609.12	0.989
609.32	0.993
609.51	0.998
609.70	0.995
609.90	0.999
610.09	1.004
610.28	1.014
610.48	1.004
610.67	1.006
610.86	1.006
611.06	0.994
611.25	0.993
611.44	0.993
611.64	0.993
611.83	1.000
612.02	0.996
612.21	0.994
612.41	0.991
612.60	0.989
612.79	0.984
612.99	0.986
613.18	0.990
613.37	0.986
613.57	0.984
613.76	0.985
613.95	0.979
614.14	0.978
614.34	0.975
614.53	0.975
614.72	0.980
614.92	0.980
615.11	0.976
615.30	0.971
615.49	0.973
615.69	0.975
615.88	0.971
616.07	0.973
616.26	0.976
616.46	0.978
616.65	0.974
616.84	0.972
617.04	0.972
617.23	0.977
617.42	0.979
617.61	0.983
617.81	0.984
618.00	0.988
618.19	0.986
618.38	0.992
618.58	0.997
618.77	1.000
618.96	1.000
619.15	1.004
619.35	1.006
619.54	1.008
619.73	1.003
619.92	1.006
620.12	1.012
620.31	1.012
620.50	1.005
620.69	1.003
620.89	1.007
621.08	1.008
621.27	1.009
621.46	1.006
621.66	1.011
621.85	1.011
622.04	1.007
622.23	1.010
622.43	1.010
622.62	1.011
622.81	1.012
623.00	1.009
623.19	1.012
623.39	1.010
623.58	1.006
623.77	1.005
623.96	1.009
624.16	1.009
624.35	0.999
624.54	1.005
624.73	1.008
624.92	1.004
625.12	1.002
625.31	1.003
625.50	1.007
625.69	1.008
625.88	1.003
626.08	1.002
626.27	1.004
626.46	1.005
626.65	1.000
626.84	1.001
627.04	1.007
627.23	1.008
627.42	1.002
627.61	1.006
627.80	1.008
628.00	1.010
628.19	1.009
628.38	1.012
628.57	1.013
628.76	1.012
628.96	1.008
629.15	1.010
629.34	1.015
629.53	1.015
629.72	1.007
629.91	1.009
630.11	1.014
630.30	1.013
630.49	1.019
630.68	1.021
630.87	1.027
631.06	1.030
631.26	1.023
631.45	1.024
631.64	1.036
631.83	1.038
632.02	1.036
632.21	1.033
632.41	1.045
632.60	1.035
632.79	1.033
632.98	1.034
633.17	1.033
633.36	1.037
633.55	1.034
633.75	1.028
633.94	1.030
634.13	1.029
634.32	1.028
634.51	1.018
634.70	1.020
634.89	1.020
635.09	1.015
635.28	1.017
635.47	1.017
635.66	1.021
635.85	1.016
636.04	1.019
636.23	1.027
636.43	1.028
636.62	1.029
636.81	1.029
637.00	1.030
637.19	1.034
637.38	1.033
637.57	1.032
637.76	1.034
637.95	1.034
638.15	1.030
638.34	1.024
638.53	1.026
638.72	1.026
638.91	1.023
639.10	1.021
639.29	1.019
639.48	1.018
639.67	1.020
639.87	1.018
640.06	1.027
640.25	1.027
640.44	1.029
640.63	1.032
640.82	1.035
641.01	1.035
641.20	1.036
641.39	1.041
641.58	1.044
641.78	1.041
641.97	1.036
642.16	1.064
642.35	1.063
642.54	1.061
642.73	1.054
642.92	1.052
643.11	1.057
643.30	1.056
643.49	1.048
643.68	1.052
643.87	1.052
644.06	1.051
644.25	1.015
644.45	1.021
644.64	1.021
644.83	1.022
645.02	1.020
645.21	1.019
645.40	1.019
645.59	1.018
645.78	1.012
645.97	1.017
646.16	1.017
646.35	1.016
646.54	1.013
646.73	1.016
646.92	1.019
647.11	1.019
647.30	1.014
647.49	1.019
647.68	1.016
647.88	1.013
648.07	1.005
648.26	1.010
648.45	1.011
648.64	1.007
648.83	1.004
649.02	1.008
649.21	1.023
649.40	1.021
649.59	1.014
649.78	1.017
649.97	1.043
650.16	1.041
650.35	1.031
650.54	1.038
650.73	1.049
650.92	1.042
651.11	1.032
651.30	1.029
651.49	1.034
651.68	1.036
651.87	1.033
652.06	1.012
652.25	1.017
652.44	1.024
652.63	1.021
652.82	1.026
653.01	1.028
653.20	1.026
653.39	1.009
653.58	1.006
653.77	1.004
653.96	0.996
654.15	0.984
654.34	0.981
654.53	0.973
654.72	0.962
654.91	0.946
655.10	0.939
655.29	0.935
655.48	0.930
655.67	0.923
655.86	0.919
656.05	0.916
656.24	0.915
656.43	0.909
656.62	0.908
656.81	0.908
657.00	0.902
657.19	0.898
657.38	0.896
657.57	0.894
657.76	0.895
657.95	0.892
658.14	0.896
658.33	0.899
658.51	0.905
658.70	0.905
658.89	0.907
659.08	0.921
659.27	0.935
659.46	0.938
659.65	0.948
659.84	0.954
660.03	0.961
660.22	0.965
660.41	0.971
660.60	0.971
660.79	0.972
660.98	0.983
661.17	0.981
661.36	0.979
661.55	0.980
661.74	0.978
661.92	0.982
662.11	0.983
662.30	0.978
662.49	0.969
662.68	0.967
662.87	0.969
663.06	0.958
663.25	0.962
663.44	0.961
663.63	0.962
663.82	0.960
664.01	0.952
664.20	0.951
664.38	0.953
664.57	0.954
664.76	0.955
664.95	0.957
665.14	0.963
665.33	0.956
665.52	0.971
665.71	0.980
665.90	0.980
666.09	0.985
666.28	0.981
666.46	0.978
666.65	0.977
666.84	0.974
667.03	0.967
667.22	0.966
667.41	0.972
667.60	0.954
667.79	0.942
667.98	0.945
668.16	0.944
668.35	0.945
668.54	0.942
668.73	0.944
668.92	0.945
669.11	0.943
669.30	0.935
669.49	0.929
669.67	0.932
669.86	0.935
670.05	0.931
670.24	0.928
670.43	0.924
670.62	0.923
670.81	0.916
671.00	0.917
671.18	0.916
671.37	0.914
671.56	0.910
671.75	0.907
671.94	0.902
672.13	0.900
672.32	0.894
672.50	0.894
672.69	0.892
672.88	0.893
673.07	0.887
673.26	0.890
673.45	0.891
673.63	0.890
673.82	0.886
674.01	0.887
674.20	0.886
674.39	0.885
674.58	0.884
674.76	0.886
674.95	0.884
675.14	0.885
675.33	0.880
675.52	0.880
675.71	0.881
675.89	0.881
676.08	0.878
676.27	0.879
676.46	0.880
676.65	0.879
676.84	0.879
677.02	0.881
677.21	0.882
677.40	0.880
677.59	0.878
677.78	0.877
677.96	0.880
678.15	0.878
678.34	0.877
678.53	0.877
678.72	0.876
678.90	0.873
679.09	0.869
679.28	0.865
679.47	0.865
679.66	0.864
679.84	0.861
680.03	0.857
680.22	0.855
680.41	0.856
680.60	0.853
680.78	0.852
680.97	0.854
681.16	0.853
681.35	0.852
681.53	0.850
681.72	0.851
681.91	0.853
682.10	0.853
682.29	0.856
682.47	0.852
682.66	0.849
682.85	0.848
683.04	0.846
683.22	0.846
683.41	0.848
683.60	0.848
683.79	0.849
683.97	0.847
684.16	0.846
684.35	0.842
684.54	0.844
684.72	0.847
684.91	0.847
685.10	0.845
685.29	0.847
685.47	0.843
685.66	0.841
685.85	0.837
686.04	0.836
686.22	0.838
686.41	0.841
686.60	0.837
686.79	0.842
686.97	0.842
687.16	0.844
687.35	0.841
687.54	0.846
687.72	0.849
687.91	0.849
688.10	0.853
688.29	0.853
688.47	0.849
688.66	0.848
688.85	0.843
689.03	0.840
689.22	0.848
689.41	0.848
689.60	0.842
689.78	0.839
689.97	0.840
690.16	0.837
690.34	0.832
690.53	0.833
690.72	0.833
690.91	0.831
691.09	0.830
691.28	0.820
691.47	0.817
691.65	0.816
691.84	0.813
692.03	0.812
692.21	0.809
692.40	0.808
692.59	0.805
692.77	0.804
692.96	0.805
693.15	0.805
693.34	0.803
693.52	0.803
693.71	0.803
693.90	0.805
694.08	0.805
694.27	0.806
694.46	0.821
694.64	0.822
694.83	0.822
695.02	0.821
695.20	0.821
695.39	0.820
695.58	0.819
695.76	0.820
695.95	0.818
696.14	0.817
696.32	0.814
696.51	0.799
696.70	0.799
696.88	0.800
697.07	0.798
697.26	0.799
697.44	0.800
697.63	0.798
697.81	0.796
698.00	0.796
698.19	0.794
698.37	0.793
698.56	0.792
698.75	0.791
698.93	0.789
699.12	0.789
699.31	0.788
699.49	0.787
699.68	0.788
699.87	0.792
700.05	0.792
700.24	0.792
700.42	0.795
700.61	0.794
700.80	0.793
700.98	0.794
701.17	0.795
701.36	0.793
701.54	0.793
701.73	0.794
701.91	0.790
702.10	0.789
702.29	0.787
702.47	0.785
702.66	0.787
702.84	0.789
703.03	0.786
703.22	0.789
703.40	0.788
703.59	0.790
703.77	0.790
703.96	0.789
704.15	0.790
704.33	0.790
704.52	0.790
704.70	0.788
704.89	0.786
705.08	0.786
705.26	0.781
705.45	0.782
705.63	0.781
705.82	0.777
706.00	0.776
706.19	0.776
706.38	0.776
706.56	0.775
706.75	0.773
706.93	0.771
707.12	0.772
707.30	0.772
707.49	0.769
707.68	0.766
707.86	0.765
708.05	0.763
708.23	0.760
708.42	0.759
708.60	0.763
708.79	0.761
708.98	0.759
709.16	0.758
709.35	0.759
709.53	0.765
709.72	0.764
709.90	0.766
710.09	0.768
710.27	0.771
710.46	0.777
710.64	0.774
710.83	0.776
711.02	0.778
711.20	0.778
711.39	0.775
711.57	0.769
711.76	0.770
711.94	0.768
712.13	0.769
712.31	0.768
712.50	0.760
712.68	0.758
712.87	0.759
713.05	0.759
713.24	0.759
713.42	0.758
713.61	0.759
713.79	0.759
713.98	0.758
714.16	0.760
714.35	0.759
714.54	0.760
714.72	0.759
714.91	0.756
715.09	0.765
715.28	0.768
715.46	0.767
715.65	0.765
715.83	0.765
716.02	0.767
716.20	0.763
716.39	0.763
716.57	0.765
716.76	0.767
716.94	0.768
717.12	0.757
717.31	0.759
717.49	0.762
717.68	0.765
717.86	0.765
718.05	0.767
718.23	0.769
718.42	0.770
718.60	0.773
718.79	0.785
718.97	0.787
719.16	0.787
719.34	0.784
719.53	0.783
719.71	0.782
719.90	0.782
720.08	0.778
720.27	0.779
720.45	0.778
720.63	0.775
720.82	0.765
721.00	0.769
721.19	0.772
721.37	0.770
721.56	0.770
721.74	0.772
721.93	0.783
722.11	0.791
722.30	0.790
722.48	0.796
722.66	0.796
722.85	0.794
723.03	0.795
723.22	0.794
723.40	0.796
723.59	0.796
723.77	0.804
723.95	0.793
724.14	0.795
724.32	0.796
724.51	0.794
724.69	0.796
724.88	0.794
725.06	0.790
725.24	0.789
725.43	0.792
725.61	0.794
725.80	0.785
725.98	0.784
726.16	0.778
726.35	0.783
726.53	0.783
726.72	0.781
726.90	0.795
727.09	0.796
727.27	0.804
727.45	0.799
727.64	0.811
727.82	0.818
728.01	0.823
728.19	0.820
728.37	0.827
728.56	0.831
728.74	0.840
728.92	0.824
729.11	0.825
729.29	0.819
729.48	0.821
729.66	0.807
729.84	0.806
730.03	0.806
730.21	0.809
730.40	0.797
730.58	0.796
730.76	0.792
730.95	0.795
731.13	0.796
731.31	0.814
731.50	0.823
731.68	0.826
731.86	0.822
732.05	0.841
732.23	0.842
732.42	0.847
732.60	0.854
732.78	0.859
732.97	0.878
733.15	0.885
733.33	0.866
733.52	0.874
733.70	0.884
733.88	0.896
734.07	0.875
734.25	0.907
734.43	0.914
734.62	0.914
734.80	0.910
734.98	0.896
735.17	0.900
735.35	0.911
735.53	0.900
735.72	0.901
735.90	0.927
736.08	0.957
736.27	0.929
736.45	0.939
736.63	0.952
736.82	0.967
737.00	0.969
737.18	0.983
737.37	1.021
737.55	1.055
737.73	1.053
737.92	1.051
738.10	1.039
738.28	1.068
738.46	1.051
738.65	1.067
738.83	1.088
739.01	1.183
739.20	1.173
739.38	1.140
739.56	1.122
739.75	1.128
739.93	1.086
740.11	1.121
740.29	1.111
740.48	1.130
740.66	1.099
740.84	1.094
741.03	1.029
741.21	1.048
741.39	1.034
741.57	1.050
741.76	1.070
741.94	1.077
742.12	1.037
742.31	1.044
742.49	1.061
742.67	1.109
742.85	1.140
743.04	1.156
743.22	1.166
743.40	1.267
743.58	1.256
743.77	1.291
743.95	1.348
744.13	1.458
744.31	1.442
744.50	1.421
744.68	1.388
744.86	1.332
745.04	1.367
745.23	1.554
745.41	1.452
745.59	1.454
745.77	1.402
745.96	1.381
746.14	1.391
746.32	1.401
746.50	1.411
746.69	1.398
746.87	1.394
747.05	1.355
747.23	1.214
747.42	1.192
747.60	1.219
747.78	1.223
747.96	1.300
748.14	1.218
748.33	1.253
748.51	1.236
748.69	1.235
748.87	1.293
749.06	1.276
749.24	1.262
749.42	1.246
749.60	1.222
749.78	1.222
749.97	1.137
750.15	1.131
750.33	1.129
750.51	1.161
750.69	1.162
750.88	1.189
751.06	1.203
751.24	1.232
751.42	1.225
751.60	1.208
751.79	1.352
751.97	1.448
752.15	1.445
752.33	1.389
752.51	1.567
752.69	1.572
752.88	1.471
753.06	1.637
753.24	1.579
753.42	1.642
753.60	-0.000
753.78	1.906
753.97	1.987
754.15	2.011
754.33	2.241
754.51	1.607
754.69	1.589
754.87	1.652
755.06	1.451
755.24	1.468
755.42	1.513
755.60	1.240
755.78	1.256
755.96	1.164
756.15	1.167
756.33	1.162
756.51	1.196
756.69	1.182
756.87	1.127
757.05	1.134
757.23	1.108
757.42	1.060
757.60	1.057
757.78	1.040
757.96	1.039
758.14	1.022
758.32	0.999
758.50	1.011
758.69	1.007
758.87	1.003
759.05	1.008
759.23	1.017
759.41	1.015
759.59	1.012
759.77	1.036
759.95	1.075
760.13	1.159
760.32	1.173
760.50	1.168
760.68	1.193
760.86	1.205
761.04	1.172
761.22	1.179
761.40	1.260
761.58	1.261
761.76	1.228
761.95	1.188
762.13	1.105
762.31	1.106
762.49	1.055
762.67	1.091
762.85	1.094
763.03	1.095
763.21	1.076
763.39	1.046
763.57	1.042
763.75	1.035
763.94	1.022
764.12	1.024
764.30	1.063
764.48	1.076
764.66	1.023
764.84	1.027
765.02	1.078
765.20	1.087
765.38	1.062
765.56	1.076
765.74	1.137
765.92	1.137
766.10	1.153
766.28	1.135
766.46	1.170
766.65	1.169
766.83	1.151
767.01	1.133
767.19	1.138
767.37	1.143
767.55	1.123
767.73	1.087
767.91	1.085
768.09	1.061
768.27	1.046
768.45	1.035
768.63	1.039
768.81	1.040
768.99	0.997
769.17	1.027
769.35	1.038
769.53	1.033
769.71	1.007
769.89	1.014
770.07	1.021
770.25	0.995
770.43	0.972
770.61	1.000
770.79	0.999
770.97	1.014
771.15	0.973
771.33	0.975
771.51	0.976
771.69	0.992
771.87	1.010
772.05	1.014
772.24	1.020
772.42	1.029
772.60	1.003
772.78	1.094
772.96	1.129
773.14	1.136
773.32	1.112
773.49	1.122
773.67	1.115
773.85	1.087
774.03	1.079
774.21	1.139
774.39	1.156
774.57	1.201
774.75	1.086
774.93	1.082
775.11	1.108
775.29	1.118
775.47	1.128
775.65	1.144
775.83	1.162
776.01	1.201
776.19	1.125
776.37	1.127
776.55	1.120
776.73	1.115
776.91	1.118
777.09	1.090
777.27	1.091
777.45	1.079
777.63	1.052
777.81	1.048
777.99	1.022
778.17	1.022
778.35	0.996
778.53	0.975
778.71	0.980
778.89	0.958
779.07	0.950
779.24	0.954
779.42	0.948
779.60	0.974
779.78	0.971
779.96	0.972
780.14	0.977
780.32	1.006
780.50	0.989
780.68	0.984
780.86	0.969
781.04	0.991
781.22	1.003
781.40	1.013
781.58	0.990
781.75	0.979
781.93	0.965
782.11	0.965
782.29	0.939
782.47	0.937
782.65	0.923
782.83	0.961
783.01	0.942
783.19	0.929
783.37	0.915
783.55	0.920
783.72	0.941
783.90	0.951
784.08	0.938
784.26	0.956
784.44	0.984
784.62	0.992
784.80	0.951
784.98	0.968
785.16	0.974
785.33	0.994
785.51	0.983
785.69	0.964
785.87	0.963
786.05	0.988
786.23	0.985
786.41	0.976
786.59	0.979
786.77	0.980
786.94	0.964
787.12	0.969
787.30	0.969
787.48	0.964
787.66	0.952
787.84	0.955
788.02	0.936
788.19	0.937
788.37	0.923
788.55	0.926
788.73	0.923
788.91	0.916
789.09	0.896
789.27	0.883
789.44	0.897
789.62	0.905
789.80	0.921
789.98	0.959
790.16	0.938
790.34	0.931
790.51	0.920
790.69	0.946
790.87	0.953
791.05	0.954
791.23	0.949
791.41	0.953
791.58	0.959
791.76	0.926
791.94	0.885
792.12	0.895
792.30	0.899
792.48	0.897
792.65	0.890
792.83	0.895
793.01	0.898
793.19	0.893
793.37	0.872
793.54	0.866
793.72	0.878
793.90	0.875
794.08	0.863
794.26	0.859
794.43	0.866
794.61	0.848
794.79	0.836
794.97	0.833
795.15	0.837
795.32	0.843
795.50	0.835
795.68	0.827
795.86	0.829
796.04	0.830
796.21	0.826
796.39	0.824
796.57	0.836
796.75	0.849
796.92	0.853
797.10	0.856
797.28	0.854
797.46	0.858
797.64	0.864
797.81	0.874
797.99	0.877
798.17	0.884
798.35	0.879
798.52	0.887
798.70	0.877
798.88	0.892
799.06	0.899
799.23	0.902
799.41	0.911
799.59	0.902
799.77	0.892
799.94	0.905
800.12	0.913
800.30	0.939
800.48	0.943
800.65	0.947
800.83	0.926
801.01	0.915
801.19	0.922
801.36	0.914
801.54	0.918
801.72	0.932
801.90	0.916
802.07	0.911
802.25	0.886
802.43	0.862
802.60	0.857
802.78	0.863
802.96	0.866
803.14	0.857
803.31	0.858
803.49	0.858
803.67	0.850
803.84	0.855
804.02	0.844
804.20	0.847
804.38	0.848
804.55	0.847
804.73	0.833
804.91	0.831
805.08	0.844
805.26	0.838
805.44	0.946
805.61	0.949
805.79	0.948
805.97	0.950
806.15	0.944
806.32	0.938
806.50	0.941
806.68	0.941
806.85	0.932
807.03	0.916
807.21	0.936
807.38	0.823
807.56	0.812
807.74	0.820
807.91	0.825
808.09	0.823
808.27	0.852
808.44	0.893
808.62	0.899
808.80	0.901
808.97	0.899
809.15	0.891
809.33	0.910
809.50	0.922
809.68	0.909
809.86	0.919
810.03	0.967
810.21	0.934
810.39	0.907
810.56	0.916
810.74	0.947
810.91	1.069
811.09	1.061
811.27	1.102
811.44	1.108
811.62	1.114
811.80	1.092
811.97	1.039
812.15	1.043
812.33	1.041
812.50	1.030
812.68	1.010
812.85	0.908
813.03	0.913
813.21	0.871
813.38	0.866
813.56	0.865
813.74	0.880
813.91	0.893
814.09	0.931
814.26	0.918
814.44	0.916
814.62	0.904
814.79	0.905
814.97	0.909
815.14	0.913
815.32	0.907
815.50	0.926
815.67	0.923
815.85	0.910
816.02	0.895
816.20	0.904
816.38	0.920
816.55	0.928
816.73	0.931
816.90	0.937
817.08	0.978
817.26	0.995
817.43	0.973
817.61	1.013
817.78	1.031
817.96	1.003
818.13	0.989
818.31	0.990
818.49	0.998
818.66	0.987
818.84	0.974
819.01	0.937
819.19	0.940
819.36	0.943
819.54	0.902
819.71	0.964
819.89	0.978
820.07	0.989
820.24	0.984
820.42	0.988
820.59	1.007
820.77	1.044
820.94	1.037
821.12	1.060
821.29	1.072
821.47	1.074
821.64	0.983
821.82	0.993
822.00	0.989
822.17	0.989
822.35	0.983
822.52	0.984
822.70	0.963
822.87	0.975
823.05	0.955
823.22	0.973
823.40	0.999
823.57	1.034
823.75	1.026
823.92	1.055
824.10	1.069
824.27	1.133
824.45	1.127
824.62	1.223
824.80	1.246
824.97	1.277
825.15	1.281
825.32	1.318
825.50	1.297
825.67	1.312
825.85	1.286
826.02	1.315
826.20	1.336
826.37	1.666
826.55	1.484
826.72	2.994
826.90	-0.000
827.07	-0.000
827.25	-0.000
827.42	-0.000
827.60	-0.000
827.77	-0.000
827.95	-0.000
828.12	-0.000
828.30	-0.000
828.47	-0.000
828.65	1.983
828.82	2.389
829.00	2.594
829.17	-0.000
829.34	-0.000
829.52	-0.000
829.69	-0.000
829.87	-0.000
830.04	-0.000
830.22	-0.000
830.39	-0.000
830.57	-0.000
830.74	-0.000
830.92	-0.000
831.09	-0.000
831.26	-0.000
831.44	-0.000
831.61	-0.000
831.79	-0.000
831.96	-0.000
832.14	-0.000
832.31	-0.000
832.49	-0.000
832.66	-0.000
832.83	-0.000
833.01	-0.000
833.18	-0.000
833.36	-0.000
833.53	-0.000
833.70	-0.000
833.88	-0.000
834.05	-0.000
834.23	-0.000
834.40	-0.000
834.58	-0.000
834.75	-0.000
834.92	-0.000
835.10	-0.000
835.27	-0.000
835.45	-0.000
835.62	-0.000
835.79	-0.000
835.97	-0.000
836.14	-0.000
836.32	-0.000
836.49	-0.000
836.66	-0.000
836.84	-0.000
837.01	-0.000
837.18	-0.000
837.36	-0.000
837.53	-0.000
837.71	-0.000
837.88	-0.000
838.05	-0.000
838.23	-0.000
838.40	-0.000
838.58	-0.000
838.75	-0.000
838.92	-0.000
839.10	-0.000
839.27	-0.000
839.44	-0.000
839.62	-0.000
839.79	-0.000
839.96	-0.000
840.14	-0.000
840.31	-0.000
840.48	-0.000
840.66	-0.000
840.83	-0.000
841.01	-0.000
841.18	-0.000
841.35	-0.000
841.53	-0.000
841.70	-0.000
841.87	-0.000
842.05	-0.000
842.22	-0.000
842.39	-0.000
842.57	-0.000
842.74	-0.000
842.91	-0.000
843.09	-0.000
843.26	-0.000
843.43	-0.000
843.60	-0.000
843.78	-0.000
843.95	-0.000
844.12	-0.000
844.30	-0.000
844.47	-0.000
844.64	-0.000
844.82	-0.000
844.99	-0.000
845.16	-0.000
845.34	-0.000
845.51	-0.000
845.68	-0.000
845.85	-0.000
846.03	-0.000
846.20	-0.000
846.37	-0.000
846.55	-0.000
846.72	-0.000
846.89	-0.000
847.06	-0.000
847.24	-0.000
847.41	-0.000
847.58	-0.000
847.76	-0.000
847.93	-0.000
848.10	-0.000
848.27	-0.000
848.45	-0.000
848.62	-0.000
848.79	-0.000
848.97	-0.000
849.14	-0.000
849.31	-0.000
849.48	-0.000
849.66	-0.000
849.83	-0.000
850.00	-0.000
850.17	-0.000
850.35	-0.000
850.52	-0.000
850.69	-0.000
850.86	-0.000
851.04	-0.000
851.21	-0.000
851.38	-0.000
851.55	-0.000
851.72	-0.000
851.90	-0.000
852.07	-0.000
852.24	-0.000
852.41	-0.000
852.59	-0.000
852.76	-0.000
852.93	-0.000
853.10	-0.000
853.28	-0.000
853.45	-0.000
853.62	-0.000
853.79	-0.000
853.96	-0.000
854.14	-0.000
854.31	-0.000
854.48	-0.000
854.65	-0.000
854.82	-0.000
855.00	-0.000
855.17	-0.000
855.34	-0.000
855.51	-0.000
855.68	-0.000
855.86	-0.000
856.03	-0.000
856.20	-0.000
856.37	-0.000
856.54	-0.000
856.72	-0.000
856.89	-0.000
857.06	-0.000
857.23	-0.000
857.40	-0.000
857.57	-0.000
857.75	-0.000
857.92	-0.000
858.09	-0.000
858.26	-0.000
858.43	-0.000
858.60	-0.000
858.78	-0.000
858.95	-0.000
859.12	-0.000
859.29	-0.000
859.46	-0.000
859.63	-0.000
859.81	-0.000
859.98	-0.000
860.15	-0.000
860.32	-0.000
860.49	-0.000
860.66	-0.000
860.83	-0.000
861.01	-0.000
861.18	-0.000
861.35	-0.000
861.52	-0.000
861.69	-0.000
861.86	-0.000
862.03	-0.000
862.21	-0.000
862.38	-0.000
862.55	-0.000
862.72	-0.000
862.89	-0.000
863.06	-0.000
863.23	-0.000
863.40	-0.000
863.58	-0.000
863.75	-0.000
863.92	-0.000
864.09	-0.000
864.26	-0.000
864.43	-0.000
864.60	-0.000
864.77	-0.000
864.94	-0.000
865.11	-0.000
865.29	-0.000
865.46	-0.000
865.63	-0.000
865.80	-0.000
865.97	-0.000
866.14	-0.000
866.31	-0.000
866.48	-0.000
866.65	-0.000
866.82	-0.000
866.99	-0.000
867.16	-0.000
867.34	-0.000
867.51	-0.000
867.68	-0.000
867.85	-0.000
868.02	-0.000
868.19	-0.000
868.36	-0.000
868.53	-0.000
868.70	-0.000
868.87	-0.000
869.04	-0.000
869.21	-0.000
869.38	-0.000
869.55	-0.000
869.72	-0.000
869.89	-0.000
870.06	-0.000
870.24	-0.000
870.41	-0.000
870.58	-0.000
870.75	-0.000
870.92	-0.000
871.09	-0.000
871.26	-0.000
871.43	-0.000
871.60	-0.000
871.77	-0.000
871.94	-0.000
872.11	-0.000
872.28	-0.000
872.45	-0.000
872.62	-0.000
872.79	-0.000
872.96	-0.000
873.13	-0.000
873.30	-0.000
873.47	-0.000
873.64	-0.000
873.81	-0.000
873.98	-0.000
874.15	-0.000
874.32	-0.000
874.49	-0.000
874.66	-0.000
874.83	-0.000
875.00	-0.000
875.17	-0.000
875.34	-0.000
875.51	-0.000
875.68	-0.000
875.85	-0.000
876.02	-0.000
876.19	-0.000
876.36	-0.000
876.53	-0.000
876.70	-0.000
876.87	-0.000
877.04	-0.000
877.21	-0.000
877.38	-0.000
877.55	-0.000
877.72	-0.000
877.89	-0.000
878.06	-0.000
878.23	-0.000
878.39	-0.000
878.56	-0.000
878.73	-0.000
878.90	-0.000
879.07	-0.000
879.24	-0.000
879.41	-0.000
879.58	-0.000
879.75	-0.000
879.92	-0.000
880.09	-0.000
880.26	-0.000
880.43	-0.000
880.60	-0.000
880.77	-0.000
880.94	-0.000
881.11	-0.000
881.27	-0.000
881.44	-0.000
881.61	-0.000
881.78	-0.000
881.95	-0.000
882.12	-0.000
882.29	-0.000
882.46	-0.000
882.63	-0.000
882.80	-0.000
882.97	-0.000
883.14	-0.000
883.30	-0.000
883.47	-0.000
883.64	-0.000
883.81	-0.000
883.98	-0.000
884.15	-0.000
884.32	-0.000
884.49	-0.000
884.66	-0.000
884.82	-0.000
884.99	-0.000
885.16	-0.000
885.33	-0.000
885.50	-0.000
885.67	-0.000
885.84	-0.000
886.01	-0.000
886.17	-0.000
886.34	-0.000
886.51	-0.000
886.68	-0.000
886.85	-0.000
887.02	-0.000
887.19	-0.000
887.36	-0.000
887.52	-0.000
887.69	-0.000
887.86	-0.000
888.03	-0.000
888.20	-0.000
888.37	-0.000
888.54	-0.000
888.70	-0.000
888.87	-0.000
889.04	-0.000
889.21	-0.000
889.38	-0.000
889.55	-0.000
889.71	-0.000
889.88	-0.000
890.05	-0.000
890.22	-0.000
890.39	-0.000
>>>>>End Processed Spectral Data<<<<<
