SpectraSuite Data File
++++++++++++++++++++++++++++++++++++
Date: Fri Jun 19 15:31:51 CEST 2015
User: introlabs
Dark Spectrum Present: Yes
Reference Spectrum Present: Yes
Number of Sampled Component Spectra: 1
Spectrometers: USB4H08886
Integration Time (usec): 745692 (USB4H08886)
Spectra Averaged: 5 (USB4H08886)
Boxcar Smoothing: 5 (USB4H08886)
Correct for Electrical Dark: Yes (USB4H08886)
Strobe/Lamp Enabled: No (USB4H08886)
Correct for Detector Non-linearity: Yes (USB4H08886)
Correct for Stray Light: Yes (USB4H08886)
Number of Pixels in Processed Spectrum: 3648
>>>>>Begin Processed Spectral Data<<<<<
178.14	-0.000
178.36	-0.000
178.57	-0.000
178.79	-0.000
179.01	-0.000
179.22	-0.000
179.44	-0.000
179.65	-0.000
179.87	-0.000
180.08	-0.000
180.30	-0.000
180.52	-0.000
180.73	-0.000
180.95	-0.000
181.16	-0.000
181.38	-0.000
181.59	-0.000
181.81	-0.000
182.03	-0.000
182.24	-0.000
182.46	-0.000
182.67	-0.000
182.89	-0.000
183.10	-0.000
183.32	-0.000
183.54	-0.000
183.75	-0.000
183.97	-0.000
184.18	-0.000
184.40	-0.000
184.61	-0.000
184.83	-0.000
185.04	-0.000
185.26	-0.000
185.48	-0.000
185.69	-0.000
185.91	-0.000
186.12	-0.000
186.34	-0.000
186.55	-0.000
186.77	-0.000
186.98	-0.000
187.20	-0.000
187.42	-0.000
187.63	-0.000
187.85	-0.000
188.06	-0.000
188.28	-0.000
188.49	-0.000
188.71	-0.000
188.92	-0.000
189.14	-0.000
189.36	-0.000
189.57	-0.000
189.79	-0.000
190.00	-0.000
190.22	-0.000
190.43	-0.000
190.65	-0.000
190.86	-0.000
191.08	-0.000
191.29	-0.000
191.51	-0.000
191.72	-0.000
191.94	-0.000
192.16	-0.000
192.37	-0.000
192.59	-0.000
192.80	-0.000
193.02	-0.000
193.23	-0.000
193.45	-0.000
193.66	-0.000
193.88	-0.000
194.09	-0.000
194.31	-0.000
194.52	-0.000
194.74	-0.000
194.95	-0.000
195.17	-0.000
195.38	-0.000
195.60	-0.000
195.81	-0.000
196.03	-0.000
196.25	-0.000
196.46	-0.000
196.68	-0.000
196.89	-0.000
197.11	-0.000
197.32	-0.000
197.54	-0.000
197.75	-0.000
197.97	-0.000
198.18	-0.000
198.40	-0.000
198.61	-0.000
198.83	-0.000
199.04	-0.000
199.26	-0.000
199.47	-0.000
199.69	-0.000
199.90	-0.000
200.12	-0.000
200.33	-0.000
200.55	-0.000
200.76	-0.000
200.98	-0.000
201.19	-0.000
201.41	-0.000
201.62	-0.000
201.84	-0.000
202.05	-0.000
202.27	-0.000
202.48	-0.000
202.70	-0.000
202.91	-0.000
203.13	-0.000
203.34	-0.000
203.56	-0.000
203.77	-0.000
203.99	-0.000
204.20	-0.000
204.42	-0.000
204.63	-0.000
204.85	-0.000
205.06	-0.000
205.28	-0.000
205.49	-0.000
205.71	-0.000
205.92	-0.000
206.14	-0.000
206.35	-0.000
206.56	-0.000
206.78	-0.000
206.99	-0.000
207.21	-0.000
207.42	-0.000
207.64	-0.000
207.85	-0.000
208.07	-0.000
208.28	-0.000
208.50	-0.000
208.71	-0.000
208.93	-0.000
209.14	-0.000
209.36	-0.000
209.57	-0.000
209.79	-0.000
210.00	-0.000
210.22	-0.000
210.43	-0.000
210.64	-0.000
210.86	-0.000
211.07	-0.000
211.29	-0.000
211.50	-0.000
211.72	-0.000
211.93	-0.000
212.15	-0.000
212.36	-0.000
212.58	-0.000
212.79	-0.000
213.01	-0.000
213.22	-0.000
213.43	-0.000
213.65	-0.000
213.86	-0.000
214.08	-0.000
214.29	-0.000
214.51	-0.000
214.72	-0.000
214.94	-0.000
215.15	-0.000
215.36	-0.000
215.58	-0.000
215.79	-0.000
216.01	-0.000
216.22	-0.000
216.44	-0.000
216.65	-0.000
216.87	-0.000
217.08	-0.000
217.29	-0.000
217.51	-0.000
217.72	-0.000
217.94	-0.000
218.15	-0.000
218.37	-0.000
218.58	-0.000
218.80	-0.000
219.01	-0.000
219.22	-0.000
219.44	-0.000
219.65	-0.000
219.87	-0.000
220.08	-0.000
220.30	-0.000
220.51	-0.000
220.72	-0.000
220.94	-0.000
221.15	-0.000
221.37	-0.000
221.58	-0.000
221.79	-0.000
222.01	-0.000
222.22	-0.000
222.44	-0.000
222.65	-0.000
222.87	-0.000
223.08	-0.000
223.29	-0.000
223.51	-0.000
223.72	-0.000
223.94	-0.000
224.15	-0.000
224.36	-0.000
224.58	-0.000
224.79	-0.000
225.01	-0.000
225.22	-0.000
225.44	-0.000
225.65	-0.000
225.86	-0.000
226.08	-0.000
226.29	-0.000
226.51	-0.000
226.72	-0.000
226.93	-0.000
227.15	-0.000
227.36	-0.000
227.58	-0.000
227.79	-0.000
228.00	-0.000
228.22	-0.000
228.43	-0.000
228.65	-0.000
228.86	-0.000
229.07	-0.000
229.29	-0.000
229.50	-0.000
229.72	-0.000
229.93	-0.000
230.14	-0.000
230.36	-0.000
230.57	-0.000
230.78	-0.000
231.00	-0.000
231.21	-0.000
231.43	-0.000
231.64	-0.000
231.85	-0.000
232.07	-0.000
232.28	-0.000
232.50	-0.000
232.71	-0.000
232.92	-0.000
233.14	-0.000
233.35	-0.000
233.56	-0.000
233.78	-0.000
233.99	-0.000
234.21	-0.000
234.42	-0.000
234.63	-0.000
234.85	-0.000
235.06	-0.000
235.27	-0.000
235.49	-0.000
235.70	-0.000
235.91	-0.000
236.13	-0.000
236.34	-0.000
236.56	-0.000
236.77	-0.000
236.98	-0.000
237.20	-0.000
237.41	-0.000
237.62	-0.000
237.84	-0.000
238.05	-0.000
238.26	-0.000
238.48	-0.000
238.69	-0.000
238.91	-0.000
239.12	-0.000
239.33	-0.000
239.55	-0.000
239.76	-0.000
239.97	-0.000
240.19	-0.000
240.40	-0.000
240.61	-0.000
240.83	-0.000
241.04	-0.000
241.25	-0.000
241.47	-0.000
241.68	-0.000
241.89	-0.000
242.11	-0.000
242.32	-0.000
242.53	-0.000
242.75	-0.000
242.96	-0.000
243.17	-0.000
243.39	-0.000
243.60	-0.000
243.81	-0.000
244.03	-0.000
244.24	-0.000
244.45	-0.000
244.67	-0.000
244.88	-0.000
245.09	-0.000
245.31	-0.000
245.52	-0.000
245.73	-0.000
245.95	-0.000
246.16	-0.000
246.37	-0.000
246.59	-0.000
246.80	-0.000
247.01	-0.000
247.23	-0.000
247.44	-0.000
247.65	-0.000
247.87	-0.000
248.08	-0.000
248.29	-0.000
248.51	-0.000
248.72	-0.000
248.93	-0.000
249.15	-0.000
249.36	-0.000
249.57	-0.000
249.78	-0.000
250.00	-0.000
250.21	-0.000
250.42	-0.000
250.64	-0.000
250.85	-0.000
251.06	-0.000
251.28	-0.000
251.49	-0.000
251.70	-0.000
251.92	-0.000
252.13	-0.000
252.34	-0.000
252.55	-0.000
252.77	-0.000
252.98	-0.000
253.19	-0.000
253.41	-0.000
253.62	-0.000
253.83	-0.000
254.05	-0.000
254.26	-0.000
254.47	-0.000
254.68	-0.000
254.90	-0.000
255.11	-0.000
255.32	-0.000
255.54	-0.000
255.75	-0.000
255.96	-0.000
256.17	-0.000
256.39	-0.000
256.60	-0.000
256.81	-0.000
257.03	-0.000
257.24	-0.000
257.45	-0.000
257.66	-0.000
257.88	-0.000
258.09	-0.000
258.30	-0.000
258.51	-0.000
258.73	-0.000
258.94	-0.000
259.15	-0.000
259.37	-0.000
259.58	-0.000
259.79	-0.000
260.00	-0.000
260.22	-0.000
260.43	-0.000
260.64	-0.000
260.85	-0.000
261.07	-0.000
261.28	-0.000
261.49	-0.000
261.71	-0.000
261.92	-0.000
262.13	-0.000
262.34	-0.000
262.56	-0.000
262.77	-0.000
262.98	-0.000
263.19	-0.000
263.41	-0.000
263.62	-0.000
263.83	-0.000
264.04	-0.000
264.26	-0.000
264.47	-0.000
264.68	-0.000
264.89	-0.000
265.11	-0.000
265.32	-0.000
265.53	-0.000
265.74	-0.000
265.96	-0.000
266.17	-0.000
266.38	-0.000
266.59	-0.000
266.81	-0.000
267.02	-0.000
267.23	-0.000
267.44	-0.000
267.65	-0.000
267.87	-0.000
268.08	-0.000
268.29	-0.000
268.50	-0.000
268.72	-0.000
268.93	-0.000
269.14	-0.000
269.35	-0.000
269.57	-0.000
269.78	-0.000
269.99	-0.000
270.20	-0.000
270.41	-0.000
270.63	-0.000
270.84	-0.000
271.05	-0.000
271.26	-0.000
271.48	-0.000
271.69	-0.000
271.90	-0.000
272.11	-0.000
272.32	-0.000
272.54	-0.000
272.75	-0.000
272.96	-0.000
273.17	-0.000
273.39	-0.000
273.60	-0.000
273.81	-0.000
274.02	-0.000
274.23	-0.000
274.45	-0.000
274.66	-0.000
274.87	-0.000
275.08	-0.000
275.29	-0.000
275.51	-0.000
275.72	-0.000
275.93	-0.000
276.14	-0.000
276.35	-0.000
276.57	-0.000
276.78	-0.000
276.99	-0.000
277.20	-0.000
277.41	-0.000
277.63	-0.000
277.84	-0.000
278.05	-0.000
278.26	-0.000
278.47	-0.000
278.69	-0.000
278.90	-0.000
279.11	-0.000
279.32	-0.000
279.53	-0.000
279.74	-0.000
279.96	-0.000
280.17	-0.000
280.38	-0.000
280.59	-0.000
280.80	-0.000
281.02	-0.000
281.23	-0.000
281.44	-0.000
281.65	-0.000
281.86	-0.000
282.07	-0.000
282.29	-0.000
282.50	-0.000
282.71	-0.000
282.92	-0.000
283.13	-0.000
283.35	-0.000
283.56	-0.000
283.77	-0.000
283.98	-0.000
284.19	-0.000
284.40	-0.000
284.62	-0.000
284.83	-0.000
285.04	-0.000
285.25	-0.000
285.46	-0.000
285.67	-0.000
285.88	-0.000
286.10	-0.000
286.31	-0.000
286.52	-0.000
286.73	-0.000
286.94	-0.000
287.15	-0.000
287.37	-0.000
287.58	-0.000
287.79	-0.000
288.00	-0.000
288.21	-0.000
288.42	-0.000
288.63	-0.000
288.85	-0.000
289.06	-0.000
289.27	-0.000
289.48	-0.000
289.69	-0.000
289.90	-0.000
290.11	-0.000
290.33	-0.000
290.54	-0.000
290.75	-0.000
290.96	-0.000
291.17	-0.000
291.38	-0.000
291.59	-0.000
291.81	-0.000
292.02	-0.000
292.23	-0.000
292.44	-0.000
292.65	-0.000
292.86	-0.000
293.07	-0.000
293.28	-0.000
293.50	-0.000
293.71	-0.000
293.92	-0.000
294.13	-0.000
294.34	-0.000
294.55	-0.000
294.76	-0.000
294.97	-0.000
295.19	-0.000
295.40	-0.000
295.61	-0.000
295.82	-0.000
296.03	-0.000
296.24	-0.000
296.45	2.094
296.66	1.767
296.87	1.805
297.09	1.860
297.30	2.057
297.51	1.701
297.72	1.688
297.93	1.761
298.14	1.719
298.35	1.678
298.56	1.651
298.77	1.766
298.99	1.743
299.20	1.727
299.41	1.706
299.62	1.645
299.83	1.646
300.04	1.583
300.25	1.586
300.46	1.619
300.67	1.600
300.88	1.555
301.10	1.562
301.31	1.621
301.52	1.550
301.73	1.503
301.94	1.514
302.15	1.523
302.36	1.475
302.57	1.411
302.78	1.414
302.99	1.452
303.20	1.479
303.41	1.389
303.63	1.381
303.84	1.382
304.05	1.379
304.26	1.323
304.47	1.329
304.68	1.331
304.89	1.324
305.10	1.290
305.31	1.276
305.52	1.312
305.73	1.311
305.94	1.271
306.15	1.266
306.37	1.285
306.58	1.296
306.79	1.265
307.00	1.291
307.21	1.327
307.42	1.320
307.63	1.288
307.84	1.252
308.05	1.283
308.26	1.285
308.47	1.265
308.68	1.261
308.89	1.255
309.10	1.254
309.31	1.214
309.52	1.206
309.73	1.216
309.95	1.212
310.16	1.188
310.37	1.179
310.58	1.193
310.79	1.194
311.00	1.194
311.21	1.195
311.42	1.196
311.63	1.193
311.84	1.176
312.05	1.176
312.26	1.195
312.47	1.206
312.68	1.184
312.89	1.168
313.10	1.168
313.31	1.140
313.52	1.146
313.73	1.147
313.94	1.145
314.15	1.128
314.36	1.109
314.57	1.103
314.78	1.089
314.99	1.083
315.21	1.072
315.42	1.077
315.63	1.090
315.84	1.067
316.05	1.056
316.26	1.065
316.47	1.081
316.68	1.077
316.89	1.059
317.10	1.079
317.31	1.083
317.52	1.085
317.73	1.067
317.94	1.063
318.15	1.103
318.36	1.100
318.57	1.085
318.78	1.076
318.99	1.108
319.20	1.106
319.41	1.073
319.62	1.077
319.83	1.090
320.04	1.086
320.25	1.077
320.46	1.046
320.67	1.049
320.88	1.044
321.09	1.032
321.30	1.019
321.51	1.033
321.72	1.031
321.93	1.016
322.14	1.006
322.35	1.033
322.56	1.034
322.77	1.021
322.98	1.033
323.19	1.039
323.40	1.046
323.61	1.025
323.82	1.020
324.03	1.026
324.24	1.023
324.45	1.011
324.66	0.991
324.87	0.986
325.08	0.987
325.29	0.968
325.50	0.960
325.71	0.962
325.92	0.970
326.13	0.956
326.34	0.955
326.55	0.961
326.76	0.960
326.97	0.951
327.18	0.945
327.39	0.969
327.60	0.969
327.80	0.972
328.01	0.973
328.22	0.971
328.43	0.975
328.64	0.966
328.85	0.970
329.06	0.970
329.27	0.970
329.48	0.967
329.69	0.948
329.90	0.958
330.11	0.951
330.32	0.944
330.53	0.938
330.74	0.938
330.95	0.934
331.16	0.922
331.37	0.931
331.58	0.931
331.79	0.930
332.00	0.923
332.21	0.915
332.42	0.918
332.63	0.910
332.83	0.907
333.04	0.909
333.25	0.922
333.46	0.920
333.67	0.906
333.88	0.908
334.09	0.917
334.30	0.914
334.51	0.906
334.72	0.901
334.93	0.904
335.14	0.902
335.35	0.895
335.56	0.891
335.77	0.898
335.98	0.897
336.18	0.891
336.39	0.883
336.60	0.887
336.81	0.885
337.02	0.885
337.23	0.890
337.44	0.893
337.65	0.893
337.86	0.883
338.07	0.878
338.28	0.881
338.49	0.880
338.70	0.875
338.91	0.882
339.11	0.889
339.32	0.885
339.53	0.874
339.74	0.871
339.95	0.868
340.16	0.866
340.37	0.860
340.58	0.858
340.79	0.859
341.00	0.860
341.21	0.849
341.41	0.849
341.62	0.849
341.83	0.849
342.04	0.845
342.25	0.856
342.46	0.860
342.67	0.858
342.88	0.852
343.09	0.852
343.30	0.857
343.50	0.861
343.71	0.852
343.92	0.850
344.13	0.854
344.34	0.854
344.55	0.837
344.76	0.836
344.97	0.841
345.18	0.839
345.38	0.837
345.59	0.832
345.80	0.831
346.01	0.830
346.22	0.826
346.43	0.820
346.64	0.828
346.85	0.827
347.06	0.821
347.26	0.821
347.47	0.824
347.68	0.819
347.89	0.815
348.10	0.809
348.31	0.815
348.52	0.814
348.73	0.813
348.93	0.810
349.14	0.812
349.35	0.812
349.56	0.806
349.77	0.802
349.98	0.807
350.19	0.805
350.39	0.801
350.60	0.796
350.81	0.811
351.02	0.808
351.23	0.804
351.44	0.806
351.65	0.808
351.86	0.805
352.06	0.804
352.27	0.804
352.48	0.805
352.69	0.804
352.90	0.799
353.11	0.786
353.31	0.793
353.52	0.789
353.73	0.781
353.94	0.784
354.15	0.790
354.36	0.789
354.57	0.781
354.77	0.784
354.98	0.784
355.19	0.783
355.40	0.784
355.61	0.790
355.82	0.794
356.02	0.795
356.23	0.788
356.44	0.789
356.65	0.792
356.86	0.792
357.07	0.786
357.27	0.788
357.48	0.790
357.69	0.785
357.90	0.770
358.11	0.766
358.32	0.768
358.52	0.771
358.73	0.762
358.94	0.764
359.15	0.768
359.36	0.769
359.56	0.764
359.77	0.762
359.98	0.769
360.19	0.768
360.40	0.765
360.61	0.767
360.81	0.764
361.02	0.765
361.23	0.757
361.44	0.755
361.65	0.756
361.85	0.756
362.06	0.755
362.27	0.756
362.48	0.756
362.69	0.759
362.89	0.752
363.10	0.754
363.31	0.758
363.52	0.761
363.73	0.757
363.93	0.757
364.14	0.758
364.35	0.759
364.56	0.749
364.77	0.751
364.97	0.752
365.18	0.754
365.39	0.749
365.60	0.745
365.81	0.746
366.01	0.746
366.22	0.743
366.43	0.742
366.64	0.743
366.84	0.749
367.05	0.746
367.26	0.745
367.47	0.747
367.68	0.747
367.88	0.745
368.09	0.741
368.30	0.744
368.51	0.743
368.71	0.743
368.92	0.748
369.13	0.746
369.34	0.745
369.55	0.744
369.75	0.744
369.96	0.750
370.17	0.750
370.38	0.748
370.58	0.747
370.79	0.752
371.00	0.750
371.21	0.742
371.41	0.747
371.62	0.749
371.83	0.745
372.04	0.743
372.24	0.737
372.45	0.739
372.66	0.739
372.87	0.736
373.07	0.733
373.28	0.734
373.49	0.736
373.70	0.728
373.90	0.728
374.11	0.737
374.32	0.737
374.53	0.736
374.73	0.735
374.94	0.737
375.15	0.737
375.36	0.735
375.56	0.744
375.77	0.745
375.98	0.745
376.19	0.743
376.39	0.737
376.60	0.739
376.81	0.740
377.02	0.738
377.22	0.737
377.43	0.737
377.64	0.737
377.84	0.729
378.05	0.732
378.26	0.738
378.47	0.738
378.67	0.735
378.88	0.732
379.09	0.732
379.30	0.732
379.50	0.730
379.71	0.733
379.92	0.734
380.12	0.734
380.33	0.726
380.54	0.723
380.75	0.728
380.95	0.728
381.16	0.727
381.37	0.727
381.57	0.730
381.78	0.730
381.99	0.729
382.20	0.729
382.40	0.732
382.61	0.732
382.82	0.729
383.02	0.724
383.23	0.727
383.44	0.727
383.64	0.726
383.85	0.728
384.06	0.732
384.27	0.730
384.47	0.728
384.68	0.728
384.89	0.734
385.09	0.733
385.30	0.733
385.51	0.732
385.71	0.735
385.92	0.735
386.13	0.734
386.33	0.735
386.54	0.736
386.75	0.736
386.95	0.732
387.16	0.727
387.37	0.729
387.58	0.729
387.78	0.727
387.99	0.725
388.20	0.726
388.40	0.723
388.61	0.720
388.82	0.722
389.02	0.724
389.23	0.725
389.44	0.724
389.64	0.724
389.85	0.735
390.06	0.735
390.26	0.735
390.47	0.734
390.68	0.737
390.88	0.736
391.09	0.732
391.30	0.731
391.50	0.731
391.71	0.732
391.92	0.729
392.12	0.721
392.33	0.722
392.53	0.722
392.74	0.723
392.95	0.722
393.15	0.724
393.36	0.726
393.57	0.725
393.77	0.728
393.98	0.729
394.19	0.729
394.39	0.729
394.60	0.730
394.81	0.732
395.01	0.729
395.22	0.728
395.43	0.730
395.63	0.734
395.84	0.734
396.04	0.731
396.25	0.732
396.46	0.734
396.66	0.733
396.87	0.730
397.08	0.728
397.28	0.730
397.49	0.731
397.69	0.727
397.90	0.722
398.11	0.723
398.31	0.723
398.52	0.720
398.73	0.721
398.93	0.720
399.14	0.720
399.34	0.718
399.55	0.720
399.76	0.720
399.96	0.720
400.17	0.719
400.37	0.718
400.58	0.726
400.79	0.727
400.99	0.724
401.20	0.730
401.41	0.732
401.61	0.733
401.82	0.739
402.02	0.738
402.23	0.739
402.44	0.739
402.64	0.739
402.85	0.733
403.05	0.731
403.26	0.731
403.47	0.725
403.67	0.724
403.88	0.724
404.08	0.718
404.29	0.718
404.50	0.717
404.70	0.717
404.91	0.716
405.11	0.714
405.32	0.715
405.52	0.715
405.73	0.716
405.94	0.714
406.14	0.717
406.35	0.719
406.55	0.719
406.76	0.716
406.97	0.717
407.17	0.720
407.38	0.720
407.58	0.719
407.79	0.722
407.99	0.724
408.20	0.724
408.41	0.720
408.61	0.718
408.82	0.719
409.02	0.719
409.23	0.717
409.43	0.716
409.64	0.716
409.84	0.715
410.05	0.712
410.26	0.710
410.46	0.710
410.67	0.709
410.87	0.711
411.08	0.713
411.28	0.714
411.49	0.716
411.69	0.714
411.90	0.716
412.11	0.717
412.31	0.719
412.52	0.717
412.72	0.718
412.93	0.718
413.13	0.717
413.34	0.713
413.54	0.715
413.75	0.716
413.95	0.716
414.16	0.713
414.37	0.716
414.57	0.716
414.78	0.719
414.98	0.717
415.19	0.718
415.39	0.715
415.60	0.717
415.80	0.716
416.01	0.714
416.21	0.715
416.42	0.715
416.62	0.710
416.83	0.710
417.03	0.709
417.24	0.710
417.44	0.708
417.65	0.707
417.86	0.708
418.06	0.705
418.27	0.704
418.47	0.706
418.68	0.707
418.88	0.708
419.09	0.707
419.29	0.707
419.50	0.708
419.70	0.708
419.91	0.707
420.11	0.705
420.32	0.707
420.52	0.707
420.73	0.706
420.93	0.706
421.14	0.707
421.34	0.705
421.55	0.702
421.75	0.702
421.96	0.702
422.16	0.702
422.37	0.701
422.57	0.698
422.78	0.700
422.98	0.696
423.19	0.694
423.39	0.692
423.60	0.696
423.80	0.697
424.01	0.696
424.21	0.699
424.42	0.700
424.62	0.699
424.83	0.699
425.03	0.699
425.23	0.700
425.44	0.701
425.64	0.701
425.85	0.700
426.05	0.700
426.26	0.700
426.46	0.697
426.67	0.697
426.87	0.702
427.08	0.702
427.28	0.700
427.49	0.702
427.69	0.702
427.90	0.701
428.10	0.699
428.31	0.699
428.51	0.700
428.71	0.699
428.92	0.700
429.12	0.697
429.33	0.697
429.53	0.701
429.74	0.706
429.94	0.706
430.15	0.705
430.35	0.705
430.56	0.702
430.76	0.702
430.96	0.702
431.17	0.699
431.37	0.696
431.58	0.695
431.78	0.691
431.99	0.684
432.19	0.685
432.40	0.687
432.60	0.687
432.80	0.689
433.01	0.687
433.21	0.687
433.42	0.689
433.62	0.689
433.83	0.689
434.03	0.691
434.23	0.694
434.44	0.693
434.64	0.691
434.85	0.695
435.05	0.697
435.26	0.697
435.46	0.696
435.66	0.696
435.87	0.696
436.07	0.695
436.28	0.692
436.48	0.689
436.69	0.688
436.89	0.688
437.09	0.683
437.30	0.682
437.50	0.682
437.71	0.694
437.91	0.693
438.11	0.694
438.32	0.698
438.52	0.698
438.73	0.697
438.93	0.696
439.13	0.696
439.34	0.699
439.54	0.697
439.75	0.696
439.95	0.686
440.15	0.689
440.36	0.688
440.56	0.685
440.77	0.685
440.97	0.685
441.17	0.684
441.38	0.685
441.58	0.682
441.79	0.681
441.99	0.680
442.19	0.679
442.40	0.676
442.60	0.676
442.81	0.674
443.01	0.675
443.21	0.675
443.42	0.674
443.62	0.673
443.82	0.673
444.03	0.674
444.23	0.674
444.44	0.674
444.64	0.673
444.84	0.674
445.05	0.674
445.25	0.673
445.45	0.673
445.66	0.675
445.86	0.674
446.06	0.676
446.27	0.675
446.47	0.678
446.68	0.675
446.88	0.674
447.08	0.674
447.29	0.675
447.49	0.674
447.69	0.673
447.90	0.672
448.10	0.675
448.30	0.673
448.51	0.674
448.71	0.672
448.91	0.674
449.12	0.673
449.32	0.674
449.52	0.673
449.73	0.677
449.93	0.676
450.14	0.677
450.34	0.676
450.54	0.678
450.75	0.676
450.95	0.674
451.15	0.674
451.36	0.676
451.56	0.673
451.76	0.673
451.97	0.670
452.17	0.670
452.37	0.669
452.58	0.665
452.78	0.665
452.98	0.666
453.19	0.666
453.39	0.667
453.59	0.665
453.79	0.666
454.00	0.667
454.20	0.666
454.40	0.666
454.61	0.668
454.81	0.668
455.01	0.666
455.22	0.667
455.42	0.669
455.62	0.667
455.83	0.667
456.03	0.670
456.23	0.671
456.44	0.671
456.64	0.670
456.84	0.670
457.04	0.671
457.25	0.671
457.45	0.668
457.65	0.666
457.86	0.667
458.06	0.666
458.26	0.662
458.47	0.661
458.67	0.663
458.87	0.663
459.07	0.661
459.28	0.663
459.48	0.665
459.68	0.665
459.89	0.665
460.09	0.663
460.29	0.664
460.49	0.665
460.70	0.664
460.90	0.663
461.10	0.663
461.31	0.663
461.51	0.660
461.71	0.662
461.91	0.663
462.12	0.662
462.32	0.661
462.52	0.662
462.72	0.664
462.93	0.665
463.13	0.664
463.33	0.665
463.53	0.666
463.74	0.666
463.94	0.661
464.14	0.662
464.35	0.663
464.55	0.664
464.75	0.662
464.95	0.660
465.16	0.661
465.36	0.660
465.56	0.659
465.76	0.658
465.97	0.658
466.17	0.659
466.37	0.657
466.57	0.657
466.78	0.658
466.98	0.658
467.18	0.656
467.38	0.655
467.59	0.656
467.79	0.658
467.99	0.657
468.19	0.658
468.39	0.661
468.60	0.661
468.80	0.660
469.00	0.662
469.20	0.662
469.41	0.663
469.61	0.662
469.81	0.663
470.01	0.661
470.22	0.661
470.42	0.660
470.62	0.658
470.82	0.659
471.02	0.658
471.23	0.656
471.43	0.656
471.63	0.658
471.83	0.657
472.04	0.656
472.24	0.655
472.44	0.660
472.64	0.660
472.84	0.659
473.05	0.659
473.25	0.661
473.45	0.660
473.65	0.659
473.85	0.660
474.06	0.661
474.26	0.661
474.46	0.662
474.66	0.658
474.86	0.658
475.07	0.658
475.27	0.656
475.47	0.654
475.67	0.654
475.87	0.656
476.08	0.653
476.28	0.654
476.48	0.655
476.68	0.654
476.88	0.651
477.09	0.652
477.29	0.654
477.49	0.654
477.69	0.654
477.89	0.653
478.09	0.652
478.30	0.655
478.50	0.653
478.70	0.652
478.90	0.653
479.10	0.655
479.31	0.656
479.51	0.654
479.71	0.655
479.91	0.655
480.11	0.654
480.31	0.654
480.52	0.653
480.72	0.652
480.92	0.652
481.12	0.651
481.32	0.648
481.52	0.646
481.72	0.647
481.93	0.651
482.13	0.651
482.33	0.650
482.53	0.649
482.73	0.650
482.93	0.651
483.14	0.650
483.34	0.650
483.54	0.651
483.74	0.650
483.94	0.649
484.14	0.645
484.34	0.645
484.55	0.646
484.75	0.646
484.95	0.644
485.15	0.643
485.35	0.644
485.55	0.643
485.75	0.641
485.96	0.642
486.16	0.643
486.36	0.642
486.56	0.640
486.76	0.640
486.96	0.640
487.16	0.639
487.36	0.637
487.57	0.636
487.77	0.637
487.97	0.637
488.17	0.635
488.37	0.634
488.57	0.634
488.77	0.635
488.97	0.633
489.18	0.632
489.38	0.635
489.58	0.635
489.78	0.635
489.98	0.635
490.18	0.634
490.38	0.635
490.58	0.634
490.78	0.635
490.98	0.637
491.19	0.637
491.39	0.637
491.59	0.636
491.79	0.638
491.99	0.639
492.19	0.639
492.39	0.642
492.59	0.642
492.79	0.644
492.99	0.644
493.20	0.645
493.40	0.645
493.60	0.646
493.80	0.645
494.00	0.643
494.20	0.643
494.40	0.643
494.60	0.640
494.80	0.645
495.00	0.643
495.20	0.642
495.40	0.641
495.61	0.643
495.81	0.642
496.01	0.646
496.21	0.647
496.41	0.646
496.61	0.646
496.81	0.645
497.01	0.641
497.21	0.640
497.41	0.640
497.61	0.639
497.81	0.637
498.01	0.637
498.21	0.635
498.41	0.633
498.61	0.633
498.82	0.634
499.02	0.636
499.22	0.637
499.42	0.637
499.62	0.638
499.82	0.639
500.02	0.640
500.22	0.638
500.42	0.641
500.62	0.641
500.82	0.641
501.02	0.640
501.22	0.639
501.42	0.639
501.62	0.641
501.82	0.641
502.02	0.641
502.22	0.640
502.42	0.642
502.62	0.639
502.82	0.639
503.02	0.640
503.22	0.640
503.42	0.638
503.63	0.638
503.83	0.636
504.03	0.635
504.23	0.634
504.43	0.634
504.63	0.635
504.83	0.635
505.03	0.633
505.23	0.635
505.43	0.637
505.63	0.637
505.83	0.637
506.03	0.638
506.23	0.640
506.43	0.640
506.63	0.639
506.83	0.638
507.03	0.640
507.23	0.640
507.43	0.637
507.63	0.638
507.83	0.638
508.03	0.638
508.23	0.637
508.43	0.636
508.63	0.638
508.83	0.638
509.03	0.639
509.23	0.638
509.43	0.639
509.63	0.639
509.83	0.638
510.03	0.641
510.23	0.642
510.43	0.643
510.63	0.644
510.83	0.643
511.03	0.645
511.23	0.643
511.43	0.643
511.63	0.645
511.83	0.647
512.03	0.647
512.22	0.643
512.42	0.642
512.62	0.643
512.82	0.643
513.02	0.643
513.22	0.642
513.42	0.644
513.62	0.646
513.82	0.644
514.02	0.644
514.22	0.645
514.42	0.645
514.62	0.645
514.82	0.645
515.02	0.647
515.22	0.650
515.42	0.649
515.62	0.651
515.82	0.650
516.02	0.651
516.22	0.651
516.42	0.653
516.62	0.655
516.82	0.655
517.01	0.654
517.21	0.653
517.41	0.656
517.61	0.656
517.81	0.653
518.01	0.652
518.21	0.652
518.41	0.651
518.61	0.649
518.81	0.649
519.01	0.650
519.21	0.650
519.41	0.649
519.61	0.644
519.81	0.646
520.00	0.647
520.20	0.648
520.40	0.651
520.60	0.652
520.80	0.651
521.00	0.651
521.20	0.652
521.40	0.657
521.60	0.657
521.80	0.656
522.00	0.656
522.20	0.658
522.39	0.658
522.59	0.655
522.79	0.657
522.99	0.659
523.19	0.657
523.39	0.656
523.59	0.654
523.79	0.657
523.99	0.659
524.19	0.658
524.38	0.656
524.58	0.657
524.78	0.657
524.98	0.655
525.18	0.657
525.38	0.657
525.58	0.657
525.78	0.656
525.98	0.654
526.18	0.654
526.37	0.653
526.57	0.656
526.77	0.656
526.97	0.657
527.17	0.657
527.37	0.654
527.57	0.657
527.77	0.658
527.96	0.658
528.16	0.657
528.36	0.658
528.56	0.660
528.76	0.658
528.96	0.657
529.16	0.658
529.36	0.660
529.55	0.660
529.75	0.658
529.95	0.658
530.15	0.659
530.35	0.662
530.55	0.659
530.75	0.659
530.94	0.661
531.14	0.661
531.34	0.660
531.54	0.658
531.74	0.661
531.94	0.664
532.13	0.662
532.33	0.664
532.53	0.662
532.73	0.661
532.93	0.659
533.13	0.660
533.33	0.661
533.52	0.661
533.72	0.665
533.92	0.663
534.12	0.661
534.32	0.661
534.52	0.659
534.71	0.662
534.91	0.665
535.11	0.666
535.31	0.664
535.51	0.666
535.71	0.667
535.90	0.664
536.10	0.665
536.30	0.667
536.50	0.669
536.70	0.669
536.89	0.666
537.09	0.666
537.29	0.667
537.49	0.668
537.69	0.666
537.89	0.667
538.08	0.666
538.28	0.664
538.48	0.664
538.68	0.666
538.88	0.667
539.07	0.667
539.27	0.665
539.47	0.665
539.67	0.665
539.87	0.666
540.06	0.664
540.26	0.665
540.46	0.667
540.66	0.664
540.86	0.662
541.05	0.662
541.25	0.663
541.45	0.664
541.65	0.662
541.84	0.664
542.04	0.665
542.24	0.665
542.44	0.665
542.64	0.666
542.83	0.668
543.03	0.669
543.23	0.667
543.43	0.668
543.62	0.669
543.82	0.669
544.02	0.668
544.22	0.668
544.42	0.671
544.61	0.671
544.81	0.668
545.01	0.667
545.21	0.669
545.40	0.670
545.60	0.668
545.80	0.671
546.00	0.671
546.19	0.671
546.39	0.670
546.59	0.668
546.79	0.669
546.98	0.669
547.18	0.669
547.38	0.670
547.58	0.672
547.77	0.673
547.97	0.669
548.17	0.671
548.37	0.671
548.56	0.671
548.76	0.671
548.96	0.672
549.16	0.674
549.35	0.673
549.55	0.671
549.75	0.671
549.95	0.674
550.14	0.675
550.34	0.674
550.54	0.678
550.73	0.682
550.93	0.683
551.13	0.680
551.33	0.679
551.52	0.680
551.72	0.681
551.92	0.679
552.12	0.680
552.31	0.680
552.51	0.680
552.71	0.675
552.90	0.675
553.10	0.676
553.30	0.676
553.50	0.675
553.69	0.675
553.89	0.676
554.09	0.676
554.28	0.672
554.48	0.674
554.68	0.676
554.87	0.676
555.07	0.673
555.27	0.673
555.47	0.675
555.66	0.675
555.86	0.674
556.06	0.675
556.25	0.677
556.45	0.684
556.65	0.682
556.84	0.685
557.04	0.688
557.24	0.689
557.43	0.690
557.63	0.693
557.83	0.694
558.02	0.695
558.22	0.699
558.42	0.700
558.61	0.693
558.81	0.694
559.01	0.691
559.21	0.691
559.40	0.692
559.60	0.692
559.80	0.688
559.99	0.689
560.19	0.691
560.39	0.685
560.58	0.683
560.78	0.683
560.97	0.686
561.17	0.684
561.37	0.682
561.56	0.682
561.76	0.683
561.96	0.683
562.15	0.681
562.35	0.683
562.55	0.684
562.74	0.684
562.94	0.683
563.14	0.681
563.33	0.682
563.53	0.681
563.73	0.680
563.92	0.682
564.12	0.684
564.31	0.685
564.51	0.683
564.71	0.686
564.90	0.688
565.10	0.689
565.30	0.693
565.49	0.694
565.69	0.696
565.89	0.695
566.08	0.693
566.28	0.694
566.47	0.697
566.67	0.695
566.87	0.693
567.06	0.695
567.26	0.701
567.46	0.696
567.65	0.696
567.85	0.698
568.04	0.700
568.24	0.700
568.44	0.697
568.63	0.695
568.83	0.696
569.02	0.695
569.22	0.690
569.42	0.687
569.61	0.689
569.81	0.688
570.00	0.686
570.20	0.688
570.40	0.688
570.59	0.688
570.79	0.686
570.98	0.684
571.18	0.685
571.38	0.685
571.57	0.682
571.77	0.680
571.96	0.683
572.16	0.680
572.35	0.675
572.55	0.676
572.75	0.675
572.94	0.675
573.14	0.673
573.33	0.673
573.53	0.673
573.73	0.673
573.92	0.671
574.12	0.670
574.31	0.672
574.51	0.674
574.70	0.670
574.90	0.672
575.09	0.674
575.29	0.674
575.49	0.672
575.68	0.673
575.88	0.673
576.07	0.674
576.27	0.672
576.46	0.671
576.66	0.669
576.86	0.669
577.05	0.667
577.25	0.665
577.44	0.667
577.64	0.667
577.83	0.665
578.03	0.667
578.22	0.667
578.42	0.667
578.61	0.665
578.81	0.666
579.00	0.666
579.20	0.665
579.40	0.664
579.59	0.662
579.79	0.663
579.98	0.662
580.18	0.660
580.37	0.661
580.57	0.662
580.76	0.666
580.96	0.665
581.15	0.666
581.35	0.668
581.54	0.668
581.74	0.668
581.93	0.670
582.13	0.670
582.32	0.667
582.52	0.665
582.71	0.664
582.91	0.660
583.10	0.660
583.30	0.658
583.49	0.657
583.69	0.660
583.88	0.661
584.08	0.660
584.27	0.662
584.47	0.666
584.66	0.668
584.86	0.667
585.05	0.670
585.25	0.672
585.44	0.672
585.64	0.671
585.83	0.667
586.03	0.667
586.22	0.666
586.42	0.662
586.61	0.663
586.81	0.664
587.00	0.664
587.20	0.661
587.39	0.662
587.59	0.663
587.78	0.664
587.98	0.665
588.17	0.666
588.37	0.668
588.56	0.670
588.76	0.666
588.95	0.666
589.15	0.670
589.34	0.673
589.54	0.671
589.73	0.672
589.92	0.675
590.12	0.676
590.31	0.674
590.51	0.679
590.70	0.681
590.90	0.682
591.09	0.680
591.29	0.679
591.48	0.679
591.68	0.680
591.87	0.679
592.06	0.678
592.26	0.680
592.45	0.679
592.65	0.673
592.84	0.673
593.04	0.675
593.23	0.677
593.43	0.674
593.62	0.673
593.81	0.673
594.01	0.672
594.20	0.670
594.40	0.669
594.59	0.670
594.79	0.671
594.98	0.669
595.17	0.668
595.37	0.669
595.56	0.671
595.76	0.671
595.95	0.673
596.14	0.677
596.34	0.678
596.53	0.677
596.73	0.679
596.92	0.681
597.12	0.683
597.31	0.684
597.50	0.683
597.70	0.685
597.89	0.684
598.09	0.681
598.28	0.682
598.47	0.683
598.67	0.682
598.86	0.678
599.06	0.680
599.25	0.680
599.44	0.678
599.64	0.676
599.83	0.673
600.03	0.675
600.22	0.676
600.41	0.676
600.61	0.674
600.80	0.676
601.00	0.676
601.19	0.672
601.38	0.671
601.58	0.673
601.77	0.674
601.96	0.676
602.16	0.676
602.35	0.685
602.55	0.682
602.74	0.684
602.93	0.685
603.13	0.690
603.32	0.692
603.51	0.692
603.71	0.696
603.90	0.698
604.09	0.698
604.29	0.696
604.48	0.691
604.68	0.692
604.87	0.690
605.06	0.687
605.26	0.684
605.45	0.684
605.64	0.683
605.84	0.678
606.03	0.677
606.22	0.675
606.42	0.674
606.61	0.671
606.80	0.671
607.00	0.673
607.19	0.673
607.38	0.671
607.58	0.672
607.77	0.674
607.96	0.674
608.16	0.672
608.35	0.677
608.54	0.680
608.74	0.682
608.93	0.687
609.12	0.690
609.32	0.692
609.51	0.696
609.70	0.695
609.90	0.698
610.09	0.702
610.28	0.706
610.48	0.702
610.67	0.703
610.86	0.704
611.06	0.698
611.25	0.696
611.44	0.697
611.64	0.697
611.83	0.699
612.02	0.696
612.21	0.695
612.41	0.694
612.60	0.692
612.79	0.689
612.99	0.689
613.18	0.691
613.37	0.688
613.57	0.685
613.76	0.687
613.95	0.684
614.14	0.683
614.34	0.680
614.53	0.681
614.72	0.684
614.92	0.683
615.11	0.681
615.30	0.677
615.49	0.679
615.69	0.681
615.88	0.677
616.07	0.678
616.26	0.681
616.46	0.682
616.65	0.679
616.84	0.678
617.04	0.679
617.23	0.683
617.42	0.684
617.61	0.687
617.81	0.687
618.00	0.688
618.19	0.687
618.38	0.692
618.58	0.695
618.77	0.696
618.96	0.696
619.15	0.698
619.35	0.699
619.54	0.700
619.73	0.696
619.92	0.699
620.12	0.703
620.31	0.704
620.50	0.699
620.69	0.699
620.89	0.701
621.08	0.701
621.27	0.702
621.46	0.700
621.66	0.704
621.85	0.704
622.04	0.700
622.23	0.701
622.43	0.702
622.62	0.702
622.81	0.702
623.00	0.701
623.19	0.704
623.39	0.704
623.58	0.701
623.77	0.699
623.96	0.701
624.16	0.701
624.35	0.696
624.54	0.699
624.73	0.702
624.92	0.700
625.12	0.698
625.31	0.698
625.50	0.701
625.69	0.701
625.88	0.698
626.08	0.698
626.27	0.699
626.46	0.699
626.65	0.696
626.84	0.697
627.04	0.701
627.23	0.701
627.42	0.697
627.61	0.698
627.80	0.700
628.00	0.700
628.19	0.698
628.38	0.702
628.57	0.704
628.76	0.703
628.96	0.699
629.15	0.700
629.34	0.702
629.53	0.703
629.72	0.698
629.91	0.699
630.11	0.703
630.30	0.704
630.49	0.707
630.68	0.707
630.87	0.710
631.06	0.713
631.26	0.708
631.45	0.709
631.64	0.717
631.83	0.720
632.02	0.717
632.21	0.717
632.41	0.724
632.60	0.719
632.79	0.717
632.98	0.718
633.17	0.719
633.36	0.721
633.55	0.718
633.75	0.714
633.94	0.714
634.13	0.714
634.32	0.712
634.51	0.706
634.70	0.707
634.89	0.707
635.09	0.704
635.28	0.704
635.47	0.704
635.66	0.707
635.85	0.703
636.04	0.705
636.23	0.710
636.43	0.711
636.62	0.709
636.81	0.708
637.00	0.711
637.19	0.714
637.38	0.711
637.57	0.711
637.76	0.712
637.95	0.712
638.15	0.709
638.34	0.705
638.53	0.708
638.72	0.710
638.91	0.709
639.10	0.707
639.29	0.707
639.48	0.708
639.67	0.708
639.87	0.708
640.06	0.713
640.25	0.712
640.44	0.713
640.63	0.714
640.82	0.715
641.01	0.715
641.20	0.714
641.39	0.716
641.58	0.716
641.78	0.715
641.97	0.711
642.16	0.724
642.35	0.725
642.54	0.724
642.73	0.719
642.92	0.717
643.11	0.721
643.30	0.721
643.49	0.717
643.68	0.720
643.87	0.721
644.06	0.722
644.25	0.703
644.45	0.706
644.64	0.706
644.83	0.708
645.02	0.705
645.21	0.704
645.40	0.705
645.59	0.705
645.78	0.700
645.97	0.703
646.16	0.704
646.35	0.704
646.54	0.702
646.73	0.703
646.92	0.704
647.11	0.704
647.30	0.700
647.49	0.702
647.68	0.701
647.88	0.699
648.07	0.693
648.26	0.695
648.45	0.696
648.64	0.692
648.83	0.690
649.02	0.693
649.21	0.702
649.40	0.702
649.59	0.697
649.78	0.698
649.97	0.711
650.16	0.711
650.35	0.705
650.54	0.707
650.73	0.715
650.92	0.713
651.11	0.706
651.30	0.704
651.49	0.708
651.68	0.709
651.87	0.706
652.06	0.696
652.25	0.699
652.44	0.704
652.63	0.704
652.82	0.705
653.01	0.705
653.20	0.705
653.39	0.693
653.58	0.691
653.77	0.690
653.96	0.686
654.15	0.678
654.34	0.676
654.53	0.670
654.72	0.663
654.91	0.653
655.10	0.649
655.29	0.646
655.48	0.644
655.67	0.639
655.86	0.636
656.05	0.635
656.24	0.634
656.43	0.629
656.62	0.627
656.81	0.626
657.00	0.623
657.19	0.619
657.38	0.618
657.57	0.616
657.76	0.618
657.95	0.615
658.14	0.618
658.33	0.619
658.51	0.624
658.70	0.624
658.89	0.626
659.08	0.636
659.27	0.645
659.46	0.647
659.65	0.653
659.84	0.656
660.03	0.660
660.22	0.661
660.41	0.667
660.60	0.666
660.79	0.667
660.98	0.673
661.17	0.671
661.36	0.670
661.55	0.670
661.74	0.669
661.92	0.672
662.11	0.674
662.30	0.672
662.49	0.666
662.68	0.665
662.87	0.668
663.06	0.662
663.25	0.664
663.44	0.664
663.63	0.665
663.82	0.663
664.01	0.659
664.20	0.657
664.38	0.659
664.57	0.659
664.76	0.658
664.95	0.658
665.14	0.662
665.33	0.657
665.52	0.664
665.71	0.669
665.90	0.669
666.09	0.670
666.28	0.668
666.46	0.667
666.65	0.668
666.84	0.667
667.03	0.662
667.22	0.659
667.41	0.662
667.60	0.653
667.79	0.646
667.98	0.647
668.16	0.648
668.35	0.647
668.54	0.644
668.73	0.644
668.92	0.645
669.11	0.644
669.30	0.639
669.49	0.635
669.67	0.637
669.86	0.639
670.05	0.637
670.24	0.634
670.43	0.632
670.62	0.632
670.81	0.627
671.00	0.629
671.18	0.629
671.37	0.628
671.56	0.625
671.75	0.624
671.94	0.621
672.13	0.618
672.32	0.614
672.50	0.612
672.69	0.611
672.88	0.612
673.07	0.607
673.26	0.609
673.45	0.610
673.63	0.610
673.82	0.607
674.01	0.609
674.20	0.608
674.39	0.608
674.58	0.609
674.76	0.609
674.95	0.608
675.14	0.607
675.33	0.603
675.52	0.602
675.71	0.602
675.89	0.602
676.08	0.598
676.27	0.598
676.46	0.599
676.65	0.598
676.84	0.597
677.02	0.599
677.21	0.601
677.40	0.601
677.59	0.598
677.78	0.599
677.96	0.601
678.15	0.601
678.34	0.599
678.53	0.600
678.72	0.599
678.90	0.596
679.09	0.591
679.28	0.588
679.47	0.588
679.66	0.587
679.84	0.584
680.03	0.581
680.22	0.580
680.41	0.580
680.60	0.577
680.78	0.577
680.97	0.579
681.16	0.579
681.35	0.578
681.53	0.577
681.72	0.578
681.91	0.580
682.10	0.579
682.29	0.582
682.47	0.579
682.66	0.578
682.85	0.576
683.04	0.575
683.22	0.576
683.41	0.577
683.60	0.576
683.79	0.577
683.97	0.575
684.16	0.574
684.35	0.571
684.54	0.572
684.72	0.573
684.91	0.574
685.10	0.572
685.29	0.573
685.47	0.570
685.66	0.568
685.85	0.565
686.04	0.564
686.22	0.566
686.41	0.568
686.60	0.566
686.79	0.569
686.97	0.569
687.16	0.570
687.35	0.567
687.54	0.571
687.72	0.575
687.91	0.576
688.10	0.578
688.29	0.578
688.47	0.576
688.66	0.576
688.85	0.572
689.03	0.570
689.22	0.574
689.41	0.575
689.60	0.570
689.78	0.568
689.97	0.568
690.16	0.565
690.34	0.561
690.53	0.561
690.72	0.561
690.91	0.559
691.09	0.557
691.28	0.552
691.47	0.549
691.65	0.549
691.84	0.546
692.03	0.545
692.21	0.543
692.40	0.543
692.59	0.540
692.77	0.540
692.96	0.541
693.15	0.541
693.34	0.539
693.52	0.538
693.71	0.539
693.90	0.540
694.08	0.541
694.27	0.541
694.46	0.550
694.64	0.550
694.83	0.549
695.02	0.548
695.20	0.549
695.39	0.549
695.58	0.549
695.76	0.550
695.95	0.548
696.14	0.547
696.32	0.545
696.51	0.536
696.70	0.537
696.88	0.537
697.07	0.536
697.26	0.537
697.44	0.538
697.63	0.537
697.81	0.535
698.00	0.535
698.19	0.534
698.37	0.534
698.56	0.534
698.75	0.534
698.93	0.534
699.12	0.533
699.31	0.533
699.49	0.532
699.68	0.533
699.87	0.536
700.05	0.536
700.24	0.535
700.42	0.536
700.61	0.536
700.80	0.534
700.98	0.535
701.17	0.536
701.36	0.534
701.54	0.534
701.73	0.535
701.91	0.532
702.10	0.532
702.29	0.530
702.47	0.529
702.66	0.530
702.84	0.530
703.03	0.528
703.22	0.530
703.40	0.529
703.59	0.530
703.77	0.530
703.96	0.530
704.15	0.531
704.33	0.531
704.52	0.531
704.70	0.530
704.89	0.530
705.08	0.529
705.26	0.526
705.45	0.526
705.63	0.526
705.82	0.522
706.00	0.521
706.19	0.520
706.38	0.520
706.56	0.520
706.75	0.518
706.93	0.517
707.12	0.518
707.30	0.518
707.49	0.515
707.68	0.513
707.86	0.513
708.05	0.513
708.23	0.510
708.42	0.511
708.60	0.513
708.79	0.513
708.98	0.511
709.16	0.511
709.35	0.512
709.53	0.516
709.72	0.514
709.90	0.516
710.09	0.518
710.27	0.520
710.46	0.524
710.64	0.522
710.83	0.523
711.02	0.525
711.20	0.524
711.39	0.523
711.57	0.521
711.76	0.522
711.94	0.520
712.13	0.521
712.31	0.521
712.50	0.517
712.68	0.514
712.87	0.516
713.05	0.516
713.24	0.516
713.42	0.514
713.61	0.516
713.79	0.516
713.98	0.516
714.16	0.517
714.35	0.517
714.54	0.517
714.72	0.517
714.91	0.515
715.09	0.522
715.28	0.525
715.46	0.525
715.65	0.523
715.83	0.522
716.02	0.523
716.20	0.520
716.39	0.519
716.57	0.521
716.76	0.523
716.94	0.523
717.12	0.515
717.31	0.516
717.49	0.518
717.68	0.520
717.86	0.521
718.05	0.523
718.23	0.526
718.42	0.528
718.60	0.529
718.79	0.537
718.97	0.540
719.16	0.541
719.34	0.538
719.53	0.538
719.71	0.537
719.90	0.538
720.08	0.535
720.27	0.535
720.45	0.535
720.63	0.534
720.82	0.528
721.00	0.530
721.19	0.532
721.37	0.531
721.56	0.532
721.74	0.535
721.93	0.543
722.11	0.549
722.30	0.548
722.48	0.552
722.66	0.552
722.85	0.552
723.03	0.553
723.22	0.553
723.40	0.556
723.59	0.556
723.77	0.560
723.95	0.554
724.14	0.556
724.32	0.558
724.51	0.559
724.69	0.560
724.88	0.560
725.06	0.559
725.24	0.560
725.43	0.561
725.61	0.563
725.80	0.557
725.98	0.555
726.16	0.552
726.35	0.557
726.53	0.556
726.72	0.555
726.90	0.566
727.09	0.567
727.27	0.572
727.45	0.569
727.64	0.579
727.82	0.586
728.01	0.591
728.19	0.590
728.37	0.595
728.56	0.598
728.74	0.604
728.92	0.593
729.11	0.595
729.29	0.593
729.48	0.596
729.66	0.586
729.84	0.586
730.03	0.588
730.21	0.589
730.40	0.580
730.58	0.582
730.76	0.582
730.95	0.583
731.13	0.584
731.31	0.598
731.50	0.606
731.68	0.609
731.86	0.606
732.05	0.619
732.23	0.623
732.42	0.627
732.60	0.630
732.78	0.633
732.97	0.652
733.15	0.657
733.33	0.645
733.52	0.652
733.70	0.660
733.88	0.670
734.07	0.657
734.25	0.680
734.43	0.686
734.62	0.688
734.80	0.685
734.98	0.675
735.17	0.682
735.35	0.689
735.53	0.680
735.72	0.682
735.90	0.702
736.08	0.719
736.27	0.700
736.45	0.709
736.63	0.719
736.82	0.727
737.00	0.727
737.18	0.736
737.37	0.762
737.55	0.782
737.73	0.780
737.92	0.783
738.10	0.780
738.28	0.799
738.46	0.789
738.65	0.804
738.83	0.825
739.01	0.875
739.20	0.866
739.38	0.849
739.56	0.837
739.75	0.841
739.93	0.809
740.11	0.834
740.29	0.828
740.48	0.835
740.66	0.813
740.84	0.805
741.03	0.770
741.21	0.781
741.39	0.767
741.57	0.780
741.76	0.792
741.94	0.795
742.12	0.760
742.31	0.766
742.49	0.782
742.67	0.807
742.85	0.821
743.04	0.828
743.22	0.837
743.40	0.888
743.58	0.871
743.77	0.889
743.95	0.922
744.13	0.971
744.31	0.956
744.50	0.948
744.68	0.942
744.86	0.919
745.04	0.929
745.23	0.984
745.41	0.964
745.59	0.971
745.77	0.939
745.96	0.930
746.14	0.935
746.32	0.934
746.50	0.929
746.69	0.915
746.87	0.918
747.05	0.899
747.23	0.834
747.42	0.819
747.60	0.841
747.78	0.842
747.96	0.865
748.14	0.827
748.33	0.849
748.51	0.840
748.69	0.835
748.87	0.863
749.06	0.861
749.24	0.863
749.42	0.853
749.60	0.838
749.78	0.848
749.97	0.810
750.15	0.805
750.33	0.807
750.51	0.828
750.69	0.833
750.88	0.836
751.06	0.845
751.24	0.860
751.42	0.853
751.60	0.844
751.79	0.906
751.97	0.943
752.15	0.944
752.33	0.916
752.51	0.972
752.69	0.984
752.88	0.958
753.06	1.004
753.24	0.990
753.42	1.017
753.60	1.164
753.78	1.050
753.97	1.069
754.15	1.086
754.33	1.112
754.51	1.006
754.69	0.992
754.87	1.019
755.06	0.951
755.24	0.950
755.42	0.956
755.60	0.862
755.78	0.865
755.96	0.816
756.15	0.816
756.33	0.822
756.51	0.836
756.69	0.826
756.87	0.793
757.05	0.809
757.23	0.798
757.42	0.773
757.60	0.772
757.78	0.762
757.96	0.763
758.14	0.747
758.32	0.730
758.50	0.740
758.69	0.738
758.87	0.732
759.05	0.735
759.23	0.739
759.41	0.740
759.59	0.734
759.77	0.752
759.95	0.775
760.13	0.821
760.32	0.821
760.50	0.818
760.68	0.836
760.86	0.840
761.04	0.817
761.22	0.822
761.40	0.863
761.58	0.867
761.76	0.847
761.95	0.830
762.13	0.788
762.31	0.791
762.49	0.761
762.67	0.777
762.85	0.785
763.03	0.780
763.21	0.763
763.39	0.744
763.57	0.742
763.75	0.736
763.94	0.724
764.12	0.725
764.30	0.745
764.48	0.749
764.66	0.718
764.84	0.717
765.02	0.748
765.20	0.759
765.38	0.744
765.56	0.751
765.74	0.787
765.92	0.785
766.10	0.792
766.28	0.783
766.46	0.808
766.65	0.810
766.83	0.800
767.01	0.785
767.19	0.786
767.37	0.786
767.55	0.775
767.73	0.752
767.91	0.755
768.09	0.745
768.27	0.738
768.45	0.727
768.63	0.730
768.81	0.734
768.99	0.714
769.17	0.735
769.35	0.745
769.53	0.743
769.71	0.729
769.89	0.736
770.07	0.741
770.25	0.723
770.43	0.707
770.61	0.727
770.79	0.730
770.97	0.741
771.15	0.717
771.33	0.720
771.51	0.721
771.69	0.732
771.87	0.740
772.05	0.744
772.24	0.751
772.42	0.759
772.60	0.740
772.78	0.795
772.96	0.814
773.14	0.809
773.32	0.790
773.49	0.797
773.67	0.796
773.85	0.777
774.03	0.767
774.21	0.796
774.39	0.804
774.57	0.826
774.75	0.761
774.93	0.756
775.11	0.774
775.29	0.779
775.47	0.781
775.65	0.786
775.83	0.801
776.01	0.820
776.19	0.782
776.37	0.783
776.55	0.782
776.73	0.780
776.91	0.778
777.09	0.762
777.27	0.760
777.45	0.750
777.63	0.729
777.81	0.726
777.99	0.715
778.17	0.714
778.35	0.698
778.53	0.685
778.71	0.689
778.89	0.678
779.07	0.671
779.24	0.677
779.42	0.677
779.60	0.695
779.78	0.693
779.96	0.696
780.14	0.699
780.32	0.718
780.50	0.706
780.68	0.707
780.86	0.701
781.04	0.716
781.22	0.719
781.40	0.727
781.58	0.716
781.75	0.707
781.93	0.692
782.11	0.693
782.29	0.677
782.47	0.675
782.65	0.664
782.83	0.688
783.01	0.681
783.19	0.675
783.37	0.664
783.55	0.667
783.72	0.684
783.90	0.696
784.08	0.691
784.26	0.701
784.44	0.718
784.62	0.718
784.80	0.689
784.98	0.695
785.16	0.699
785.33	0.712
785.51	0.701
785.69	0.688
785.87	0.685
786.05	0.696
786.23	0.695
786.41	0.693
786.59	0.699
786.77	0.698
786.94	0.688
787.12	0.692
787.30	0.693
787.48	0.690
787.66	0.680
787.84	0.684
788.02	0.674
788.19	0.672
788.37	0.660
788.55	0.660
788.73	0.660
788.91	0.655
789.09	0.639
789.27	0.630
789.44	0.640
789.62	0.645
789.80	0.652
789.98	0.672
790.16	0.660
790.34	0.655
790.51	0.645
790.69	0.661
790.87	0.666
791.05	0.666
791.23	0.660
791.41	0.661
791.58	0.668
791.76	0.650
791.94	0.623
792.12	0.629
792.30	0.631
792.48	0.630
792.65	0.625
792.83	0.630
793.01	0.635
793.19	0.634
793.37	0.621
793.54	0.617
793.72	0.626
793.90	0.625
794.08	0.617
794.26	0.618
794.43	0.624
794.61	0.610
794.79	0.600
794.97	0.599
795.15	0.603
795.32	0.607
795.50	0.599
795.68	0.594
795.86	0.598
796.04	0.600
796.21	0.596
796.39	0.594
796.57	0.607
796.75	0.614
796.92	0.618
797.10	0.620
797.28	0.620
797.46	0.624
797.64	0.627
797.81	0.632
797.99	0.635
798.17	0.636
798.35	0.634
798.52	0.636
798.70	0.630
798.88	0.636
799.06	0.638
799.23	0.640
799.41	0.646
799.59	0.639
799.77	0.632
799.94	0.637
800.12	0.646
800.30	0.661
800.48	0.661
800.65	0.662
800.83	0.652
801.01	0.642
801.19	0.645
801.36	0.641
801.54	0.642
801.72	0.652
801.90	0.641
802.07	0.637
802.25	0.623
802.43	0.610
802.60	0.609
802.78	0.615
802.96	0.620
803.14	0.613
803.31	0.613
803.49	0.614
803.67	0.608
803.84	0.613
804.02	0.607
804.20	0.611
804.38	0.616
804.55	0.613
804.73	0.601
804.91	0.601
805.08	0.611
805.26	0.608
805.44	0.671
805.61	0.673
805.79	0.672
805.97	0.669
806.15	0.662
806.32	0.655
806.50	0.660
806.68	0.658
806.85	0.652
807.03	0.645
807.21	0.657
807.38	0.592
807.56	0.585
807.74	0.593
807.91	0.599
808.09	0.600
808.27	0.618
808.44	0.642
808.62	0.649
808.80	0.652
808.97	0.647
809.15	0.645
809.33	0.661
809.50	0.668
809.68	0.658
809.86	0.666
810.03	0.695
810.21	0.677
810.39	0.661
810.56	0.668
810.74	0.686
810.91	0.753
811.09	0.740
811.27	0.759
811.44	0.763
811.62	0.764
811.80	0.748
811.97	0.720
812.15	0.718
812.33	0.714
812.50	0.703
812.68	0.695
812.85	0.643
813.03	0.647
813.21	0.618
813.38	0.612
813.56	0.615
813.74	0.624
813.91	0.635
814.09	0.663
814.26	0.654
814.44	0.656
814.62	0.647
814.79	0.649
814.97	0.652
815.14	0.655
815.32	0.659
815.50	0.673
815.67	0.676
815.85	0.666
816.02	0.655
816.20	0.661
816.38	0.673
816.55	0.678
816.73	0.678
816.90	0.687
817.08	0.713
817.26	0.718
817.43	0.701
817.61	0.721
817.78	0.735
817.96	0.717
818.13	0.711
818.31	0.714
818.49	0.724
818.66	0.715
818.84	0.703
819.01	0.683
819.19	0.686
819.36	0.688
819.54	0.663
819.71	0.701
819.89	0.713
820.07	0.725
820.24	0.717
820.42	0.719
820.59	0.738
820.77	0.761
820.94	0.757
821.12	0.773
821.29	0.786
821.47	0.788
821.64	0.734
821.82	0.744
822.00	0.741
822.17	0.743
822.35	0.736
822.52	0.735
822.70	0.722
822.87	0.732
823.05	0.714
823.22	0.724
823.40	0.745
823.57	0.763
823.75	0.750
823.92	0.774
824.10	0.788
824.27	0.824
824.45	0.816
824.62	0.873
824.80	0.881
824.97	0.896
825.15	0.888
825.32	0.900
825.50	0.901
825.67	0.907
825.85	0.883
826.02	0.893
826.20	0.911
826.37	1.022
826.55	0.952
826.72	1.122
826.90	1.177
827.07	1.223
827.25	1.177
827.42	1.306
827.60	1.421
827.77	1.569
827.95	1.576
828.12	1.645
828.30	1.344
828.47	1.454
828.65	1.145
828.82	1.182
829.00	1.214
829.17	1.288
829.34	1.276
829.52	1.282
829.69	-0.000
829.87	-0.000
830.04	-0.000
830.22	-0.000
830.39	-0.000
830.57	-0.000
830.74	-0.000
830.92	-0.000
831.09	-0.000
831.26	-0.000
831.44	-0.000
831.61	-0.000
831.79	-0.000
831.96	-0.000
832.14	-0.000
832.31	-0.000
832.49	-0.000
832.66	-0.000
832.83	-0.000
833.01	-0.000
833.18	-0.000
833.36	-0.000
833.53	-0.000
833.70	-0.000
833.88	-0.000
834.05	-0.000
834.23	-0.000
834.40	-0.000
834.58	-0.000
834.75	-0.000
834.92	-0.000
835.10	-0.000
835.27	-0.000
835.45	-0.000
835.62	-0.000
835.79	-0.000
835.97	-0.000
836.14	-0.000
836.32	-0.000
836.49	-0.000
836.66	-0.000
836.84	-0.000
837.01	-0.000
837.18	-0.000
837.36	-0.000
837.53	-0.000
837.71	-0.000
837.88	-0.000
838.05	-0.000
838.23	-0.000
838.40	-0.000
838.58	-0.000
838.75	-0.000
838.92	-0.000
839.10	-0.000
839.27	-0.000
839.44	-0.000
839.62	-0.000
839.79	-0.000
839.96	-0.000
840.14	-0.000
840.31	-0.000
840.48	-0.000
840.66	-0.000
840.83	-0.000
841.01	-0.000
841.18	-0.000
841.35	-0.000
841.53	-0.000
841.70	-0.000
841.87	-0.000
842.05	-0.000
842.22	-0.000
842.39	-0.000
842.57	-0.000
842.74	-0.000
842.91	-0.000
843.09	-0.000
843.26	-0.000
843.43	-0.000
843.60	-0.000
843.78	-0.000
843.95	-0.000
844.12	-0.000
844.30	-0.000
844.47	-0.000
844.64	-0.000
844.82	-0.000
844.99	-0.000
845.16	-0.000
845.34	-0.000
845.51	-0.000
845.68	-0.000
845.85	-0.000
846.03	-0.000
846.20	-0.000
846.37	-0.000
846.55	-0.000
846.72	-0.000
846.89	-0.000
847.06	-0.000
847.24	-0.000
847.41	-0.000
847.58	-0.000
847.76	-0.000
847.93	-0.000
848.10	-0.000
848.27	-0.000
848.45	-0.000
848.62	-0.000
848.79	-0.000
848.97	-0.000
849.14	-0.000
849.31	-0.000
849.48	-0.000
849.66	-0.000
849.83	-0.000
850.00	-0.000
850.17	-0.000
850.35	-0.000
850.52	-0.000
850.69	-0.000
850.86	-0.000
851.04	-0.000
851.21	-0.000
851.38	-0.000
851.55	-0.000
851.72	-0.000
851.90	-0.000
852.07	-0.000
852.24	-0.000
852.41	-0.000
852.59	-0.000
852.76	-0.000
852.93	-0.000
853.10	-0.000
853.28	-0.000
853.45	-0.000
853.62	-0.000
853.79	-0.000
853.96	-0.000
854.14	-0.000
854.31	-0.000
854.48	-0.000
854.65	-0.000
854.82	-0.000
855.00	-0.000
855.17	-0.000
855.34	-0.000
855.51	-0.000
855.68	-0.000
855.86	-0.000
856.03	-0.000
856.20	-0.000
856.37	-0.000
856.54	-0.000
856.72	-0.000
856.89	-0.000
857.06	-0.000
857.23	-0.000
857.40	-0.000
857.57	-0.000
857.75	-0.000
857.92	-0.000
858.09	-0.000
858.26	-0.000
858.43	-0.000
858.60	-0.000
858.78	-0.000
858.95	-0.000
859.12	-0.000
859.29	-0.000
859.46	-0.000
859.63	-0.000
859.81	-0.000
859.98	-0.000
860.15	-0.000
860.32	-0.000
860.49	-0.000
860.66	-0.000
860.83	-0.000
861.01	-0.000
861.18	-0.000
861.35	-0.000
861.52	-0.000
861.69	-0.000
861.86	-0.000
862.03	-0.000
862.21	-0.000
862.38	-0.000
862.55	-0.000
862.72	-0.000
862.89	-0.000
863.06	-0.000
863.23	-0.000
863.40	-0.000
863.58	-0.000
863.75	-0.000
863.92	-0.000
864.09	-0.000
864.26	-0.000
864.43	-0.000
864.60	-0.000
864.77	-0.000
864.94	-0.000
865.11	-0.000
865.29	-0.000
865.46	-0.000
865.63	-0.000
865.80	-0.000
865.97	-0.000
866.14	-0.000
866.31	-0.000
866.48	-0.000
866.65	-0.000
866.82	-0.000
866.99	-0.000
867.16	-0.000
867.34	-0.000
867.51	-0.000
867.68	-0.000
867.85	-0.000
868.02	-0.000
868.19	-0.000
868.36	-0.000
868.53	-0.000
868.70	-0.000
868.87	-0.000
869.04	-0.000
869.21	-0.000
869.38	-0.000
869.55	-0.000
869.72	-0.000
869.89	-0.000
870.06	-0.000
870.24	-0.000
870.41	-0.000
870.58	-0.000
870.75	-0.000
870.92	-0.000
871.09	-0.000
871.26	-0.000
871.43	-0.000
871.60	-0.000
871.77	-0.000
871.94	-0.000
872.11	-0.000
872.28	-0.000
872.45	-0.000
872.62	-0.000
872.79	-0.000
872.96	-0.000
873.13	-0.000
873.30	-0.000
873.47	-0.000
873.64	-0.000
873.81	-0.000
873.98	-0.000
874.15	-0.000
874.32	-0.000
874.49	-0.000
874.66	-0.000
874.83	-0.000
875.00	-0.000
875.17	-0.000
875.34	-0.000
875.51	-0.000
875.68	-0.000
875.85	-0.000
876.02	-0.000
876.19	-0.000
876.36	-0.000
876.53	-0.000
876.70	-0.000
876.87	-0.000
877.04	-0.000
877.21	-0.000
877.38	-0.000
877.55	-0.000
877.72	-0.000
877.89	-0.000
878.06	-0.000
878.23	-0.000
878.39	-0.000
878.56	-0.000
878.73	-0.000
878.90	-0.000
879.07	-0.000
879.24	-0.000
879.41	-0.000
879.58	-0.000
879.75	-0.000
879.92	-0.000
880.09	-0.000
880.26	-0.000
880.43	-0.000
880.60	-0.000
880.77	-0.000
880.94	-0.000
881.11	-0.000
881.27	-0.000
881.44	-0.000
881.61	-0.000
881.78	-0.000
881.95	-0.000
882.12	-0.000
882.29	-0.000
882.46	-0.000
882.63	-0.000
882.80	-0.000
882.97	-0.000
883.14	-0.000
883.30	-0.000
883.47	-0.000
883.64	-0.000
883.81	-0.000
883.98	-0.000
884.15	-0.000
884.32	-0.000
884.49	-0.000
884.66	-0.000
884.82	-0.000
884.99	-0.000
885.16	-0.000
885.33	-0.000
885.50	-0.000
885.67	-0.000
885.84	-0.000
886.01	-0.000
886.17	-0.000
886.34	-0.000
886.51	-0.000
886.68	-0.000
886.85	-0.000
887.02	-0.000
887.19	-0.000
887.36	-0.000
887.52	-0.000
887.69	-0.000
887.86	-0.000
888.03	-0.000
888.20	-0.000
888.37	-0.000
888.54	-0.000
888.70	-0.000
888.87	-0.000
889.04	-0.000
889.21	-0.000
889.38	-0.000
889.55	-0.000
889.71	-0.000
889.88	-0.000
890.05	-0.000
890.22	-0.000
890.39	-0.000
>>>>>End Processed Spectral Data<<<<<
