SpectraSuite Data File
++++++++++++++++++++++++++++++++++++
Date: Fri Jun 19 14:48:38 CEST 2015
User: introlabs
Dark Spectrum Present: Yes
Reference Spectrum Present: Yes
Number of Sampled Component Spectra: 1
Spectrometers: USB4H08886
Integration Time (usec): 745692 (USB4H08886)
Spectra Averaged: 5 (USB4H08886)
Boxcar Smoothing: 5 (USB4H08886)
Correct for Electrical Dark: Yes (USB4H08886)
Strobe/Lamp Enabled: No (USB4H08886)
Correct for Detector Non-linearity: Yes (USB4H08886)
Correct for Stray Light: Yes (USB4H08886)
Number of Pixels in Processed Spectrum: 3648
>>>>>Begin Processed Spectral Data<<<<<
178.14	-0.000
178.36	-0.000
178.57	-0.000
178.79	-0.000
179.01	-0.000
179.22	-0.000
179.44	-0.000
179.65	-0.000
179.87	-0.000
180.08	-0.000
180.30	-0.000
180.52	-0.000
180.73	-0.000
180.95	-0.000
181.16	-0.000
181.38	-0.000
181.59	-0.000
181.81	-0.000
182.03	-0.000
182.24	-0.000
182.46	-0.000
182.67	-0.000
182.89	-0.000
183.10	-0.000
183.32	-0.000
183.54	-0.000
183.75	-0.000
183.97	-0.000
184.18	-0.000
184.40	-0.000
184.61	-0.000
184.83	-0.000
185.04	-0.000
185.26	-0.000
185.48	-0.000
185.69	-0.000
185.91	-0.000
186.12	-0.000
186.34	-0.000
186.55	-0.000
186.77	-0.000
186.98	-0.000
187.20	-0.000
187.42	-0.000
187.63	-0.000
187.85	-0.000
188.06	-0.000
188.28	-0.000
188.49	-0.000
188.71	-0.000
188.92	-0.000
189.14	-0.000
189.36	-0.000
189.57	-0.000
189.79	-0.000
190.00	-0.000
190.22	-0.000
190.43	-0.000
190.65	-0.000
190.86	-0.000
191.08	-0.000
191.29	-0.000
191.51	-0.000
191.72	-0.000
191.94	-0.000
192.16	-0.000
192.37	-0.000
192.59	-0.000
192.80	-0.000
193.02	-0.000
193.23	-0.000
193.45	-0.000
193.66	-0.000
193.88	-0.000
194.09	-0.000
194.31	-0.000
194.52	-0.000
194.74	-0.000
194.95	-0.000
195.17	-0.000
195.38	-0.000
195.60	-0.000
195.81	-0.000
196.03	-0.000
196.25	-0.000
196.46	-0.000
196.68	-0.000
196.89	-0.000
197.11	-0.000
197.32	-0.000
197.54	-0.000
197.75	-0.000
197.97	-0.000
198.18	-0.000
198.40	-0.000
198.61	-0.000
198.83	-0.000
199.04	-0.000
199.26	-0.000
199.47	-0.000
199.69	-0.000
199.90	-0.000
200.12	-0.000
200.33	-0.000
200.55	-0.000
200.76	-0.000
200.98	-0.000
201.19	-0.000
201.41	-0.000
201.62	-0.000
201.84	-0.000
202.05	-0.000
202.27	-0.000
202.48	-0.000
202.70	-0.000
202.91	-0.000
203.13	-0.000
203.34	-0.000
203.56	-0.000
203.77	-0.000
203.99	-0.000
204.20	-0.000
204.42	-0.000
204.63	-0.000
204.85	-0.000
205.06	-0.000
205.28	-0.000
205.49	-0.000
205.71	-0.000
205.92	-0.000
206.14	-0.000
206.35	-0.000
206.56	-0.000
206.78	-0.000
206.99	-0.000
207.21	-0.000
207.42	-0.000
207.64	-0.000
207.85	-0.000
208.07	-0.000
208.28	-0.000
208.50	-0.000
208.71	-0.000
208.93	-0.000
209.14	-0.000
209.36	-0.000
209.57	-0.000
209.79	-0.000
210.00	-0.000
210.22	-0.000
210.43	-0.000
210.64	-0.000
210.86	-0.000
211.07	-0.000
211.29	-0.000
211.50	-0.000
211.72	-0.000
211.93	-0.000
212.15	-0.000
212.36	-0.000
212.58	-0.000
212.79	-0.000
213.01	-0.000
213.22	-0.000
213.43	-0.000
213.65	-0.000
213.86	-0.000
214.08	-0.000
214.29	-0.000
214.51	-0.000
214.72	-0.000
214.94	-0.000
215.15	-0.000
215.36	-0.000
215.58	-0.000
215.79	-0.000
216.01	-0.000
216.22	-0.000
216.44	-0.000
216.65	-0.000
216.87	-0.000
217.08	-0.000
217.29	-0.000
217.51	-0.000
217.72	-0.000
217.94	-0.000
218.15	-0.000
218.37	-0.000
218.58	-0.000
218.80	-0.000
219.01	-0.000
219.22	-0.000
219.44	-0.000
219.65	-0.000
219.87	-0.000
220.08	-0.000
220.30	-0.000
220.51	-0.000
220.72	-0.000
220.94	-0.000
221.15	-0.000
221.37	-0.000
221.58	-0.000
221.79	-0.000
222.01	-0.000
222.22	-0.000
222.44	-0.000
222.65	-0.000
222.87	-0.000
223.08	-0.000
223.29	-0.000
223.51	-0.000
223.72	-0.000
223.94	-0.000
224.15	-0.000
224.36	-0.000
224.58	-0.000
224.79	-0.000
225.01	-0.000
225.22	-0.000
225.44	-0.000
225.65	-0.000
225.86	-0.000
226.08	-0.000
226.29	-0.000
226.51	-0.000
226.72	-0.000
226.93	-0.000
227.15	-0.000
227.36	-0.000
227.58	-0.000
227.79	-0.000
228.00	-0.000
228.22	-0.000
228.43	-0.000
228.65	-0.000
228.86	-0.000
229.07	-0.000
229.29	-0.000
229.50	-0.000
229.72	-0.000
229.93	-0.000
230.14	-0.000
230.36	-0.000
230.57	-0.000
230.78	-0.000
231.00	-0.000
231.21	-0.000
231.43	-0.000
231.64	-0.000
231.85	-0.000
232.07	-0.000
232.28	-0.000
232.50	-0.000
232.71	-0.000
232.92	-0.000
233.14	-0.000
233.35	-0.000
233.56	-0.000
233.78	-0.000
233.99	-0.000
234.21	-0.000
234.42	-0.000
234.63	-0.000
234.85	-0.000
235.06	-0.000
235.27	-0.000
235.49	-0.000
235.70	-0.000
235.91	-0.000
236.13	-0.000
236.34	-0.000
236.56	-0.000
236.77	-0.000
236.98	-0.000
237.20	-0.000
237.41	-0.000
237.62	-0.000
237.84	-0.000
238.05	-0.000
238.26	-0.000
238.48	-0.000
238.69	-0.000
238.91	-0.000
239.12	-0.000
239.33	-0.000
239.55	-0.000
239.76	-0.000
239.97	-0.000
240.19	-0.000
240.40	-0.000
240.61	-0.000
240.83	-0.000
241.04	-0.000
241.25	-0.000
241.47	-0.000
241.68	-0.000
241.89	-0.000
242.11	-0.000
242.32	-0.000
242.53	-0.000
242.75	-0.000
242.96	-0.000
243.17	-0.000
243.39	-0.000
243.60	-0.000
243.81	-0.000
244.03	-0.000
244.24	-0.000
244.45	-0.000
244.67	-0.000
244.88	-0.000
245.09	-0.000
245.31	-0.000
245.52	-0.000
245.73	-0.000
245.95	-0.000
246.16	-0.000
246.37	-0.000
246.59	-0.000
246.80	-0.000
247.01	-0.000
247.23	-0.000
247.44	-0.000
247.65	-0.000
247.87	-0.000
248.08	-0.000
248.29	-0.000
248.51	-0.000
248.72	-0.000
248.93	-0.000
249.15	-0.000
249.36	-0.000
249.57	-0.000
249.78	-0.000
250.00	-0.000
250.21	-0.000
250.42	-0.000
250.64	-0.000
250.85	-0.000
251.06	-0.000
251.28	-0.000
251.49	-0.000
251.70	-0.000
251.92	-0.000
252.13	-0.000
252.34	-0.000
252.55	-0.000
252.77	-0.000
252.98	-0.000
253.19	-0.000
253.41	-0.000
253.62	-0.000
253.83	-0.000
254.05	-0.000
254.26	-0.000
254.47	-0.000
254.68	-0.000
254.90	-0.000
255.11	-0.000
255.32	-0.000
255.54	-0.000
255.75	-0.000
255.96	-0.000
256.17	-0.000
256.39	-0.000
256.60	-0.000
256.81	-0.000
257.03	-0.000
257.24	-0.000
257.45	-0.000
257.66	-0.000
257.88	-0.000
258.09	-0.000
258.30	-0.000
258.51	-0.000
258.73	-0.000
258.94	-0.000
259.15	-0.000
259.37	-0.000
259.58	-0.000
259.79	-0.000
260.00	-0.000
260.22	-0.000
260.43	-0.000
260.64	-0.000
260.85	-0.000
261.07	-0.000
261.28	-0.000
261.49	-0.000
261.71	-0.000
261.92	-0.000
262.13	-0.000
262.34	-0.000
262.56	-0.000
262.77	-0.000
262.98	-0.000
263.19	-0.000
263.41	-0.000
263.62	-0.000
263.83	-0.000
264.04	-0.000
264.26	-0.000
264.47	-0.000
264.68	-0.000
264.89	-0.000
265.11	-0.000
265.32	-0.000
265.53	-0.000
265.74	-0.000
265.96	-0.000
266.17	-0.000
266.38	-0.000
266.59	-0.000
266.81	-0.000
267.02	-0.000
267.23	-0.000
267.44	-0.000
267.65	-0.000
267.87	-0.000
268.08	-0.000
268.29	-0.000
268.50	-0.000
268.72	-0.000
268.93	-0.000
269.14	-0.000
269.35	-0.000
269.57	-0.000
269.78	-0.000
269.99	-0.000
270.20	-0.000
270.41	-0.000
270.63	-0.000
270.84	-0.000
271.05	-0.000
271.26	-0.000
271.48	-0.000
271.69	-0.000
271.90	-0.000
272.11	-0.000
272.32	-0.000
272.54	-0.000
272.75	-0.000
272.96	-0.000
273.17	-0.000
273.39	-0.000
273.60	-0.000
273.81	-0.000
274.02	-0.000
274.23	-0.000
274.45	-0.000
274.66	-0.000
274.87	-0.000
275.08	-0.000
275.29	-0.000
275.51	-0.000
275.72	-0.000
275.93	-0.000
276.14	-0.000
276.35	-0.000
276.57	-0.000
276.78	-0.000
276.99	-0.000
277.20	-0.000
277.41	-0.000
277.63	-0.000
277.84	-0.000
278.05	-0.000
278.26	-0.000
278.47	-0.000
278.69	-0.000
278.90	-0.000
279.11	-0.000
279.32	-0.000
279.53	-0.000
279.74	-0.000
279.96	-0.000
280.17	-0.000
280.38	-0.000
280.59	-0.000
280.80	-0.000
281.02	-0.000
281.23	-0.000
281.44	-0.000
281.65	-0.000
281.86	-0.000
282.07	-0.000
282.29	-0.000
282.50	-0.000
282.71	-0.000
282.92	-0.000
283.13	-0.000
283.35	-0.000
283.56	-0.000
283.77	-0.000
283.98	-0.000
284.19	-0.000
284.40	-0.000
284.62	-0.000
284.83	-0.000
285.04	-0.000
285.25	-0.000
285.46	-0.000
285.67	-0.000
285.88	-0.000
286.10	-0.000
286.31	-0.000
286.52	-0.000
286.73	-0.000
286.94	-0.000
287.15	-0.000
287.37	-0.000
287.58	-0.000
287.79	-0.000
288.00	-0.000
288.21	-0.000
288.42	-0.000
288.63	-0.000
288.85	-0.000
289.06	-0.000
289.27	-0.000
289.48	-0.000
289.69	-0.000
289.90	-0.000
290.11	-0.000
290.33	-0.000
290.54	-0.000
290.75	-0.000
290.96	-0.000
291.17	-0.000
291.38	-0.000
291.59	-0.000
291.81	-0.000
292.02	-0.000
292.23	-0.000
292.44	-0.000
292.65	-0.000
292.86	-0.000
293.07	-0.000
293.28	-0.000
293.50	-0.000
293.71	-0.000
293.92	-0.000
294.13	-0.000
294.34	-0.000
294.55	-0.000
294.76	-0.000
294.97	-0.000
295.19	-0.000
295.40	-0.000
295.61	-0.000
295.82	-0.000
296.03	-0.000
296.24	-0.000
296.45	2.229
296.66	1.835
296.87	1.868
297.09	1.954
297.30	2.235
297.51	1.775
297.72	1.726
297.93	1.831
298.14	1.792
298.35	1.750
298.56	1.730
298.77	1.880
298.99	1.826
299.20	1.805
299.41	1.773
299.62	1.722
299.83	1.708
300.04	1.646
300.25	1.637
300.46	1.678
300.67	1.652
300.88	1.589
301.10	1.598
301.31	1.684
301.52	1.605
301.73	1.547
301.94	1.547
302.15	1.561
302.36	1.510
302.57	1.442
302.78	1.449
302.99	1.490
303.20	1.507
303.41	1.413
303.63	1.395
303.84	1.405
304.05	1.402
304.26	1.341
304.47	1.346
304.68	1.347
304.89	1.338
305.10	1.295
305.31	1.280
305.52	1.325
305.73	1.317
305.94	1.273
306.15	1.266
306.37	1.290
306.58	1.298
306.79	1.270
307.00	1.294
307.21	1.337
307.42	1.333
307.63	1.294
307.84	1.258
308.05	1.301
308.26	1.305
308.47	1.282
308.68	1.275
308.89	1.276
309.10	1.275
309.31	1.232
309.52	1.222
309.73	1.237
309.95	1.234
310.16	1.206
310.37	1.190
310.58	1.208
310.79	1.202
311.00	1.200
311.21	1.202
311.42	1.203
311.63	1.198
311.84	1.180
312.05	1.178
312.26	1.201
312.47	1.214
312.68	1.189
312.89	1.174
313.10	1.182
313.31	1.153
313.52	1.153
313.73	1.155
313.94	1.158
314.15	1.140
314.36	1.117
314.57	1.110
314.78	1.098
314.99	1.093
315.21	1.081
315.42	1.085
315.63	1.099
315.84	1.076
316.05	1.062
316.26	1.068
316.47	1.087
316.68	1.084
316.89	1.065
317.10	1.083
317.31	1.089
317.52	1.089
317.73	1.067
317.94	1.067
318.15	1.119
318.36	1.119
318.57	1.103
318.78	1.092
318.99	1.129
319.20	1.124
319.41	1.091
319.62	1.092
319.83	1.107
320.04	1.103
320.25	1.088
320.46	1.046
320.67	1.048
320.88	1.043
321.09	1.029
321.30	1.013
321.51	1.029
321.72	1.028
321.93	1.011
322.14	1.002
322.35	1.028
322.56	1.029
322.77	1.015
322.98	1.027
323.19	1.035
323.40	1.041
323.61	1.019
323.82	1.014
324.03	1.018
324.24	1.016
324.45	1.004
324.66	0.986
324.87	0.982
325.08	0.984
325.29	0.964
325.50	0.958
325.71	0.963
325.92	0.971
326.13	0.956
326.34	0.957
326.55	0.965
326.76	0.964
326.97	0.953
327.18	0.949
327.39	0.972
327.60	0.973
327.80	0.974
328.01	0.971
328.22	0.971
328.43	0.975
328.64	0.964
328.85	0.968
329.06	0.970
329.27	0.968
329.48	0.963
329.69	0.944
329.90	0.955
330.11	0.948
330.32	0.941
330.53	0.934
330.74	0.933
330.95	0.932
331.16	0.917
331.37	0.925
331.58	0.926
331.79	0.925
332.00	0.917
332.21	0.910
332.42	0.913
332.63	0.906
332.83	0.902
333.04	0.905
333.25	0.917
333.46	0.914
333.67	0.901
333.88	0.904
334.09	0.914
334.30	0.910
334.51	0.902
334.72	0.897
334.93	0.900
335.14	0.899
335.35	0.890
335.56	0.885
335.77	0.895
335.98	0.893
336.18	0.886
336.39	0.879
336.60	0.884
336.81	0.882
337.02	0.882
337.23	0.887
337.44	0.889
337.65	0.891
337.86	0.880
338.07	0.875
338.28	0.881
338.49	0.878
338.70	0.872
338.91	0.878
339.11	0.886
339.32	0.881
339.53	0.869
339.74	0.866
339.95	0.863
340.16	0.862
340.37	0.856
340.58	0.854
340.79	0.858
341.00	0.857
341.21	0.846
341.41	0.845
341.62	0.847
341.83	0.848
342.04	0.843
342.25	0.854
342.46	0.858
342.67	0.857
342.88	0.850
343.09	0.848
343.30	0.854
343.50	0.858
343.71	0.849
343.92	0.846
344.13	0.851
344.34	0.850
344.55	0.834
344.76	0.831
344.97	0.835
345.18	0.835
345.38	0.832
345.59	0.828
345.80	0.827
346.01	0.824
346.22	0.821
346.43	0.817
346.64	0.825
346.85	0.825
347.06	0.818
347.26	0.818
347.47	0.821
347.68	0.817
347.89	0.813
348.10	0.807
348.31	0.814
348.52	0.812
348.73	0.809
348.93	0.806
349.14	0.808
349.35	0.808
349.56	0.803
349.77	0.798
349.98	0.804
350.19	0.801
350.39	0.798
350.60	0.793
350.81	0.809
351.02	0.807
351.23	0.803
351.44	0.805
351.65	0.808
351.86	0.805
352.06	0.803
352.27	0.803
352.48	0.805
352.69	0.804
352.90	0.798
353.11	0.785
353.31	0.791
353.52	0.787
353.73	0.780
353.94	0.781
354.15	0.787
354.36	0.787
354.57	0.778
354.77	0.781
354.98	0.780
355.19	0.780
355.40	0.779
355.61	0.786
355.82	0.790
356.02	0.790
356.23	0.782
356.44	0.783
356.65	0.786
356.86	0.786
357.07	0.779
357.27	0.782
357.48	0.785
357.69	0.782
357.90	0.766
358.11	0.764
358.32	0.767
358.52	0.769
358.73	0.760
358.94	0.763
359.15	0.767
359.36	0.767
359.56	0.763
359.77	0.759
359.98	0.766
360.19	0.765
360.40	0.761
360.61	0.762
360.81	0.762
361.02	0.761
361.23	0.753
361.44	0.752
361.65	0.753
361.85	0.752
362.06	0.750
362.27	0.751
362.48	0.752
362.69	0.755
362.89	0.749
363.10	0.751
363.31	0.757
363.52	0.761
363.73	0.756
363.93	0.757
364.14	0.759
364.35	0.761
364.56	0.751
364.77	0.751
364.97	0.753
365.18	0.753
365.39	0.748
365.60	0.745
365.81	0.745
366.01	0.745
366.22	0.741
366.43	0.740
366.64	0.742
366.84	0.748
367.05	0.745
367.26	0.744
367.47	0.745
367.68	0.745
367.88	0.742
368.09	0.740
368.30	0.742
368.51	0.742
368.71	0.742
368.92	0.746
369.13	0.745
369.34	0.744
369.55	0.743
369.75	0.744
369.96	0.751
370.17	0.751
370.38	0.747
370.58	0.746
370.79	0.751
371.00	0.750
371.21	0.741
371.41	0.745
371.62	0.749
371.83	0.744
372.04	0.742
372.24	0.735
372.45	0.736
372.66	0.737
372.87	0.734
373.07	0.731
373.28	0.731
373.49	0.734
373.70	0.725
373.90	0.724
374.11	0.733
374.32	0.733
374.53	0.731
374.73	0.731
374.94	0.734
375.15	0.734
375.36	0.732
375.56	0.741
375.77	0.741
375.98	0.741
376.19	0.739
376.39	0.732
376.60	0.737
376.81	0.738
377.02	0.735
377.22	0.734
377.43	0.734
377.64	0.734
377.84	0.725
378.05	0.730
378.26	0.736
378.47	0.735
378.67	0.733
378.88	0.730
379.09	0.730
379.30	0.731
379.50	0.728
379.71	0.730
379.92	0.733
380.12	0.731
380.33	0.722
380.54	0.717
380.75	0.725
380.95	0.724
381.16	0.722
381.37	0.723
381.57	0.725
381.78	0.725
381.99	0.724
382.20	0.724
382.40	0.728
382.61	0.728
382.82	0.726
383.02	0.719
383.23	0.722
383.44	0.722
383.64	0.721
383.85	0.723
384.06	0.727
384.27	0.724
384.47	0.722
384.68	0.723
384.89	0.729
385.09	0.729
385.30	0.728
385.51	0.727
385.71	0.731
385.92	0.731
386.13	0.729
386.33	0.730
386.54	0.731
386.75	0.731
386.95	0.726
387.16	0.722
387.37	0.725
387.58	0.724
387.78	0.722
387.99	0.719
388.20	0.722
388.40	0.720
388.61	0.716
388.82	0.719
389.02	0.721
389.23	0.721
389.44	0.720
389.64	0.720
389.85	0.732
390.06	0.731
390.26	0.733
390.47	0.732
390.68	0.734
390.88	0.733
391.09	0.728
391.30	0.728
391.50	0.728
391.71	0.727
391.92	0.725
392.12	0.717
392.33	0.718
392.53	0.718
392.74	0.718
392.95	0.717
393.15	0.719
393.36	0.721
393.57	0.718
393.77	0.722
393.98	0.724
394.19	0.723
394.39	0.722
394.60	0.724
394.81	0.726
395.01	0.725
395.22	0.722
395.43	0.723
395.63	0.728
395.84	0.729
396.04	0.726
396.25	0.728
396.46	0.731
396.66	0.729
396.87	0.726
397.08	0.723
397.28	0.725
397.49	0.727
397.69	0.723
397.90	0.718
398.11	0.719
398.31	0.719
398.52	0.715
398.73	0.715
398.93	0.715
399.14	0.714
399.34	0.714
399.55	0.714
399.76	0.714
399.96	0.715
400.17	0.714
400.37	0.713
400.58	0.719
400.79	0.720
400.99	0.718
401.20	0.724
401.41	0.725
401.61	0.727
401.82	0.732
402.02	0.732
402.23	0.734
402.44	0.733
402.64	0.732
402.85	0.727
403.05	0.726
403.26	0.725
403.47	0.719
403.67	0.718
403.88	0.718
404.08	0.713
404.29	0.711
404.50	0.710
404.70	0.710
404.91	0.710
405.11	0.707
405.32	0.708
405.52	0.708
405.73	0.708
405.94	0.706
406.14	0.709
406.35	0.710
406.55	0.710
406.76	0.708
406.97	0.708
407.17	0.711
407.38	0.711
407.58	0.709
407.79	0.712
407.99	0.715
408.20	0.716
408.41	0.711
408.61	0.710
408.82	0.711
409.02	0.711
409.23	0.709
409.43	0.708
409.64	0.710
409.84	0.709
410.05	0.705
410.26	0.703
410.46	0.703
410.67	0.703
410.87	0.705
411.08	0.706
411.28	0.708
411.49	0.709
411.69	0.707
411.90	0.709
412.11	0.710
412.31	0.711
412.52	0.711
412.72	0.712
412.93	0.712
413.13	0.711
413.34	0.707
413.54	0.709
413.75	0.710
413.95	0.710
414.16	0.706
414.37	0.708
414.57	0.709
414.78	0.710
414.98	0.708
415.19	0.709
415.39	0.706
415.60	0.708
415.80	0.707
416.01	0.705
416.21	0.707
416.42	0.707
416.62	0.702
416.83	0.702
417.03	0.702
417.24	0.702
417.44	0.700
417.65	0.700
417.86	0.701
418.06	0.699
418.27	0.697
418.47	0.699
418.68	0.700
418.88	0.700
419.09	0.698
419.29	0.699
419.50	0.699
419.70	0.699
419.91	0.697
420.11	0.694
420.32	0.696
420.52	0.696
420.73	0.695
420.93	0.695
421.14	0.697
421.34	0.696
421.55	0.693
421.75	0.693
421.96	0.694
422.16	0.694
422.37	0.694
422.57	0.691
422.78	0.693
422.98	0.690
423.19	0.688
423.39	0.686
423.60	0.689
423.80	0.691
424.01	0.690
424.21	0.692
424.42	0.693
424.62	0.692
424.83	0.691
425.03	0.690
425.23	0.693
425.44	0.692
425.64	0.693
425.85	0.692
426.05	0.692
426.26	0.692
426.46	0.688
426.67	0.687
426.87	0.692
427.08	0.693
427.28	0.692
427.49	0.692
427.69	0.693
427.90	0.693
428.10	0.690
428.31	0.690
428.51	0.692
428.71	0.691
428.92	0.692
429.12	0.689
429.33	0.690
429.53	0.694
429.74	0.697
429.94	0.697
430.15	0.696
430.35	0.697
430.56	0.693
430.76	0.692
430.96	0.693
431.17	0.691
431.37	0.688
431.58	0.686
431.78	0.683
431.99	0.676
432.19	0.679
432.40	0.680
432.60	0.681
432.80	0.683
433.01	0.681
433.21	0.681
433.42	0.683
433.62	0.683
433.83	0.683
434.03	0.686
434.23	0.689
434.44	0.688
434.64	0.685
434.85	0.690
435.05	0.691
435.26	0.691
435.46	0.690
435.66	0.690
435.87	0.689
436.07	0.689
436.28	0.685
436.48	0.681
436.69	0.681
436.89	0.681
437.09	0.675
437.30	0.674
437.50	0.674
437.71	0.685
437.91	0.685
438.11	0.685
438.32	0.690
438.52	0.690
438.73	0.690
438.93	0.688
439.13	0.688
439.34	0.691
439.54	0.688
439.75	0.689
439.95	0.679
440.15	0.683
440.36	0.682
440.56	0.680
440.77	0.681
440.97	0.680
441.17	0.679
441.38	0.680
441.58	0.678
441.79	0.678
441.99	0.676
442.19	0.675
442.40	0.672
442.60	0.672
442.81	0.669
443.01	0.670
443.21	0.670
443.42	0.669
443.62	0.667
443.82	0.667
444.03	0.668
444.23	0.668
444.44	0.668
444.64	0.667
444.84	0.668
445.05	0.668
445.25	0.666
445.45	0.667
445.66	0.669
445.86	0.669
446.06	0.670
446.27	0.670
446.47	0.674
446.68	0.671
446.88	0.670
447.08	0.670
447.29	0.671
447.49	0.671
447.69	0.671
447.90	0.670
448.10	0.673
448.30	0.670
448.51	0.671
448.71	0.668
448.91	0.671
449.12	0.670
449.32	0.671
449.52	0.670
449.73	0.674
449.93	0.672
450.14	0.673
450.34	0.672
450.54	0.675
450.75	0.672
450.95	0.671
451.15	0.671
451.36	0.673
451.56	0.670
451.76	0.670
451.97	0.667
452.17	0.667
452.37	0.665
452.58	0.662
452.78	0.661
452.98	0.664
453.19	0.663
453.39	0.664
453.59	0.663
453.79	0.664
454.00	0.664
454.20	0.664
454.40	0.664
454.61	0.667
454.81	0.667
455.01	0.665
455.22	0.666
455.42	0.668
455.62	0.666
455.83	0.665
456.03	0.667
456.23	0.668
456.44	0.668
456.64	0.667
456.84	0.667
457.04	0.667
457.25	0.666
457.45	0.663
457.65	0.661
457.86	0.663
458.06	0.662
458.26	0.658
458.47	0.657
458.67	0.658
458.87	0.658
459.07	0.656
459.28	0.658
459.48	0.661
459.68	0.661
459.89	0.660
460.09	0.658
460.29	0.660
460.49	0.661
460.70	0.660
460.90	0.660
461.10	0.661
461.31	0.660
461.51	0.658
461.71	0.659
461.91	0.660
462.12	0.660
462.32	0.659
462.52	0.659
462.72	0.662
462.93	0.662
463.13	0.661
463.33	0.661
463.53	0.663
463.74	0.662
463.94	0.657
464.14	0.658
464.35	0.659
464.55	0.660
464.75	0.658
464.95	0.656
465.16	0.658
465.36	0.656
465.56	0.655
465.76	0.654
465.97	0.655
466.17	0.657
466.37	0.654
466.57	0.655
466.78	0.655
466.98	0.655
467.18	0.654
467.38	0.653
467.59	0.655
467.79	0.656
467.99	0.656
468.19	0.657
468.39	0.660
468.60	0.660
468.80	0.658
469.00	0.659
469.20	0.660
469.41	0.660
469.61	0.659
469.81	0.659
470.01	0.659
470.22	0.659
470.42	0.656
470.62	0.655
470.82	0.656
471.02	0.655
471.23	0.653
471.43	0.654
471.63	0.657
471.83	0.656
472.04	0.654
472.24	0.653
472.44	0.659
472.64	0.659
472.84	0.657
473.05	0.657
473.25	0.660
473.45	0.660
473.65	0.657
473.85	0.658
474.06	0.659
474.26	0.659
474.46	0.660
474.66	0.656
474.86	0.657
475.07	0.656
475.27	0.655
475.47	0.652
475.67	0.652
475.87	0.654
476.08	0.651
476.28	0.652
476.48	0.653
476.68	0.652
476.88	0.650
477.09	0.652
477.29	0.654
477.49	0.654
477.69	0.653
477.89	0.653
478.09	0.652
478.30	0.654
478.50	0.652
478.70	0.651
478.90	0.652
479.10	0.654
479.31	0.654
479.51	0.652
479.71	0.653
479.91	0.653
480.11	0.652
480.31	0.653
480.52	0.652
480.72	0.652
480.92	0.651
481.12	0.649
481.32	0.647
481.52	0.644
481.72	0.644
481.93	0.647
482.13	0.648
482.33	0.647
482.53	0.645
482.73	0.646
482.93	0.647
483.14	0.646
483.34	0.646
483.54	0.647
483.74	0.647
483.94	0.646
484.14	0.642
484.34	0.642
484.55	0.643
484.75	0.642
484.95	0.640
485.15	0.640
485.35	0.640
485.55	0.639
485.75	0.637
485.96	0.637
486.16	0.639
486.36	0.639
486.56	0.637
486.76	0.637
486.96	0.637
487.16	0.636
487.36	0.635
487.57	0.634
487.77	0.635
487.97	0.636
488.17	0.634
488.37	0.633
488.57	0.634
488.77	0.634
488.97	0.632
489.18	0.632
489.38	0.635
489.58	0.635
489.78	0.634
489.98	0.634
490.18	0.634
490.38	0.634
490.58	0.633
490.78	0.634
490.98	0.636
491.19	0.636
491.39	0.635
491.59	0.634
491.79	0.637
491.99	0.638
492.19	0.638
492.39	0.641
492.59	0.641
492.79	0.643
492.99	0.643
493.20	0.644
493.40	0.643
493.60	0.645
493.80	0.643
494.00	0.641
494.20	0.642
494.40	0.641
494.60	0.639
494.80	0.643
495.00	0.642
495.20	0.640
495.40	0.639
495.61	0.641
495.81	0.640
496.01	0.644
496.21	0.645
496.41	0.644
496.61	0.645
496.81	0.644
497.01	0.639
497.21	0.638
497.41	0.639
497.61	0.638
497.81	0.635
498.01	0.635
498.21	0.633
498.41	0.631
498.61	0.631
498.82	0.632
499.02	0.635
499.22	0.635
499.42	0.635
499.62	0.636
499.82	0.637
500.02	0.639
500.22	0.638
500.42	0.640
500.62	0.640
500.82	0.640
501.02	0.637
501.22	0.638
501.42	0.638
501.62	0.640
501.82	0.639
502.02	0.640
502.22	0.639
502.42	0.641
502.62	0.639
502.82	0.639
503.02	0.641
503.22	0.641
503.42	0.638
503.63	0.638
503.83	0.636
504.03	0.634
504.23	0.633
504.43	0.633
504.63	0.634
504.83	0.633
505.03	0.632
505.23	0.634
505.43	0.635
505.63	0.636
505.83	0.636
506.03	0.637
506.23	0.640
506.43	0.640
506.63	0.639
506.83	0.638
507.03	0.639
507.23	0.640
507.43	0.637
507.63	0.637
507.83	0.637
508.03	0.638
508.23	0.637
508.43	0.635
508.63	0.637
508.83	0.638
509.03	0.639
509.23	0.638
509.43	0.639
509.63	0.639
509.83	0.638
510.03	0.640
510.23	0.642
510.43	0.643
510.63	0.644
510.83	0.643
511.03	0.645
511.23	0.642
511.43	0.642
511.63	0.644
511.83	0.646
512.03	0.646
512.22	0.643
512.42	0.642
512.62	0.643
512.82	0.642
513.02	0.642
513.22	0.642
513.42	0.644
513.62	0.647
513.82	0.644
514.02	0.644
514.22	0.646
514.42	0.646
514.62	0.646
514.82	0.646
515.02	0.649
515.22	0.652
515.42	0.650
515.62	0.652
515.82	0.651
516.02	0.652
516.22	0.652
516.42	0.653
516.62	0.655
516.82	0.655
517.01	0.654
517.21	0.653
517.41	0.656
517.61	0.656
517.81	0.652
518.01	0.651
518.21	0.651
518.41	0.650
518.61	0.649
518.81	0.649
519.01	0.650
519.21	0.650
519.41	0.649
519.61	0.644
519.81	0.646
520.00	0.647
520.20	0.648
520.40	0.650
520.60	0.651
520.80	0.650
521.00	0.651
521.20	0.652
521.40	0.657
521.60	0.658
521.80	0.657
522.00	0.657
522.20	0.660
522.39	0.659
522.59	0.656
522.79	0.657
522.99	0.659
523.19	0.657
523.39	0.654
523.59	0.652
523.79	0.655
523.99	0.657
524.19	0.656
524.38	0.655
524.58	0.657
524.78	0.657
524.98	0.655
525.18	0.657
525.38	0.659
525.58	0.659
525.78	0.656
525.98	0.654
526.18	0.655
526.37	0.654
526.57	0.656
526.77	0.656
526.97	0.656
527.17	0.657
527.37	0.653
527.57	0.656
527.77	0.658
527.96	0.658
528.16	0.657
528.36	0.658
528.56	0.660
528.76	0.657
528.96	0.656
529.16	0.657
529.36	0.660
529.55	0.661
529.75	0.657
529.95	0.657
530.15	0.658
530.35	0.661
530.55	0.658
530.75	0.658
530.94	0.660
531.14	0.659
531.34	0.658
531.54	0.656
531.74	0.659
531.94	0.661
532.13	0.660
532.33	0.662
532.53	0.661
532.73	0.661
532.93	0.659
533.13	0.661
533.33	0.661
533.52	0.661
533.72	0.665
533.92	0.663
534.12	0.661
534.32	0.661
534.52	0.659
534.71	0.661
534.91	0.664
535.11	0.666
535.31	0.663
535.51	0.666
535.71	0.667
535.90	0.665
536.10	0.666
536.30	0.668
536.50	0.669
536.70	0.670
536.89	0.668
537.09	0.667
537.29	0.668
537.49	0.669
537.69	0.667
537.89	0.668
538.08	0.667
538.28	0.665
538.48	0.665
538.68	0.667
538.88	0.668
539.07	0.668
539.27	0.666
539.47	0.665
539.67	0.665
539.87	0.666
540.06	0.664
540.26	0.665
540.46	0.667
540.66	0.664
540.86	0.661
541.05	0.662
541.25	0.663
541.45	0.663
541.65	0.662
541.84	0.664
542.04	0.664
542.24	0.665
542.44	0.664
542.64	0.666
542.83	0.669
543.03	0.669
543.23	0.667
543.43	0.668
543.62	0.669
543.82	0.669
544.02	0.668
544.22	0.668
544.42	0.671
544.61	0.672
544.81	0.668
545.01	0.667
545.21	0.670
545.40	0.670
545.60	0.668
545.80	0.672
546.00	0.672
546.19	0.671
546.39	0.670
546.59	0.667
546.79	0.669
546.98	0.669
547.18	0.668
547.38	0.669
547.58	0.673
547.77	0.673
547.97	0.668
548.17	0.670
548.37	0.671
548.56	0.671
548.76	0.670
548.96	0.672
549.16	0.674
549.35	0.674
549.55	0.671
549.75	0.671
549.95	0.674
550.14	0.675
550.34	0.673
550.54	0.678
550.73	0.682
550.93	0.683
551.13	0.679
551.33	0.678
551.52	0.679
551.72	0.680
551.92	0.678
552.12	0.679
552.31	0.679
552.51	0.679
552.71	0.674
552.90	0.674
553.10	0.674
553.30	0.675
553.50	0.674
553.69	0.676
553.89	0.676
554.09	0.676
554.28	0.673
554.48	0.674
554.68	0.676
554.87	0.676
555.07	0.673
555.27	0.673
555.47	0.674
555.66	0.675
555.86	0.673
556.06	0.676
556.25	0.677
556.45	0.685
556.65	0.683
556.84	0.687
557.04	0.690
557.24	0.692
557.43	0.692
557.63	0.695
557.83	0.696
558.02	0.697
558.22	0.701
558.42	0.701
558.61	0.695
558.81	0.695
559.01	0.691
559.21	0.691
559.40	0.692
559.60	0.692
559.80	0.688
559.99	0.689
560.19	0.690
560.39	0.685
560.58	0.682
560.78	0.682
560.97	0.686
561.17	0.685
561.37	0.682
561.56	0.683
561.76	0.685
561.96	0.685
562.15	0.682
562.35	0.685
562.55	0.686
562.74	0.686
562.94	0.685
563.14	0.682
563.33	0.682
563.53	0.683
563.73	0.680
563.92	0.681
564.12	0.683
564.31	0.685
564.51	0.683
564.71	0.685
564.90	0.687
565.10	0.689
565.30	0.691
565.49	0.693
565.69	0.695
565.89	0.696
566.08	0.693
566.28	0.695
566.47	0.696
566.67	0.695
566.87	0.692
567.06	0.693
567.26	0.699
567.46	0.695
567.65	0.694
567.85	0.696
568.04	0.699
568.24	0.698
568.44	0.695
568.63	0.693
568.83	0.694
569.02	0.693
569.22	0.689
569.42	0.685
569.61	0.687
569.81	0.686
570.00	0.683
570.20	0.684
570.40	0.686
570.59	0.686
570.79	0.684
570.98	0.683
571.18	0.684
571.38	0.684
571.57	0.682
571.77	0.679
571.96	0.683
572.16	0.681
572.35	0.676
572.55	0.677
572.75	0.675
572.94	0.674
573.14	0.672
573.33	0.673
573.53	0.673
573.73	0.673
573.92	0.671
574.12	0.669
574.31	0.671
574.51	0.672
574.70	0.669
574.90	0.671
575.09	0.673
575.29	0.674
575.49	0.671
575.68	0.672
575.88	0.673
576.07	0.674
576.27	0.672
576.46	0.670
576.66	0.670
576.86	0.669
577.05	0.667
577.25	0.665
577.44	0.667
577.64	0.666
577.83	0.664
578.03	0.665
578.22	0.664
578.42	0.663
578.61	0.662
578.81	0.662
579.00	0.662
579.20	0.662
579.40	0.661
579.59	0.659
579.79	0.660
579.98	0.659
580.18	0.659
580.37	0.660
580.57	0.662
580.76	0.667
580.96	0.665
581.15	0.666
581.35	0.668
581.54	0.668
581.74	0.668
581.93	0.669
582.13	0.670
582.32	0.667
582.52	0.666
582.71	0.665
582.91	0.661
583.10	0.661
583.30	0.660
583.49	0.659
583.69	0.663
583.88	0.664
584.08	0.663
584.27	0.665
584.47	0.668
584.66	0.668
584.86	0.667
585.05	0.669
585.25	0.672
585.44	0.671
585.64	0.670
585.83	0.666
586.03	0.666
586.22	0.665
586.42	0.661
586.61	0.663
586.81	0.666
587.00	0.666
587.20	0.663
587.39	0.663
587.59	0.665
587.78	0.667
587.98	0.667
588.17	0.668
588.37	0.670
588.56	0.672
588.76	0.667
588.95	0.667
589.15	0.671
589.34	0.674
589.54	0.672
589.73	0.673
589.92	0.676
590.12	0.676
590.31	0.674
590.51	0.679
590.70	0.681
590.90	0.682
591.09	0.680
591.29	0.678
591.48	0.678
591.68	0.680
591.87	0.679
592.06	0.678
592.26	0.681
592.45	0.680
592.65	0.674
592.84	0.673
593.04	0.675
593.23	0.677
593.43	0.674
593.62	0.674
593.81	0.674
594.01	0.672
594.20	0.670
594.40	0.668
594.59	0.670
594.79	0.671
594.98	0.670
595.17	0.668
595.37	0.669
595.56	0.671
595.76	0.670
595.95	0.672
596.14	0.676
596.34	0.677
596.53	0.676
596.73	0.678
596.92	0.680
597.12	0.682
597.31	0.683
597.50	0.682
597.70	0.685
597.89	0.685
598.09	0.681
598.28	0.681
598.47	0.684
598.67	0.682
598.86	0.679
599.06	0.681
599.25	0.681
599.44	0.679
599.64	0.676
599.83	0.673
600.03	0.676
600.22	0.676
600.41	0.676
600.61	0.674
600.80	0.676
601.00	0.676
601.19	0.672
601.38	0.670
601.58	0.672
601.77	0.673
601.96	0.676
602.16	0.676
602.35	0.685
602.55	0.683
602.74	0.684
602.93	0.685
603.13	0.691
603.32	0.692
603.51	0.692
603.71	0.696
603.90	0.698
604.09	0.698
604.29	0.695
604.48	0.689
604.68	0.690
604.87	0.689
605.06	0.685
605.26	0.682
605.45	0.683
605.64	0.682
605.84	0.677
606.03	0.676
606.22	0.675
606.42	0.674
606.61	0.671
606.80	0.671
607.00	0.673
607.19	0.673
607.38	0.671
607.58	0.673
607.77	0.675
607.96	0.675
608.16	0.674
608.35	0.678
608.54	0.681
608.74	0.684
608.93	0.689
609.12	0.693
609.32	0.695
609.51	0.699
609.70	0.697
609.90	0.699
610.09	0.703
610.28	0.709
610.48	0.702
610.67	0.704
610.86	0.704
611.06	0.698
611.25	0.696
611.44	0.697
611.64	0.696
611.83	0.700
612.02	0.696
612.21	0.695
612.41	0.694
612.60	0.693
612.79	0.689
612.99	0.689
613.18	0.690
613.37	0.688
613.57	0.685
613.76	0.687
613.95	0.684
614.14	0.684
614.34	0.680
614.53	0.681
614.72	0.684
614.92	0.684
615.11	0.681
615.30	0.678
615.49	0.680
615.69	0.683
615.88	0.679
616.07	0.680
616.26	0.682
616.46	0.684
616.65	0.680
616.84	0.680
617.04	0.681
617.23	0.684
617.42	0.685
617.61	0.689
617.81	0.689
618.00	0.691
618.19	0.689
618.38	0.692
618.58	0.696
618.77	0.697
618.96	0.696
619.15	0.699
619.35	0.701
619.54	0.701
619.73	0.698
619.92	0.699
620.12	0.703
620.31	0.704
620.50	0.700
620.69	0.700
620.89	0.702
621.08	0.702
621.27	0.701
621.46	0.701
621.66	0.705
621.85	0.703
622.04	0.700
622.23	0.701
622.43	0.702
622.62	0.701
622.81	0.700
623.00	0.700
623.19	0.703
623.39	0.702
623.58	0.699
623.77	0.698
623.96	0.702
624.16	0.701
624.35	0.697
624.54	0.700
624.73	0.705
624.92	0.702
625.12	0.699
625.31	0.700
625.50	0.703
625.69	0.704
625.88	0.699
626.08	0.699
626.27	0.700
626.46	0.701
626.65	0.697
626.84	0.696
627.04	0.701
627.23	0.702
627.42	0.697
627.61	0.699
627.80	0.702
628.00	0.702
628.19	0.699
628.38	0.703
628.57	0.705
628.76	0.705
628.96	0.701
629.15	0.702
629.34	0.705
629.53	0.706
629.72	0.699
629.91	0.700
630.11	0.705
630.30	0.706
630.49	0.709
630.68	0.709
630.87	0.713
631.06	0.716
631.26	0.711
631.45	0.714
631.64	0.721
631.83	0.724
632.02	0.722
632.21	0.720
632.41	0.726
632.60	0.720
632.79	0.718
632.98	0.718
633.17	0.719
633.36	0.721
633.55	0.717
633.75	0.714
633.94	0.716
634.13	0.716
634.32	0.714
634.51	0.709
634.70	0.711
634.89	0.711
635.09	0.707
635.28	0.708
635.47	0.709
635.66	0.711
635.85	0.706
636.04	0.707
636.23	0.712
636.43	0.713
636.62	0.712
636.81	0.710
637.00	0.713
637.19	0.716
637.38	0.712
637.57	0.712
637.76	0.714
637.95	0.715
638.15	0.711
638.34	0.707
638.53	0.711
638.72	0.712
638.91	0.710
639.10	0.708
639.29	0.708
639.48	0.709
639.67	0.709
639.87	0.707
640.06	0.713
640.25	0.712
640.44	0.714
640.63	0.714
640.82	0.716
641.01	0.716
641.20	0.715
641.39	0.717
641.58	0.719
641.78	0.717
641.97	0.714
642.16	0.728
642.35	0.729
642.54	0.727
642.73	0.722
642.92	0.721
643.11	0.725
643.30	0.726
643.49	0.721
643.68	0.723
643.87	0.725
644.06	0.725
644.25	0.705
644.45	0.707
644.64	0.708
644.83	0.707
645.02	0.704
645.21	0.703
645.40	0.703
645.59	0.703
645.78	0.698
645.97	0.700
646.16	0.701
646.35	0.701
646.54	0.700
646.73	0.701
646.92	0.703
647.11	0.702
647.30	0.698
647.49	0.702
647.68	0.701
647.88	0.699
648.07	0.692
648.26	0.695
648.45	0.697
648.64	0.693
648.83	0.691
649.02	0.694
649.21	0.703
649.40	0.702
649.59	0.696
649.78	0.697
649.97	0.711
650.16	0.711
650.35	0.705
650.54	0.707
650.73	0.715
650.92	0.712
651.11	0.705
651.30	0.703
651.49	0.707
651.68	0.708
651.87	0.705
652.06	0.694
652.25	0.698
652.44	0.701
652.63	0.699
652.82	0.700
653.01	0.700
653.20	0.699
653.39	0.689
653.58	0.685
653.77	0.684
653.96	0.680
654.15	0.673
654.34	0.671
654.53	0.667
654.72	0.660
654.91	0.651
655.10	0.647
655.29	0.645
655.48	0.643
655.67	0.638
655.86	0.636
656.05	0.634
656.24	0.634
656.43	0.628
656.62	0.628
656.81	0.628
657.00	0.625
657.19	0.621
657.38	0.621
657.57	0.620
657.76	0.622
657.95	0.620
658.14	0.623
658.33	0.625
658.51	0.629
658.70	0.629
658.89	0.631
659.08	0.640
659.27	0.648
659.46	0.648
659.65	0.655
659.84	0.658
660.03	0.662
660.22	0.663
660.41	0.668
660.60	0.667
660.79	0.668
660.98	0.673
661.17	0.673
661.36	0.672
661.55	0.673
661.74	0.670
661.92	0.674
662.11	0.676
662.30	0.674
662.49	0.667
662.68	0.667
662.87	0.671
663.06	0.666
663.25	0.666
663.44	0.667
663.63	0.667
663.82	0.667
664.01	0.661
664.20	0.659
664.38	0.660
664.57	0.661
664.76	0.661
664.95	0.662
665.14	0.666
665.33	0.661
665.52	0.668
665.71	0.671
665.90	0.670
666.09	0.672
666.28	0.670
666.46	0.670
666.65	0.671
666.84	0.668
667.03	0.662
667.22	0.660
667.41	0.664
667.60	0.653
667.79	0.646
667.98	0.648
668.16	0.649
668.35	0.649
668.54	0.645
668.73	0.646
668.92	0.647
669.11	0.646
669.30	0.640
669.49	0.637
669.67	0.639
669.86	0.641
670.05	0.638
670.24	0.636
670.43	0.633
670.62	0.632
670.81	0.627
671.00	0.628
671.18	0.628
671.37	0.628
671.56	0.626
671.75	0.625
671.94	0.622
672.13	0.621
672.32	0.616
672.50	0.616
672.69	0.617
672.88	0.617
673.07	0.613
673.26	0.614
673.45	0.616
673.63	0.616
673.82	0.611
674.01	0.612
674.20	0.611
674.39	0.611
674.58	0.610
674.76	0.609
674.95	0.608
675.14	0.608
675.33	0.604
675.52	0.602
675.71	0.602
675.89	0.602
676.08	0.598
676.27	0.598
676.46	0.599
676.65	0.598
676.84	0.599
677.02	0.600
677.21	0.602
677.40	0.601
677.59	0.599
677.78	0.600
677.96	0.602
678.15	0.601
678.34	0.599
678.53	0.600
678.72	0.600
678.90	0.596
679.09	0.592
679.28	0.588
679.47	0.589
679.66	0.588
679.84	0.585
680.03	0.582
680.22	0.581
680.41	0.583
680.60	0.579
680.78	0.578
680.97	0.580
681.16	0.580
681.35	0.579
681.53	0.578
681.72	0.579
681.91	0.581
682.10	0.579
682.29	0.582
682.47	0.580
682.66	0.580
682.85	0.578
683.04	0.577
683.22	0.577
683.41	0.578
683.60	0.577
683.79	0.578
683.97	0.577
684.16	0.575
684.35	0.571
684.54	0.573
684.72	0.573
684.91	0.574
685.10	0.573
685.29	0.574
685.47	0.571
685.66	0.570
685.85	0.567
686.04	0.566
686.22	0.569
686.41	0.572
686.60	0.569
686.79	0.571
686.97	0.572
687.16	0.573
687.35	0.570
687.54	0.574
687.72	0.577
687.91	0.578
688.10	0.580
688.29	0.579
688.47	0.577
688.66	0.577
688.85	0.573
689.03	0.571
689.22	0.576
689.41	0.576
689.60	0.572
689.78	0.569
689.97	0.569
690.16	0.566
690.34	0.562
690.53	0.562
690.72	0.563
690.91	0.561
691.09	0.559
691.28	0.553
691.47	0.551
691.65	0.550
691.84	0.547
692.03	0.546
692.21	0.544
692.40	0.544
692.59	0.542
692.77	0.540
692.96	0.542
693.15	0.541
693.34	0.539
693.52	0.539
693.71	0.540
693.90	0.541
694.08	0.541
694.27	0.543
694.46	0.552
694.64	0.552
694.83	0.552
695.02	0.551
695.20	0.551
695.39	0.551
695.58	0.551
695.76	0.551
695.95	0.550
696.14	0.550
696.32	0.547
696.51	0.538
696.70	0.539
696.88	0.540
697.07	0.539
697.26	0.540
697.44	0.541
697.63	0.540
697.81	0.538
698.00	0.538
698.19	0.538
698.37	0.537
698.56	0.536
698.75	0.536
698.93	0.535
699.12	0.535
699.31	0.534
699.49	0.534
699.68	0.535
699.87	0.537
700.05	0.537
700.24	0.536
700.42	0.539
700.61	0.538
700.80	0.536
700.98	0.536
701.17	0.537
701.36	0.537
701.54	0.536
701.73	0.537
701.91	0.534
702.10	0.534
702.29	0.532
702.47	0.530
702.66	0.532
702.84	0.534
703.03	0.532
703.22	0.533
703.40	0.533
703.59	0.534
703.77	0.534
703.96	0.533
704.15	0.534
704.33	0.534
704.52	0.533
704.70	0.532
704.89	0.531
705.08	0.530
705.26	0.526
705.45	0.526
705.63	0.525
705.82	0.522
706.00	0.521
706.19	0.521
706.38	0.521
706.56	0.520
706.75	0.518
706.93	0.518
707.12	0.519
707.30	0.519
707.49	0.517
707.68	0.516
707.86	0.515
708.05	0.515
708.23	0.512
708.42	0.513
708.60	0.515
708.79	0.515
708.98	0.513
709.16	0.512
709.35	0.515
709.53	0.518
709.72	0.517
709.90	0.519
710.09	0.521
710.27	0.523
710.46	0.526
710.64	0.526
710.83	0.527
711.02	0.529
711.20	0.528
711.39	0.526
711.57	0.524
711.76	0.523
711.94	0.522
712.13	0.523
712.31	0.522
712.50	0.518
712.68	0.515
712.87	0.517
713.05	0.517
713.24	0.517
713.42	0.517
713.61	0.518
713.79	0.519
713.98	0.519
714.16	0.519
714.35	0.519
714.54	0.520
714.72	0.520
714.91	0.518
715.09	0.524
715.28	0.527
715.46	0.527
715.65	0.525
715.83	0.525
716.02	0.528
716.20	0.524
716.39	0.523
716.57	0.525
716.76	0.526
716.94	0.527
717.12	0.518
717.31	0.519
717.49	0.521
717.68	0.523
717.86	0.522
718.05	0.523
718.23	0.525
718.42	0.528
718.60	0.529
718.79	0.536
718.97	0.539
719.16	0.540
719.34	0.538
719.53	0.538
719.71	0.539
719.90	0.540
720.08	0.537
720.27	0.538
720.45	0.537
720.63	0.536
720.82	0.530
721.00	0.532
721.19	0.535
721.37	0.535
721.56	0.535
721.74	0.537
721.93	0.545
722.11	0.553
722.30	0.553
722.48	0.557
722.66	0.558
722.85	0.557
723.03	0.557
723.22	0.557
723.40	0.560
723.59	0.560
723.77	0.564
723.95	0.557
724.14	0.557
724.32	0.559
724.51	0.559
724.69	0.561
724.88	0.561
725.06	0.559
725.24	0.560
725.43	0.561
725.61	0.562
725.80	0.556
725.98	0.554
726.16	0.551
726.35	0.557
726.53	0.556
726.72	0.555
726.90	0.565
727.09	0.566
727.27	0.571
727.45	0.568
727.64	0.577
727.82	0.586
728.01	0.590
728.19	0.588
728.37	0.592
728.56	0.596
728.74	0.601
728.92	0.589
729.11	0.591
729.29	0.590
729.48	0.592
729.66	0.582
729.84	0.582
730.03	0.585
730.21	0.586
730.40	0.577
730.58	0.579
730.76	0.579
730.95	0.582
731.13	0.582
731.31	0.596
731.50	0.605
731.68	0.607
731.86	0.602
732.05	0.616
732.23	0.619
732.42	0.621
732.60	0.624
732.78	0.628
732.97	0.647
733.15	0.653
733.33	0.641
733.52	0.647
733.70	0.659
733.88	0.669
734.07	0.656
734.25	0.681
734.43	0.691
734.62	0.695
734.80	0.691
734.98	0.680
735.17	0.686
735.35	0.692
735.53	0.679
735.72	0.682
735.90	0.701
736.08	0.720
736.27	0.698
736.45	0.706
736.63	0.715
736.82	0.725
737.00	0.726
737.18	0.738
737.37	0.769
737.55	0.796
737.73	0.791
737.92	0.794
738.10	0.789
738.28	0.809
738.46	0.798
738.65	0.810
738.83	0.829
739.01	0.879
739.20	0.866
739.38	0.848
739.56	0.838
739.75	0.841
739.93	0.807
740.11	0.830
740.29	0.828
740.48	0.833
740.66	0.815
740.84	0.809
741.03	0.776
741.21	0.788
741.39	0.771
741.57	0.781
741.76	0.796
741.94	0.804
742.12	0.773
742.31	0.778
742.49	0.794
742.67	0.816
742.85	0.826
743.04	0.831
743.22	0.839
743.40	0.890
743.58	0.874
743.77	0.892
743.95	0.922
744.13	0.968
744.31	0.951
744.50	0.947
744.68	0.941
744.86	0.915
745.04	0.925
745.23	0.983
745.41	0.961
745.59	0.963
745.77	0.929
745.96	0.921
746.14	0.927
746.32	0.926
746.50	0.918
746.69	0.908
746.87	0.919
747.05	0.906
747.23	0.839
747.42	0.828
747.60	0.855
747.78	0.862
747.96	0.889
748.14	0.850
748.33	0.874
748.51	0.868
748.69	0.861
748.87	0.885
749.06	0.882
749.24	0.876
749.42	0.864
749.60	0.843
749.78	0.850
749.97	0.808
750.15	0.800
750.33	0.800
750.51	0.825
750.69	0.828
750.88	0.834
751.06	0.842
751.24	0.866
751.42	0.857
751.60	0.853
751.79	0.918
751.97	0.961
752.15	0.961
752.33	0.934
752.51	0.993
752.69	1.011
752.88	0.981
753.06	1.028
753.24	1.008
753.42	1.041
753.60	1.195
753.78	1.059
753.97	1.077
754.15	1.095
754.33	1.123
754.51	1.009
754.69	0.991
754.87	1.015
755.06	0.946
755.24	0.948
755.42	0.959
755.60	0.865
755.78	0.874
755.96	0.824
756.15	0.824
756.33	0.831
756.51	0.847
756.69	0.837
756.87	0.807
757.05	0.827
757.23	0.809
757.42	0.776
757.60	0.776
757.78	0.767
757.96	0.763
758.14	0.749
758.32	0.735
758.50	0.745
758.69	0.742
758.87	0.735
759.05	0.737
759.23	0.746
759.41	0.748
759.59	0.744
759.77	0.762
759.95	0.790
760.13	0.836
760.32	0.835
760.50	0.830
760.68	0.852
760.86	0.855
761.04	0.830
761.22	0.836
761.40	0.882
761.58	0.879
761.76	0.853
761.95	0.833
762.13	0.791
762.31	0.790
762.49	0.761
762.67	0.780
762.85	0.792
763.03	0.785
763.21	0.770
763.39	0.749
763.57	0.752
763.75	0.747
763.94	0.733
764.12	0.732
764.30	0.757
764.48	0.762
764.66	0.726
764.84	0.722
765.02	0.758
765.20	0.763
765.38	0.745
765.56	0.750
765.74	0.786
765.92	0.787
766.10	0.794
766.28	0.785
766.46	0.811
766.65	0.813
766.83	0.801
767.01	0.785
767.19	0.790
767.37	0.789
767.55	0.778
767.73	0.760
767.91	0.762
768.09	0.751
768.27	0.739
768.45	0.730
768.63	0.733
768.81	0.736
768.99	0.713
769.17	0.737
769.35	0.753
769.53	0.751
769.71	0.733
769.89	0.742
770.07	0.748
770.25	0.736
770.43	0.715
770.61	0.738
770.79	0.743
770.97	0.752
771.15	0.722
771.33	0.724
771.51	0.726
771.69	0.735
771.87	0.745
772.05	0.750
772.24	0.755
772.42	0.766
772.60	0.746
772.78	0.803
772.96	0.830
773.14	0.827
773.32	0.806
773.49	0.813
773.67	0.814
773.85	0.792
774.03	0.782
774.21	0.813
774.39	0.823
774.57	0.846
774.75	0.776
774.93	0.770
775.11	0.792
775.29	0.800
775.47	0.801
775.65	0.810
775.83	0.826
776.01	0.846
776.19	0.800
776.37	0.801
776.55	0.801
776.73	0.798
776.91	0.792
777.09	0.774
777.27	0.768
777.45	0.757
777.63	0.736
777.81	0.732
777.99	0.720
778.17	0.720
778.35	0.701
778.53	0.689
778.71	0.697
778.89	0.686
779.07	0.677
779.24	0.683
779.42	0.685
779.60	0.702
779.78	0.696
779.96	0.700
780.14	0.706
780.32	0.724
780.50	0.709
780.68	0.704
780.86	0.697
781.04	0.712
781.22	0.718
781.40	0.729
781.58	0.719
781.75	0.714
781.93	0.697
782.11	0.697
782.29	0.683
782.47	0.682
782.65	0.673
782.83	0.699
783.01	0.693
783.19	0.685
783.37	0.670
783.55	0.674
783.72	0.690
783.90	0.702
784.08	0.694
784.26	0.707
784.44	0.727
784.62	0.728
784.80	0.697
784.98	0.704
785.16	0.708
785.33	0.721
785.51	0.709
785.69	0.697
785.87	0.697
786.05	0.708
786.23	0.702
786.41	0.699
786.59	0.706
786.77	0.707
786.94	0.696
787.12	0.700
787.30	0.703
787.48	0.701
787.66	0.689
787.84	0.691
788.02	0.683
788.19	0.680
788.37	0.669
788.55	0.670
788.73	0.671
788.91	0.663
789.09	0.648
789.27	0.638
789.44	0.648
789.62	0.654
789.80	0.662
789.98	0.686
790.16	0.675
790.34	0.671
790.51	0.658
790.69	0.676
790.87	0.684
791.05	0.680
791.23	0.674
791.41	0.675
791.58	0.683
791.76	0.662
791.94	0.631
792.12	0.637
792.30	0.638
792.48	0.636
792.65	0.629
792.83	0.636
793.01	0.644
793.19	0.642
793.37	0.628
793.54	0.623
793.72	0.634
793.90	0.634
794.08	0.626
794.26	0.628
794.43	0.637
794.61	0.622
794.79	0.611
794.97	0.609
795.15	0.615
795.32	0.618
795.50	0.608
795.68	0.602
795.86	0.604
796.04	0.606
796.21	0.598
796.39	0.596
796.57	0.609
796.75	0.615
796.92	0.615
797.10	0.619
797.28	0.620
797.46	0.625
797.64	0.627
797.81	0.636
797.99	0.639
798.17	0.647
798.35	0.641
798.52	0.645
798.70	0.640
798.88	0.648
799.06	0.648
799.23	0.651
799.41	0.658
799.59	0.654
799.77	0.643
799.94	0.650
800.12	0.657
800.30	0.674
800.48	0.672
800.65	0.672
800.83	0.664
801.01	0.658
801.19	0.659
801.36	0.655
801.54	0.655
801.72	0.665
801.90	0.652
802.07	0.648
802.25	0.635
802.43	0.620
802.60	0.616
802.78	0.622
802.96	0.625
803.14	0.618
803.31	0.614
803.49	0.617
803.67	0.612
803.84	0.617
804.02	0.608
804.20	0.613
804.38	0.620
804.55	0.620
804.73	0.607
804.91	0.609
805.08	0.621
805.26	0.619
805.44	0.682
805.61	0.685
805.79	0.684
805.97	0.684
806.15	0.675
806.32	0.669
806.50	0.674
806.68	0.674
806.85	0.665
807.03	0.655
807.21	0.674
807.38	0.608
807.56	0.599
807.74	0.608
807.91	0.615
808.09	0.618
808.27	0.635
808.44	0.660
808.62	0.667
808.80	0.668
808.97	0.662
809.15	0.657
809.33	0.673
809.50	0.679
809.68	0.666
809.86	0.672
810.03	0.701
810.21	0.681
810.39	0.665
810.56	0.668
810.74	0.694
810.91	0.762
811.09	0.749
811.27	0.766
811.44	0.773
811.62	0.773
811.80	0.759
811.97	0.730
812.15	0.731
812.33	0.727
812.50	0.714
812.68	0.702
812.85	0.648
813.03	0.652
813.21	0.622
813.38	0.616
813.56	0.620
813.74	0.629
813.91	0.637
814.09	0.664
814.26	0.659
814.44	0.663
814.62	0.654
814.79	0.657
814.97	0.661
815.14	0.665
815.32	0.668
815.50	0.683
815.67	0.685
815.85	0.677
816.02	0.667
816.20	0.672
816.38	0.686
816.55	0.690
816.73	0.691
816.90	0.701
817.08	0.729
817.26	0.736
817.43	0.716
817.61	0.740
817.78	0.757
817.96	0.737
818.13	0.726
818.31	0.727
818.49	0.739
818.66	0.729
818.84	0.717
819.01	0.697
819.19	0.704
819.36	0.707
819.54	0.678
819.71	0.719
819.89	0.731
820.07	0.744
820.24	0.738
820.42	0.735
820.59	0.754
820.77	0.773
820.94	0.765
821.12	0.785
821.29	0.797
821.47	0.799
821.64	0.740
821.82	0.755
822.00	0.751
822.17	0.748
822.35	0.740
822.52	0.741
822.70	0.731
822.87	0.740
823.05	0.717
823.22	0.728
823.40	0.752
823.57	0.773
823.75	0.753
823.92	0.778
824.10	0.795
824.27	0.839
824.45	0.832
824.62	0.890
824.80	0.901
824.97	0.910
825.15	0.904
825.32	0.915
825.50	0.913
825.67	0.923
825.85	0.901
826.02	0.916
826.20	0.936
826.37	1.049
826.55	0.979
826.72	1.156
826.90	1.222
827.07	1.276
827.25	1.209
827.42	1.358
827.60	1.495
827.77	1.671
827.95	1.631
828.12	1.752
828.30	1.381
828.47	1.466
828.65	1.159
828.82	1.201
829.00	1.229
829.17	1.305
829.34	1.293
829.52	1.318
829.69	-0.000
829.87	-0.000
830.04	-0.000
830.22	-0.000
830.39	-0.000
830.57	-0.000
830.74	-0.000
830.92	-0.000
831.09	-0.000
831.26	-0.000
831.44	-0.000
831.61	-0.000
831.79	-0.000
831.96	-0.000
832.14	-0.000
832.31	-0.000
832.49	-0.000
832.66	-0.000
832.83	-0.000
833.01	-0.000
833.18	-0.000
833.36	-0.000
833.53	-0.000
833.70	-0.000
833.88	-0.000
834.05	-0.000
834.23	-0.000
834.40	-0.000
834.58	-0.000
834.75	-0.000
834.92	-0.000
835.10	-0.000
835.27	-0.000
835.45	-0.000
835.62	-0.000
835.79	-0.000
835.97	-0.000
836.14	-0.000
836.32	-0.000
836.49	-0.000
836.66	-0.000
836.84	-0.000
837.01	-0.000
837.18	-0.000
837.36	-0.000
837.53	-0.000
837.71	-0.000
837.88	-0.000
838.05	-0.000
838.23	-0.000
838.40	-0.000
838.58	-0.000
838.75	-0.000
838.92	-0.000
839.10	-0.000
839.27	-0.000
839.44	-0.000
839.62	-0.000
839.79	-0.000
839.96	-0.000
840.14	-0.000
840.31	-0.000
840.48	-0.000
840.66	-0.000
840.83	-0.000
841.01	-0.000
841.18	-0.000
841.35	-0.000
841.53	-0.000
841.70	-0.000
841.87	-0.000
842.05	-0.000
842.22	-0.000
842.39	-0.000
842.57	-0.000
842.74	-0.000
842.91	-0.000
843.09	-0.000
843.26	-0.000
843.43	-0.000
843.60	-0.000
843.78	-0.000
843.95	-0.000
844.12	-0.000
844.30	-0.000
844.47	-0.000
844.64	-0.000
844.82	-0.000
844.99	-0.000
845.16	-0.000
845.34	-0.000
845.51	-0.000
845.68	-0.000
845.85	-0.000
846.03	-0.000
846.20	-0.000
846.37	-0.000
846.55	-0.000
846.72	-0.000
846.89	-0.000
847.06	-0.000
847.24	-0.000
847.41	-0.000
847.58	-0.000
847.76	-0.000
847.93	-0.000
848.10	-0.000
848.27	-0.000
848.45	-0.000
848.62	-0.000
848.79	-0.000
848.97	-0.000
849.14	-0.000
849.31	-0.000
849.48	-0.000
849.66	-0.000
849.83	-0.000
850.00	-0.000
850.17	-0.000
850.35	-0.000
850.52	-0.000
850.69	-0.000
850.86	-0.000
851.04	-0.000
851.21	-0.000
851.38	-0.000
851.55	-0.000
851.72	-0.000
851.90	-0.000
852.07	-0.000
852.24	-0.000
852.41	-0.000
852.59	-0.000
852.76	-0.000
852.93	-0.000
853.10	-0.000
853.28	-0.000
853.45	-0.000
853.62	-0.000
853.79	-0.000
853.96	-0.000
854.14	-0.000
854.31	-0.000
854.48	-0.000
854.65	-0.000
854.82	-0.000
855.00	-0.000
855.17	-0.000
855.34	-0.000
855.51	-0.000
855.68	-0.000
855.86	-0.000
856.03	-0.000
856.20	-0.000
856.37	-0.000
856.54	-0.000
856.72	-0.000
856.89	-0.000
857.06	-0.000
857.23	-0.000
857.40	-0.000
857.57	-0.000
857.75	-0.000
857.92	-0.000
858.09	-0.000
858.26	-0.000
858.43	-0.000
858.60	-0.000
858.78	-0.000
858.95	-0.000
859.12	-0.000
859.29	-0.000
859.46	-0.000
859.63	-0.000
859.81	-0.000
859.98	-0.000
860.15	-0.000
860.32	-0.000
860.49	-0.000
860.66	-0.000
860.83	-0.000
861.01	-0.000
861.18	-0.000
861.35	-0.000
861.52	-0.000
861.69	-0.000
861.86	-0.000
862.03	-0.000
862.21	-0.000
862.38	-0.000
862.55	-0.000
862.72	-0.000
862.89	-0.000
863.06	-0.000
863.23	-0.000
863.40	-0.000
863.58	-0.000
863.75	-0.000
863.92	-0.000
864.09	-0.000
864.26	-0.000
864.43	-0.000
864.60	-0.000
864.77	-0.000
864.94	-0.000
865.11	-0.000
865.29	-0.000
865.46	-0.000
865.63	-0.000
865.80	-0.000
865.97	-0.000
866.14	-0.000
866.31	-0.000
866.48	-0.000
866.65	-0.000
866.82	-0.000
866.99	-0.000
867.16	-0.000
867.34	-0.000
867.51	-0.000
867.68	-0.000
867.85	-0.000
868.02	-0.000
868.19	-0.000
868.36	-0.000
868.53	-0.000
868.70	-0.000
868.87	-0.000
869.04	-0.000
869.21	-0.000
869.38	-0.000
869.55	-0.000
869.72	-0.000
869.89	-0.000
870.06	-0.000
870.24	-0.000
870.41	-0.000
870.58	-0.000
870.75	-0.000
870.92	-0.000
871.09	-0.000
871.26	-0.000
871.43	-0.000
871.60	-0.000
871.77	-0.000
871.94	-0.000
872.11	-0.000
872.28	-0.000
872.45	-0.000
872.62	-0.000
872.79	-0.000
872.96	-0.000
873.13	-0.000
873.30	-0.000
873.47	-0.000
873.64	-0.000
873.81	-0.000
873.98	-0.000
874.15	-0.000
874.32	-0.000
874.49	-0.000
874.66	-0.000
874.83	-0.000
875.00	-0.000
875.17	-0.000
875.34	-0.000
875.51	-0.000
875.68	-0.000
875.85	-0.000
876.02	-0.000
876.19	-0.000
876.36	-0.000
876.53	-0.000
876.70	-0.000
876.87	-0.000
877.04	-0.000
877.21	-0.000
877.38	-0.000
877.55	-0.000
877.72	-0.000
877.89	-0.000
878.06	-0.000
878.23	-0.000
878.39	-0.000
878.56	-0.000
878.73	-0.000
878.90	-0.000
879.07	-0.000
879.24	-0.000
879.41	-0.000
879.58	-0.000
879.75	-0.000
879.92	-0.000
880.09	-0.000
880.26	-0.000
880.43	-0.000
880.60	-0.000
880.77	-0.000
880.94	-0.000
881.11	-0.000
881.27	-0.000
881.44	-0.000
881.61	-0.000
881.78	-0.000
881.95	-0.000
882.12	-0.000
882.29	-0.000
882.46	-0.000
882.63	-0.000
882.80	-0.000
882.97	-0.000
883.14	-0.000
883.30	-0.000
883.47	-0.000
883.64	-0.000
883.81	-0.000
883.98	-0.000
884.15	-0.000
884.32	-0.000
884.49	-0.000
884.66	-0.000
884.82	-0.000
884.99	-0.000
885.16	-0.000
885.33	-0.000
885.50	-0.000
885.67	-0.000
885.84	-0.000
886.01	-0.000
886.17	-0.000
886.34	-0.000
886.51	-0.000
886.68	-0.000
886.85	-0.000
887.02	-0.000
887.19	-0.000
887.36	-0.000
887.52	-0.000
887.69	-0.000
887.86	-0.000
888.03	-0.000
888.20	-0.000
888.37	-0.000
888.54	-0.000
888.70	-0.000
888.87	-0.000
889.04	-0.000
889.21	-0.000
889.38	-0.000
889.55	-0.000
889.71	-0.000
889.88	-0.000
890.05	-0.000
890.22	-0.000
890.39	-0.000
>>>>>End Processed Spectral Data<<<<<
