SpectraSuite Data File
++++++++++++++++++++++++++++++++++++
Date: Fri Jun 19 13:57:54 CEST 2015
User: introlabs
Dark Spectrum Present: Yes
Reference Spectrum Present: Yes
Number of Sampled Component Spectra: 1
Spectrometers: USB4H08886
Integration Time (usec): 745692 (USB4H08886)
Spectra Averaged: 5 (USB4H08886)
Boxcar Smoothing: 5 (USB4H08886)
Correct for Electrical Dark: Yes (USB4H08886)
Strobe/Lamp Enabled: No (USB4H08886)
Correct for Detector Non-linearity: Yes (USB4H08886)
Correct for Stray Light: Yes (USB4H08886)
Number of Pixels in Processed Spectrum: 3648
>>>>>Begin Processed Spectral Data<<<<<
178.14	-0.000
178.36	-0.000
178.57	-0.000
178.79	-0.000
179.01	-0.000
179.22	-0.000
179.44	-0.000
179.65	-0.000
179.87	-0.000
180.08	-0.000
180.30	-0.000
180.52	-0.000
180.73	-0.000
180.95	-0.000
181.16	-0.000
181.38	-0.000
181.59	-0.000
181.81	-0.000
182.03	-0.000
182.24	-0.000
182.46	-0.000
182.67	-0.000
182.89	-0.000
183.10	-0.000
183.32	-0.000
183.54	-0.000
183.75	-0.000
183.97	-0.000
184.18	-0.000
184.40	-0.000
184.61	-0.000
184.83	-0.000
185.04	-0.000
185.26	-0.000
185.48	-0.000
185.69	-0.000
185.91	-0.000
186.12	-0.000
186.34	-0.000
186.55	-0.000
186.77	-0.000
186.98	-0.000
187.20	-0.000
187.42	-0.000
187.63	-0.000
187.85	-0.000
188.06	-0.000
188.28	-0.000
188.49	-0.000
188.71	-0.000
188.92	-0.000
189.14	-0.000
189.36	-0.000
189.57	-0.000
189.79	-0.000
190.00	-0.000
190.22	-0.000
190.43	-0.000
190.65	-0.000
190.86	-0.000
191.08	-0.000
191.29	-0.000
191.51	-0.000
191.72	-0.000
191.94	-0.000
192.16	-0.000
192.37	-0.000
192.59	-0.000
192.80	-0.000
193.02	-0.000
193.23	-0.000
193.45	-0.000
193.66	-0.000
193.88	-0.000
194.09	-0.000
194.31	-0.000
194.52	-0.000
194.74	-0.000
194.95	-0.000
195.17	-0.000
195.38	-0.000
195.60	-0.000
195.81	-0.000
196.03	-0.000
196.25	-0.000
196.46	-0.000
196.68	-0.000
196.89	-0.000
197.11	-0.000
197.32	-0.000
197.54	-0.000
197.75	-0.000
197.97	-0.000
198.18	-0.000
198.40	-0.000
198.61	-0.000
198.83	-0.000
199.04	-0.000
199.26	-0.000
199.47	-0.000
199.69	-0.000
199.90	-0.000
200.12	-0.000
200.33	-0.000
200.55	-0.000
200.76	-0.000
200.98	-0.000
201.19	-0.000
201.41	-0.000
201.62	-0.000
201.84	-0.000
202.05	-0.000
202.27	-0.000
202.48	-0.000
202.70	-0.000
202.91	-0.000
203.13	-0.000
203.34	-0.000
203.56	-0.000
203.77	-0.000
203.99	-0.000
204.20	-0.000
204.42	-0.000
204.63	-0.000
204.85	-0.000
205.06	-0.000
205.28	-0.000
205.49	-0.000
205.71	-0.000
205.92	-0.000
206.14	-0.000
206.35	-0.000
206.56	-0.000
206.78	-0.000
206.99	-0.000
207.21	-0.000
207.42	-0.000
207.64	-0.000
207.85	-0.000
208.07	-0.000
208.28	-0.000
208.50	-0.000
208.71	-0.000
208.93	-0.000
209.14	-0.000
209.36	-0.000
209.57	-0.000
209.79	-0.000
210.00	-0.000
210.22	-0.000
210.43	-0.000
210.64	-0.000
210.86	-0.000
211.07	-0.000
211.29	-0.000
211.50	-0.000
211.72	-0.000
211.93	-0.000
212.15	-0.000
212.36	-0.000
212.58	-0.000
212.79	-0.000
213.01	-0.000
213.22	-0.000
213.43	-0.000
213.65	-0.000
213.86	-0.000
214.08	-0.000
214.29	-0.000
214.51	-0.000
214.72	-0.000
214.94	-0.000
215.15	-0.000
215.36	-0.000
215.58	-0.000
215.79	-0.000
216.01	-0.000
216.22	-0.000
216.44	-0.000
216.65	-0.000
216.87	-0.000
217.08	-0.000
217.29	-0.000
217.51	-0.000
217.72	-0.000
217.94	-0.000
218.15	-0.000
218.37	-0.000
218.58	-0.000
218.80	-0.000
219.01	-0.000
219.22	-0.000
219.44	-0.000
219.65	-0.000
219.87	-0.000
220.08	-0.000
220.30	-0.000
220.51	-0.000
220.72	-0.000
220.94	-0.000
221.15	-0.000
221.37	-0.000
221.58	-0.000
221.79	-0.000
222.01	-0.000
222.22	-0.000
222.44	-0.000
222.65	-0.000
222.87	-0.000
223.08	-0.000
223.29	-0.000
223.51	-0.000
223.72	-0.000
223.94	-0.000
224.15	-0.000
224.36	-0.000
224.58	-0.000
224.79	-0.000
225.01	-0.000
225.22	-0.000
225.44	-0.000
225.65	-0.000
225.86	-0.000
226.08	-0.000
226.29	-0.000
226.51	-0.000
226.72	-0.000
226.93	-0.000
227.15	-0.000
227.36	-0.000
227.58	-0.000
227.79	-0.000
228.00	-0.000
228.22	-0.000
228.43	-0.000
228.65	-0.000
228.86	-0.000
229.07	-0.000
229.29	-0.000
229.50	-0.000
229.72	-0.000
229.93	-0.000
230.14	-0.000
230.36	-0.000
230.57	-0.000
230.78	-0.000
231.00	-0.000
231.21	-0.000
231.43	-0.000
231.64	-0.000
231.85	-0.000
232.07	-0.000
232.28	-0.000
232.50	-0.000
232.71	-0.000
232.92	-0.000
233.14	-0.000
233.35	-0.000
233.56	-0.000
233.78	-0.000
233.99	-0.000
234.21	-0.000
234.42	-0.000
234.63	-0.000
234.85	-0.000
235.06	-0.000
235.27	-0.000
235.49	-0.000
235.70	-0.000
235.91	-0.000
236.13	-0.000
236.34	-0.000
236.56	-0.000
236.77	-0.000
236.98	-0.000
237.20	-0.000
237.41	-0.000
237.62	-0.000
237.84	-0.000
238.05	-0.000
238.26	-0.000
238.48	-0.000
238.69	-0.000
238.91	-0.000
239.12	-0.000
239.33	-0.000
239.55	-0.000
239.76	-0.000
239.97	-0.000
240.19	-0.000
240.40	-0.000
240.61	-0.000
240.83	-0.000
241.04	-0.000
241.25	-0.000
241.47	-0.000
241.68	-0.000
241.89	-0.000
242.11	-0.000
242.32	-0.000
242.53	-0.000
242.75	-0.000
242.96	-0.000
243.17	-0.000
243.39	-0.000
243.60	-0.000
243.81	-0.000
244.03	-0.000
244.24	-0.000
244.45	-0.000
244.67	-0.000
244.88	-0.000
245.09	-0.000
245.31	-0.000
245.52	-0.000
245.73	-0.000
245.95	-0.000
246.16	-0.000
246.37	-0.000
246.59	-0.000
246.80	-0.000
247.01	-0.000
247.23	-0.000
247.44	-0.000
247.65	-0.000
247.87	-0.000
248.08	-0.000
248.29	-0.000
248.51	-0.000
248.72	-0.000
248.93	-0.000
249.15	-0.000
249.36	-0.000
249.57	-0.000
249.78	-0.000
250.00	-0.000
250.21	-0.000
250.42	-0.000
250.64	-0.000
250.85	-0.000
251.06	-0.000
251.28	-0.000
251.49	-0.000
251.70	-0.000
251.92	-0.000
252.13	-0.000
252.34	-0.000
252.55	-0.000
252.77	-0.000
252.98	-0.000
253.19	-0.000
253.41	-0.000
253.62	-0.000
253.83	-0.000
254.05	-0.000
254.26	-0.000
254.47	-0.000
254.68	-0.000
254.90	-0.000
255.11	-0.000
255.32	-0.000
255.54	-0.000
255.75	-0.000
255.96	-0.000
256.17	-0.000
256.39	-0.000
256.60	-0.000
256.81	-0.000
257.03	-0.000
257.24	-0.000
257.45	-0.000
257.66	-0.000
257.88	-0.000
258.09	-0.000
258.30	-0.000
258.51	-0.000
258.73	-0.000
258.94	-0.000
259.15	-0.000
259.37	-0.000
259.58	-0.000
259.79	-0.000
260.00	-0.000
260.22	-0.000
260.43	-0.000
260.64	-0.000
260.85	-0.000
261.07	-0.000
261.28	-0.000
261.49	-0.000
261.71	-0.000
261.92	-0.000
262.13	-0.000
262.34	-0.000
262.56	-0.000
262.77	-0.000
262.98	-0.000
263.19	-0.000
263.41	-0.000
263.62	-0.000
263.83	-0.000
264.04	-0.000
264.26	-0.000
264.47	-0.000
264.68	-0.000
264.89	-0.000
265.11	-0.000
265.32	-0.000
265.53	-0.000
265.74	-0.000
265.96	-0.000
266.17	-0.000
266.38	-0.000
266.59	-0.000
266.81	-0.000
267.02	-0.000
267.23	-0.000
267.44	-0.000
267.65	-0.000
267.87	-0.000
268.08	-0.000
268.29	-0.000
268.50	-0.000
268.72	-0.000
268.93	-0.000
269.14	-0.000
269.35	-0.000
269.57	-0.000
269.78	-0.000
269.99	-0.000
270.20	-0.000
270.41	-0.000
270.63	-0.000
270.84	-0.000
271.05	-0.000
271.26	-0.000
271.48	-0.000
271.69	-0.000
271.90	-0.000
272.11	-0.000
272.32	-0.000
272.54	-0.000
272.75	-0.000
272.96	-0.000
273.17	-0.000
273.39	-0.000
273.60	-0.000
273.81	-0.000
274.02	-0.000
274.23	-0.000
274.45	-0.000
274.66	-0.000
274.87	-0.000
275.08	-0.000
275.29	-0.000
275.51	-0.000
275.72	-0.000
275.93	-0.000
276.14	-0.000
276.35	-0.000
276.57	-0.000
276.78	-0.000
276.99	-0.000
277.20	-0.000
277.41	-0.000
277.63	-0.000
277.84	-0.000
278.05	-0.000
278.26	-0.000
278.47	-0.000
278.69	-0.000
278.90	-0.000
279.11	-0.000
279.32	-0.000
279.53	-0.000
279.74	-0.000
279.96	-0.000
280.17	-0.000
280.38	-0.000
280.59	-0.000
280.80	-0.000
281.02	-0.000
281.23	-0.000
281.44	-0.000
281.65	-0.000
281.86	-0.000
282.07	-0.000
282.29	-0.000
282.50	-0.000
282.71	-0.000
282.92	-0.000
283.13	-0.000
283.35	-0.000
283.56	-0.000
283.77	-0.000
283.98	-0.000
284.19	-0.000
284.40	-0.000
284.62	-0.000
284.83	-0.000
285.04	-0.000
285.25	-0.000
285.46	-0.000
285.67	-0.000
285.88	-0.000
286.10	-0.000
286.31	-0.000
286.52	-0.000
286.73	-0.000
286.94	-0.000
287.15	-0.000
287.37	-0.000
287.58	-0.000
287.79	-0.000
288.00	-0.000
288.21	-0.000
288.42	-0.000
288.63	-0.000
288.85	-0.000
289.06	-0.000
289.27	-0.000
289.48	-0.000
289.69	-0.000
289.90	-0.000
290.11	-0.000
290.33	-0.000
290.54	-0.000
290.75	-0.000
290.96	-0.000
291.17	-0.000
291.38	-0.000
291.59	-0.000
291.81	-0.000
292.02	-0.000
292.23	-0.000
292.44	-0.000
292.65	-0.000
292.86	-0.000
293.07	-0.000
293.28	-0.000
293.50	-0.000
293.71	-0.000
293.92	-0.000
294.13	-0.000
294.34	-0.000
294.55	-0.000
294.76	-0.000
294.97	-0.000
295.19	-0.000
295.40	-0.000
295.61	-0.000
295.82	-0.000
296.03	-0.000
296.24	-0.000
296.45	-0.000
296.66	2.372
296.87	2.421
297.09	2.939
297.30	-0.000
297.51	2.110
297.72	2.013
297.93	2.252
298.14	2.101
298.35	1.998
298.56	1.958
298.77	2.234
298.99	2.166
299.20	2.087
299.41	2.026
299.62	1.925
299.83	1.899
300.04	1.784
300.25	1.766
300.46	1.851
300.67	1.798
300.88	1.713
301.10	1.712
301.31	1.811
301.52	1.726
301.73	1.638
301.94	1.648
302.15	1.674
302.36	1.612
302.57	1.528
302.78	1.541
302.99	1.599
303.20	1.620
303.41	1.497
303.63	1.480
303.84	1.486
304.05	1.480
304.26	1.404
304.47	1.408
304.68	1.415
304.89	1.402
305.10	1.347
305.31	1.327
305.52	1.374
305.73	1.363
305.94	1.317
306.15	1.305
306.37	1.331
306.58	1.339
306.79	1.304
307.00	1.329
307.21	1.377
307.42	1.369
307.63	1.330
307.84	1.292
308.05	1.339
308.26	1.337
308.47	1.310
308.68	1.301
308.89	1.305
309.10	1.302
309.31	1.253
309.52	1.240
309.73	1.254
309.95	1.247
310.16	1.217
310.37	1.201
310.58	1.221
310.79	1.219
311.00	1.216
311.21	1.212
311.42	1.214
311.63	1.208
311.84	1.189
312.05	1.187
312.26	1.211
312.47	1.222
312.68	1.197
312.89	1.178
313.10	1.188
313.31	1.158
313.52	1.160
313.73	1.157
313.94	1.161
314.15	1.142
314.36	1.120
314.57	1.114
314.78	1.100
314.99	1.093
315.21	1.080
315.42	1.084
315.63	1.098
315.84	1.075
316.05	1.061
316.26	1.069
316.47	1.087
316.68	1.083
316.89	1.061
317.10	1.083
317.31	1.090
317.52	1.090
317.73	1.068
317.94	1.067
318.15	1.113
318.36	1.113
318.57	1.094
318.78	1.083
318.99	1.120
319.20	1.119
319.41	1.084
319.62	1.087
319.83	1.103
320.04	1.098
320.25	1.084
320.46	1.050
320.67	1.054
320.88	1.049
321.09	1.033
321.30	1.017
321.51	1.032
321.72	1.029
321.93	1.012
322.14	1.002
322.35	1.030
322.56	1.032
322.77	1.018
322.98	1.026
323.19	1.037
323.40	1.044
323.61	1.022
323.82	1.016
324.03	1.022
324.24	1.018
324.45	1.007
324.66	0.986
324.87	0.983
325.08	0.983
325.29	0.964
325.50	0.960
325.71	0.964
325.92	0.973
326.13	0.960
326.34	0.960
326.55	0.968
326.76	0.966
326.97	0.954
327.18	0.947
327.39	0.974
327.60	0.974
327.80	0.968
328.01	0.968
328.22	0.967
328.43	0.970
328.64	0.959
328.85	0.963
329.06	0.965
329.27	0.966
329.48	0.962
329.69	0.942
329.90	0.953
330.11	0.947
330.32	0.939
330.53	0.933
330.74	0.932
330.95	0.930
331.16	0.916
331.37	0.924
331.58	0.924
331.79	0.923
332.00	0.912
332.21	0.905
332.42	0.909
332.63	0.900
332.83	0.896
333.04	0.900
333.25	0.913
333.46	0.911
333.67	0.896
333.88	0.898
334.09	0.908
334.30	0.906
334.51	0.898
334.72	0.893
334.93	0.897
335.14	0.897
335.35	0.887
335.56	0.883
335.77	0.892
335.98	0.892
336.18	0.885
336.39	0.877
336.60	0.882
336.81	0.879
337.02	0.877
337.23	0.882
337.44	0.884
337.65	0.886
337.86	0.875
338.07	0.869
338.28	0.873
338.49	0.871
338.70	0.865
338.91	0.872
339.11	0.881
339.32	0.877
339.53	0.865
339.74	0.862
339.95	0.859
340.16	0.857
340.37	0.849
340.58	0.848
340.79	0.853
341.00	0.852
341.21	0.841
341.41	0.841
341.62	0.842
341.83	0.843
342.04	0.838
342.25	0.849
342.46	0.854
342.67	0.853
342.88	0.846
343.09	0.845
343.30	0.852
343.50	0.855
343.71	0.844
343.92	0.845
344.13	0.849
344.34	0.848
344.55	0.831
344.76	0.829
344.97	0.834
345.18	0.833
345.38	0.830
345.59	0.825
345.80	0.823
346.01	0.821
346.22	0.815
346.43	0.810
346.64	0.819
346.85	0.818
347.06	0.810
347.26	0.811
347.47	0.815
347.68	0.810
347.89	0.805
348.10	0.802
348.31	0.809
348.52	0.809
348.73	0.806
348.93	0.802
349.14	0.804
349.35	0.804
349.56	0.798
349.77	0.792
349.98	0.799
350.19	0.797
350.39	0.791
350.60	0.786
350.81	0.802
351.02	0.801
351.23	0.796
351.44	0.799
351.65	0.804
351.86	0.801
352.06	0.799
352.27	0.799
352.48	0.801
352.69	0.801
352.90	0.795
353.11	0.782
353.31	0.789
353.52	0.786
353.73	0.777
353.94	0.778
354.15	0.784
354.36	0.784
354.57	0.776
354.77	0.778
354.98	0.776
355.19	0.776
355.40	0.775
355.61	0.781
355.82	0.785
356.02	0.785
356.23	0.778
356.44	0.781
356.65	0.784
356.86	0.785
357.07	0.778
357.27	0.783
357.48	0.786
357.69	0.782
357.90	0.766
358.11	0.764
358.32	0.767
358.52	0.770
358.73	0.759
358.94	0.761
359.15	0.766
359.36	0.766
359.56	0.760
359.77	0.758
359.98	0.765
360.19	0.765
360.40	0.760
360.61	0.761
360.81	0.760
361.02	0.760
361.23	0.752
361.44	0.750
361.65	0.751
361.85	0.750
362.06	0.748
362.27	0.749
362.48	0.750
362.69	0.753
362.89	0.747
363.10	0.748
363.31	0.753
363.52	0.756
363.73	0.751
363.93	0.751
364.14	0.754
364.35	0.755
364.56	0.745
364.77	0.746
364.97	0.749
365.18	0.749
365.39	0.743
365.60	0.740
365.81	0.741
366.01	0.741
366.22	0.738
366.43	0.737
366.64	0.740
366.84	0.745
367.05	0.742
367.26	0.741
367.47	0.743
367.68	0.743
367.88	0.740
368.09	0.738
368.30	0.742
368.51	0.741
368.71	0.740
368.92	0.744
369.13	0.743
369.34	0.742
369.55	0.741
369.75	0.741
369.96	0.749
370.17	0.749
370.38	0.745
370.58	0.744
370.79	0.749
371.00	0.748
371.21	0.739
371.41	0.744
371.62	0.748
371.83	0.744
372.04	0.741
372.24	0.733
372.45	0.734
372.66	0.734
372.87	0.731
373.07	0.728
373.28	0.729
373.49	0.733
373.70	0.723
373.90	0.722
374.11	0.732
374.32	0.731
374.53	0.731
374.73	0.732
374.94	0.734
375.15	0.734
375.36	0.731
375.56	0.740
375.77	0.740
375.98	0.741
376.19	0.738
376.39	0.732
376.60	0.735
376.81	0.735
377.02	0.732
377.22	0.732
377.43	0.731
377.64	0.732
377.84	0.722
378.05	0.727
378.26	0.733
378.47	0.731
378.67	0.728
378.88	0.726
379.09	0.727
379.30	0.728
379.50	0.724
379.71	0.727
379.92	0.730
380.12	0.730
380.33	0.721
380.54	0.717
380.75	0.725
380.95	0.725
381.16	0.723
381.37	0.722
381.57	0.724
381.78	0.724
381.99	0.724
382.20	0.723
382.40	0.726
382.61	0.727
382.82	0.724
383.02	0.717
383.23	0.720
383.44	0.720
383.64	0.718
383.85	0.721
384.06	0.725
384.27	0.723
384.47	0.720
384.68	0.721
384.89	0.726
385.09	0.725
385.30	0.725
385.51	0.723
385.71	0.727
385.92	0.726
386.13	0.724
386.33	0.726
386.54	0.726
386.75	0.725
386.95	0.721
387.16	0.716
387.37	0.718
387.58	0.717
387.78	0.715
387.99	0.712
388.20	0.715
388.40	0.712
388.61	0.708
388.82	0.711
389.02	0.714
389.23	0.714
389.44	0.713
389.64	0.714
389.85	0.725
390.06	0.725
390.26	0.725
390.47	0.724
390.68	0.726
390.88	0.725
391.09	0.721
391.30	0.720
391.50	0.720
391.71	0.720
391.92	0.717
392.12	0.708
392.33	0.709
392.53	0.709
392.74	0.709
392.95	0.708
393.15	0.711
393.36	0.713
393.57	0.710
393.77	0.713
393.98	0.715
394.19	0.715
394.39	0.714
394.60	0.716
394.81	0.718
395.01	0.715
395.22	0.714
395.43	0.715
395.63	0.720
395.84	0.721
396.04	0.717
396.25	0.718
396.46	0.721
396.66	0.719
396.87	0.715
397.08	0.712
397.28	0.714
397.49	0.716
397.69	0.711
397.90	0.706
398.11	0.707
398.31	0.707
398.52	0.704
398.73	0.705
398.93	0.704
399.14	0.704
399.34	0.703
399.55	0.705
399.76	0.706
399.96	0.707
400.17	0.705
400.37	0.704
400.58	0.711
400.79	0.713
400.99	0.711
401.20	0.717
401.41	0.720
401.61	0.720
401.82	0.723
402.02	0.723
402.23	0.724
402.44	0.724
402.64	0.724
402.85	0.719
403.05	0.717
403.26	0.716
403.47	0.709
403.67	0.708
403.88	0.709
404.08	0.703
404.29	0.701
404.50	0.701
404.70	0.701
404.91	0.699
405.11	0.696
405.32	0.696
405.52	0.696
405.73	0.696
405.94	0.695
406.14	0.698
406.35	0.700
406.55	0.699
406.76	0.697
406.97	0.699
407.17	0.701
407.38	0.702
407.58	0.700
407.79	0.703
407.99	0.705
408.20	0.706
408.41	0.701
408.61	0.699
408.82	0.700
409.02	0.700
409.23	0.697
409.43	0.696
409.64	0.697
409.84	0.697
410.05	0.693
410.26	0.691
410.46	0.691
410.67	0.691
410.87	0.692
411.08	0.694
411.28	0.696
411.49	0.697
411.69	0.694
411.90	0.696
412.11	0.698
412.31	0.699
412.52	0.697
412.72	0.698
412.93	0.699
413.13	0.698
413.34	0.694
413.54	0.696
413.75	0.698
413.95	0.697
414.16	0.693
414.37	0.696
414.57	0.696
414.78	0.698
414.98	0.696
415.19	0.697
415.39	0.695
415.60	0.697
415.80	0.696
416.01	0.694
416.21	0.696
416.42	0.696
416.62	0.692
416.83	0.692
417.03	0.692
417.24	0.693
417.44	0.690
417.65	0.689
417.86	0.689
418.06	0.688
418.27	0.686
418.47	0.688
418.68	0.689
418.88	0.689
419.09	0.687
419.29	0.688
419.50	0.689
419.70	0.689
419.91	0.687
420.11	0.685
420.32	0.688
420.52	0.687
420.73	0.685
420.93	0.686
421.14	0.687
421.34	0.686
421.55	0.682
421.75	0.682
421.96	0.684
422.16	0.684
422.37	0.683
422.57	0.680
422.78	0.682
422.98	0.679
423.19	0.676
423.39	0.674
423.60	0.678
423.80	0.679
424.01	0.677
424.21	0.679
424.42	0.680
424.62	0.680
424.83	0.680
425.03	0.680
425.23	0.682
425.44	0.683
425.64	0.683
425.85	0.682
426.05	0.684
426.26	0.684
426.46	0.680
426.67	0.679
426.87	0.684
427.08	0.685
427.28	0.682
427.49	0.684
427.69	0.684
427.90	0.683
428.10	0.681
428.31	0.681
428.51	0.682
428.71	0.681
428.92	0.683
429.12	0.680
429.33	0.680
429.53	0.684
429.74	0.688
429.94	0.689
430.15	0.688
430.35	0.688
430.56	0.685
430.76	0.684
430.96	0.684
431.17	0.682
431.37	0.679
431.58	0.677
431.78	0.674
431.99	0.667
432.19	0.669
432.40	0.671
432.60	0.672
432.80	0.675
433.01	0.673
433.21	0.673
433.42	0.675
433.62	0.676
433.83	0.675
434.03	0.678
434.23	0.680
434.44	0.679
434.64	0.676
434.85	0.680
435.05	0.682
435.26	0.682
435.46	0.680
435.66	0.680
435.87	0.680
436.07	0.680
436.28	0.676
436.48	0.674
436.69	0.674
436.89	0.674
437.09	0.668
437.30	0.667
437.50	0.668
437.71	0.680
437.91	0.679
438.11	0.680
438.32	0.684
438.52	0.684
438.73	0.683
438.93	0.681
439.13	0.681
439.34	0.684
439.54	0.682
439.75	0.682
439.95	0.672
440.15	0.676
440.36	0.674
440.56	0.672
440.77	0.673
440.97	0.673
441.17	0.671
441.38	0.673
441.58	0.669
441.79	0.669
441.99	0.667
442.19	0.666
442.40	0.664
442.60	0.664
442.81	0.661
443.01	0.662
443.21	0.663
443.42	0.663
443.62	0.662
443.82	0.662
444.03	0.664
444.23	0.664
444.44	0.664
444.64	0.663
444.84	0.665
445.05	0.665
445.25	0.663
445.45	0.664
445.66	0.667
445.86	0.665
446.06	0.666
446.27	0.665
446.47	0.668
446.68	0.667
446.88	0.665
447.08	0.665
447.29	0.666
447.49	0.666
447.69	0.665
447.90	0.664
448.10	0.667
448.30	0.665
448.51	0.667
448.71	0.664
448.91	0.667
449.12	0.665
449.32	0.667
449.52	0.666
449.73	0.669
449.93	0.669
450.14	0.669
450.34	0.669
450.54	0.671
450.75	0.669
450.95	0.668
451.15	0.667
451.36	0.670
451.56	0.667
451.76	0.666
451.97	0.663
452.17	0.663
452.37	0.662
452.58	0.658
452.78	0.657
452.98	0.660
453.19	0.659
453.39	0.659
453.59	0.658
453.79	0.660
454.00	0.660
454.20	0.659
454.40	0.659
454.61	0.662
454.81	0.663
455.01	0.662
455.22	0.662
455.42	0.664
455.62	0.662
455.83	0.662
456.03	0.664
456.23	0.666
456.44	0.666
456.64	0.666
456.84	0.665
457.04	0.666
457.25	0.665
457.45	0.662
457.65	0.661
457.86	0.662
458.06	0.661
458.26	0.657
458.47	0.655
458.67	0.656
458.87	0.657
459.07	0.654
459.28	0.656
459.48	0.658
459.68	0.658
459.89	0.657
460.09	0.655
460.29	0.657
460.49	0.658
460.70	0.657
460.90	0.657
461.10	0.657
461.31	0.657
461.51	0.654
461.71	0.656
461.91	0.658
462.12	0.658
462.32	0.657
462.52	0.657
462.72	0.661
462.93	0.662
463.13	0.661
463.33	0.661
463.53	0.663
463.74	0.662
463.94	0.657
464.14	0.658
464.35	0.659
464.55	0.659
464.75	0.657
464.95	0.654
465.16	0.656
465.36	0.654
465.56	0.653
465.76	0.652
465.97	0.653
466.17	0.654
466.37	0.652
466.57	0.653
466.78	0.654
466.98	0.654
467.18	0.652
467.38	0.651
467.59	0.653
467.79	0.655
467.99	0.654
468.19	0.655
468.39	0.659
468.60	0.658
468.80	0.656
469.00	0.657
469.20	0.658
469.41	0.659
469.61	0.658
469.81	0.658
470.01	0.657
470.22	0.657
470.42	0.655
470.62	0.653
470.82	0.655
471.02	0.655
471.23	0.653
471.43	0.652
471.63	0.655
471.83	0.654
472.04	0.652
472.24	0.651
472.44	0.656
472.64	0.657
472.84	0.655
473.05	0.655
473.25	0.658
473.45	0.657
473.65	0.656
473.85	0.656
474.06	0.658
474.26	0.657
474.46	0.658
474.66	0.655
474.86	0.656
475.07	0.655
475.27	0.652
475.47	0.649
475.67	0.650
475.87	0.652
476.08	0.648
476.28	0.650
476.48	0.652
476.68	0.650
476.88	0.648
477.09	0.649
477.29	0.651
477.49	0.652
477.69	0.651
477.89	0.652
478.09	0.651
478.30	0.653
478.50	0.649
478.70	0.649
478.90	0.650
479.10	0.653
479.31	0.653
479.51	0.651
479.71	0.652
479.91	0.652
480.11	0.651
480.31	0.651
480.52	0.650
480.72	0.650
480.92	0.649
481.12	0.647
481.32	0.645
481.52	0.644
481.72	0.643
481.93	0.647
482.13	0.647
482.33	0.646
482.53	0.644
482.73	0.645
482.93	0.646
483.14	0.646
483.34	0.645
483.54	0.646
483.74	0.645
483.94	0.645
484.14	0.640
484.34	0.640
484.55	0.641
484.75	0.641
484.95	0.639
485.15	0.639
485.35	0.639
485.55	0.638
485.75	0.636
485.96	0.636
486.16	0.637
486.36	0.637
486.56	0.635
486.76	0.635
486.96	0.636
487.16	0.635
487.36	0.633
487.57	0.633
487.77	0.634
487.97	0.635
488.17	0.633
488.37	0.632
488.57	0.633
488.77	0.633
488.97	0.631
489.18	0.630
489.38	0.633
489.58	0.633
489.78	0.632
489.98	0.632
490.18	0.632
490.38	0.633
490.58	0.632
490.78	0.632
490.98	0.635
491.19	0.635
491.39	0.634
491.59	0.633
491.79	0.637
491.99	0.637
492.19	0.637
492.39	0.640
492.59	0.640
492.79	0.642
492.99	0.642
493.20	0.641
493.40	0.641
493.60	0.643
493.80	0.641
494.00	0.639
494.20	0.639
494.40	0.639
494.60	0.636
494.80	0.640
495.00	0.639
495.20	0.637
495.40	0.636
495.61	0.638
495.81	0.638
496.01	0.642
496.21	0.642
496.41	0.642
496.61	0.643
496.81	0.641
497.01	0.637
497.21	0.636
497.41	0.637
497.61	0.637
497.81	0.634
498.01	0.634
498.21	0.632
498.41	0.630
498.61	0.631
498.82	0.632
499.02	0.634
499.22	0.635
499.42	0.634
499.62	0.635
499.82	0.636
500.02	0.637
500.22	0.635
500.42	0.637
500.62	0.638
500.82	0.638
501.02	0.636
501.22	0.636
501.42	0.637
501.62	0.639
501.82	0.639
502.02	0.639
502.22	0.639
502.42	0.641
502.62	0.638
502.82	0.639
503.02	0.640
503.22	0.639
503.42	0.636
503.63	0.636
503.83	0.634
504.03	0.633
504.23	0.632
504.43	0.632
504.63	0.633
504.83	0.633
505.03	0.631
505.23	0.633
505.43	0.635
505.63	0.636
505.83	0.635
506.03	0.637
506.23	0.639
506.43	0.639
506.63	0.639
506.83	0.638
507.03	0.639
507.23	0.640
507.43	0.637
507.63	0.638
507.83	0.638
508.03	0.638
508.23	0.637
508.43	0.636
508.63	0.638
508.83	0.638
509.03	0.638
509.23	0.638
509.43	0.639
509.63	0.639
509.83	0.638
510.03	0.641
510.23	0.642
510.43	0.643
510.63	0.643
510.83	0.644
511.03	0.645
511.23	0.643
511.43	0.642
511.63	0.644
511.83	0.647
512.03	0.646
512.22	0.642
512.42	0.642
512.62	0.644
512.82	0.643
513.02	0.642
513.22	0.642
513.42	0.644
513.62	0.647
513.82	0.645
514.02	0.643
514.22	0.645
514.42	0.646
514.62	0.645
514.82	0.645
515.02	0.647
515.22	0.650
515.42	0.649
515.62	0.651
515.82	0.650
516.02	0.651
516.22	0.652
516.42	0.653
516.62	0.655
516.82	0.657
517.01	0.655
517.21	0.654
517.41	0.658
517.61	0.658
517.81	0.654
518.01	0.653
518.21	0.653
518.41	0.651
518.61	0.650
518.81	0.651
519.01	0.651
519.21	0.651
519.41	0.650
519.61	0.645
519.81	0.648
520.00	0.648
520.20	0.648
520.40	0.651
520.60	0.653
520.80	0.651
521.00	0.652
521.20	0.653
521.40	0.657
521.60	0.658
521.80	0.656
522.00	0.656
522.20	0.659
522.39	0.658
522.59	0.654
522.79	0.656
522.99	0.658
523.19	0.656
523.39	0.654
523.59	0.652
523.79	0.655
523.99	0.658
524.19	0.657
524.38	0.656
524.58	0.658
524.78	0.658
524.98	0.656
525.18	0.659
525.38	0.661
525.58	0.661
525.78	0.658
525.98	0.657
526.18	0.657
526.37	0.656
526.57	0.658
526.77	0.658
526.97	0.659
527.17	0.659
527.37	0.655
527.57	0.658
527.77	0.660
527.96	0.660
528.16	0.658
528.36	0.659
528.56	0.661
528.76	0.659
528.96	0.658
529.16	0.659
529.36	0.662
529.55	0.661
529.75	0.657
529.95	0.658
530.15	0.659
530.35	0.662
530.55	0.660
530.75	0.660
530.94	0.662
531.14	0.662
531.34	0.661
531.54	0.659
531.74	0.662
531.94	0.665
532.13	0.663
532.33	0.665
532.53	0.664
532.73	0.664
532.93	0.661
533.13	0.662
533.33	0.663
533.52	0.663
533.72	0.666
533.92	0.665
534.12	0.663
534.32	0.663
534.52	0.661
534.71	0.663
534.91	0.665
535.11	0.667
535.31	0.666
535.51	0.667
535.71	0.669
535.90	0.666
536.10	0.667
536.30	0.669
536.50	0.671
536.70	0.671
536.89	0.668
537.09	0.667
537.29	0.668
537.49	0.669
537.69	0.666
537.89	0.667
538.08	0.666
538.28	0.664
538.48	0.665
538.68	0.667
538.88	0.669
539.07	0.670
539.27	0.668
539.47	0.667
539.67	0.668
539.87	0.670
540.06	0.667
540.26	0.669
540.46	0.671
540.66	0.668
540.86	0.665
541.05	0.665
541.25	0.666
541.45	0.667
541.65	0.665
541.84	0.667
542.04	0.667
542.24	0.668
542.44	0.667
542.64	0.668
542.83	0.672
543.03	0.673
543.23	0.670
543.43	0.671
543.62	0.673
543.82	0.673
544.02	0.671
544.22	0.671
544.42	0.674
544.61	0.674
544.81	0.670
545.01	0.669
545.21	0.670
545.40	0.671
545.60	0.669
545.80	0.672
546.00	0.672
546.19	0.673
546.39	0.672
546.59	0.669
546.79	0.670
546.98	0.671
547.18	0.671
547.38	0.671
547.58	0.674
547.77	0.675
547.97	0.671
548.17	0.673
548.37	0.672
548.56	0.672
548.76	0.671
548.96	0.673
549.16	0.676
549.35	0.676
549.55	0.674
549.75	0.674
549.95	0.677
550.14	0.678
550.34	0.675
550.54	0.681
550.73	0.685
550.93	0.685
551.13	0.681
551.33	0.680
551.52	0.680
551.72	0.681
551.92	0.678
552.12	0.678
552.31	0.679
552.51	0.680
552.71	0.675
552.90	0.675
553.10	0.676
553.30	0.676
553.50	0.676
553.69	0.678
553.89	0.679
554.09	0.678
554.28	0.676
554.48	0.677
554.68	0.679
554.87	0.678
555.07	0.675
555.27	0.675
555.47	0.678
555.66	0.678
555.86	0.676
556.06	0.679
556.25	0.680
556.45	0.688
556.65	0.686
556.84	0.689
557.04	0.692
557.24	0.694
557.43	0.693
557.63	0.696
557.83	0.697
558.02	0.698
558.22	0.701
558.42	0.702
558.61	0.695
558.81	0.696
559.01	0.692
559.21	0.692
559.40	0.693
559.60	0.693
559.80	0.690
559.99	0.691
560.19	0.692
560.39	0.686
560.58	0.684
560.78	0.683
560.97	0.687
561.17	0.686
561.37	0.684
561.56	0.684
561.76	0.685
561.96	0.685
562.15	0.682
562.35	0.684
562.55	0.687
562.74	0.686
562.94	0.685
563.14	0.682
563.33	0.683
563.53	0.683
563.73	0.681
563.92	0.683
564.12	0.686
564.31	0.688
564.51	0.686
564.71	0.687
564.90	0.691
565.10	0.692
565.30	0.695
565.49	0.696
565.69	0.699
565.89	0.699
566.08	0.696
566.28	0.697
566.47	0.699
566.67	0.696
566.87	0.693
567.06	0.695
567.26	0.701
567.46	0.697
567.65	0.696
567.85	0.697
568.04	0.700
568.24	0.700
568.44	0.697
568.63	0.696
568.83	0.698
569.02	0.697
569.22	0.692
569.42	0.688
569.61	0.690
569.81	0.689
570.00	0.687
570.20	0.688
570.40	0.689
570.59	0.689
570.79	0.686
570.98	0.684
571.18	0.686
571.38	0.685
571.57	0.682
571.77	0.679
571.96	0.683
572.16	0.680
572.35	0.674
572.55	0.675
572.75	0.673
572.94	0.673
573.14	0.672
573.33	0.672
573.53	0.673
573.73	0.673
573.92	0.671
574.12	0.669
574.31	0.672
574.51	0.673
574.70	0.670
574.90	0.672
575.09	0.674
575.29	0.674
575.49	0.671
575.68	0.672
575.88	0.673
576.07	0.675
576.27	0.673
576.46	0.671
576.66	0.670
576.86	0.669
577.05	0.667
577.25	0.665
577.44	0.667
577.64	0.667
577.83	0.665
578.03	0.665
578.22	0.665
578.42	0.664
578.61	0.662
578.81	0.664
579.00	0.664
579.20	0.664
579.40	0.662
579.59	0.661
579.79	0.661
579.98	0.661
580.18	0.660
580.37	0.661
580.57	0.663
580.76	0.667
580.96	0.665
581.15	0.666
581.35	0.668
581.54	0.668
581.74	0.667
581.93	0.669
582.13	0.670
582.32	0.667
582.52	0.665
582.71	0.664
582.91	0.660
583.10	0.660
583.30	0.659
583.49	0.658
583.69	0.662
583.88	0.664
584.08	0.663
584.27	0.665
584.47	0.669
584.66	0.670
584.86	0.668
585.05	0.670
585.25	0.673
585.44	0.673
585.64	0.671
585.83	0.668
586.03	0.668
586.22	0.667
586.42	0.663
586.61	0.665
586.81	0.667
587.00	0.666
587.20	0.664
587.39	0.664
587.59	0.666
587.78	0.667
587.98	0.668
588.17	0.669
588.37	0.671
588.56	0.673
588.76	0.669
588.95	0.670
589.15	0.674
589.34	0.677
589.54	0.676
589.73	0.676
589.92	0.679
590.12	0.679
590.31	0.676
590.51	0.682
590.70	0.683
590.90	0.683
591.09	0.681
591.29	0.679
591.48	0.679
591.68	0.680
591.87	0.679
592.06	0.678
592.26	0.681
592.45	0.680
592.65	0.674
592.84	0.674
593.04	0.676
593.23	0.678
593.43	0.676
593.62	0.675
593.81	0.675
594.01	0.675
594.20	0.672
594.40	0.671
594.59	0.673
594.79	0.674
594.98	0.673
595.17	0.671
595.37	0.673
595.56	0.675
595.76	0.674
595.95	0.676
596.14	0.680
596.34	0.681
596.53	0.680
596.73	0.681
596.92	0.683
597.12	0.685
597.31	0.685
597.50	0.684
597.70	0.687
597.89	0.686
598.09	0.682
598.28	0.683
598.47	0.685
598.67	0.684
598.86	0.680
599.06	0.682
599.25	0.682
599.44	0.680
599.64	0.677
599.83	0.675
600.03	0.678
600.22	0.678
600.41	0.677
600.61	0.675
600.80	0.677
601.00	0.677
601.19	0.673
601.38	0.672
601.58	0.674
601.77	0.676
601.96	0.678
602.16	0.678
602.35	0.688
602.55	0.686
602.74	0.687
602.93	0.689
603.13	0.695
603.32	0.696
603.51	0.695
603.71	0.698
603.90	0.700
604.09	0.701
604.29	0.698
604.48	0.692
604.68	0.693
604.87	0.692
605.06	0.687
605.26	0.684
605.45	0.685
605.64	0.684
605.84	0.679
606.03	0.678
606.22	0.677
606.42	0.676
606.61	0.672
606.80	0.672
607.00	0.673
607.19	0.674
607.38	0.672
607.58	0.673
607.77	0.677
607.96	0.677
608.16	0.675
608.35	0.680
608.54	0.683
608.74	0.686
608.93	0.692
609.12	0.694
609.32	0.697
609.51	0.700
609.70	0.699
609.90	0.700
610.09	0.705
610.28	0.711
610.48	0.704
610.67	0.705
610.86	0.707
611.06	0.701
611.25	0.699
611.44	0.700
611.64	0.701
611.83	0.703
612.02	0.699
612.21	0.698
612.41	0.697
612.60	0.695
612.79	0.691
612.99	0.692
613.18	0.694
613.37	0.692
613.57	0.689
613.76	0.690
613.95	0.688
614.14	0.687
614.34	0.684
614.53	0.685
614.72	0.688
614.92	0.689
615.11	0.686
615.30	0.683
615.49	0.684
615.69	0.687
615.88	0.683
616.07	0.685
616.26	0.687
616.46	0.688
616.65	0.685
616.84	0.684
617.04	0.685
617.23	0.689
617.42	0.690
617.61	0.694
617.81	0.694
618.00	0.696
618.19	0.695
618.38	0.700
618.58	0.704
618.77	0.706
618.96	0.705
619.15	0.707
619.35	0.709
619.54	0.710
619.73	0.705
619.92	0.706
620.12	0.711
620.31	0.711
620.50	0.705
620.69	0.705
620.89	0.708
621.08	0.708
621.27	0.709
621.46	0.707
621.66	0.710
621.85	0.711
622.04	0.707
622.23	0.707
622.43	0.708
622.62	0.708
622.81	0.707
623.00	0.706
623.19	0.710
623.39	0.708
623.58	0.705
623.77	0.704
623.96	0.708
624.16	0.708
624.35	0.702
624.54	0.705
624.73	0.710
624.92	0.708
625.12	0.705
625.31	0.706
625.50	0.710
625.69	0.711
625.88	0.707
626.08	0.706
626.27	0.707
626.46	0.708
626.65	0.705
626.84	0.705
627.04	0.710
627.23	0.710
627.42	0.705
627.61	0.707
627.80	0.710
628.00	0.710
628.19	0.709
628.38	0.712
628.57	0.715
628.76	0.714
628.96	0.711
629.15	0.712
629.34	0.714
629.53	0.714
629.72	0.707
629.91	0.708
630.11	0.712
630.30	0.712
630.49	0.715
630.68	0.716
630.87	0.719
631.06	0.722
631.26	0.717
631.45	0.720
631.64	0.729
631.83	0.732
632.02	0.729
632.21	0.729
632.41	0.736
632.60	0.730
632.79	0.729
632.98	0.730
633.17	0.731
633.36	0.733
633.55	0.727
633.75	0.722
633.94	0.724
634.13	0.724
634.32	0.721
634.51	0.716
634.70	0.718
634.89	0.717
635.09	0.713
635.28	0.713
635.47	0.715
635.66	0.719
635.85	0.715
636.04	0.717
636.23	0.722
636.43	0.724
636.62	0.722
636.81	0.721
637.00	0.724
637.19	0.727
637.38	0.724
637.57	0.724
637.76	0.726
637.95	0.728
638.15	0.723
638.34	0.719
638.53	0.723
638.72	0.724
638.91	0.721
639.10	0.720
639.29	0.720
639.48	0.722
639.67	0.721
639.87	0.719
640.06	0.724
640.25	0.724
640.44	0.725
640.63	0.725
640.82	0.727
641.01	0.728
641.20	0.726
641.39	0.727
641.58	0.729
641.78	0.728
641.97	0.725
642.16	0.739
642.35	0.740
642.54	0.739
642.73	0.734
642.92	0.732
643.11	0.735
643.30	0.734
643.49	0.729
643.68	0.732
643.87	0.734
644.06	0.734
644.25	0.714
644.45	0.717
644.64	0.717
644.83	0.718
645.02	0.715
645.21	0.714
645.40	0.716
645.59	0.716
645.78	0.709
645.97	0.711
646.16	0.713
646.35	0.712
646.54	0.709
646.73	0.710
646.92	0.713
647.11	0.713
647.30	0.709
647.49	0.711
647.68	0.712
647.88	0.710
648.07	0.703
648.26	0.705
648.45	0.707
648.64	0.703
648.83	0.700
649.02	0.703
649.21	0.713
649.40	0.711
649.59	0.706
649.78	0.707
649.97	0.722
650.16	0.721
650.35	0.716
650.54	0.718
650.73	0.727
650.92	0.724
651.11	0.716
651.30	0.714
651.49	0.719
651.68	0.720
651.87	0.716
652.06	0.705
652.25	0.709
652.44	0.712
652.63	0.708
652.82	0.708
653.01	0.708
653.20	0.706
653.39	0.694
653.58	0.690
653.77	0.690
653.96	0.685
654.15	0.676
654.34	0.674
654.53	0.669
654.72	0.663
654.91	0.654
655.10	0.650
655.29	0.648
655.48	0.646
655.67	0.640
655.86	0.638
656.05	0.637
656.24	0.637
656.43	0.631
656.62	0.630
656.81	0.631
657.00	0.628
657.19	0.626
657.38	0.625
657.57	0.625
657.76	0.627
657.95	0.625
658.14	0.629
658.33	0.631
658.51	0.637
658.70	0.637
658.89	0.639
659.08	0.648
659.27	0.656
659.46	0.656
659.65	0.663
659.84	0.667
660.03	0.670
660.22	0.671
660.41	0.676
660.60	0.676
660.79	0.677
660.98	0.682
661.17	0.681
661.36	0.681
661.55	0.682
661.74	0.679
661.92	0.682
662.11	0.684
662.30	0.683
662.49	0.676
662.68	0.675
662.87	0.678
663.06	0.673
663.25	0.673
663.44	0.673
663.63	0.674
663.82	0.673
664.01	0.668
664.20	0.667
664.38	0.668
664.57	0.669
664.76	0.668
664.95	0.669
665.14	0.675
665.33	0.670
665.52	0.678
665.71	0.682
665.90	0.681
666.09	0.682
666.28	0.680
666.46	0.679
666.65	0.680
666.84	0.678
667.03	0.671
667.22	0.669
667.41	0.673
667.60	0.662
667.79	0.655
667.98	0.657
668.16	0.658
668.35	0.658
668.54	0.654
668.73	0.655
668.92	0.655
669.11	0.654
669.30	0.648
669.49	0.644
669.67	0.646
669.86	0.648
670.05	0.646
670.24	0.643
670.43	0.641
670.62	0.641
670.81	0.636
671.00	0.637
671.18	0.637
671.37	0.637
671.56	0.635
671.75	0.634
671.94	0.631
672.13	0.628
672.32	0.623
672.50	0.622
672.69	0.622
672.88	0.622
673.07	0.617
673.26	0.619
673.45	0.621
673.63	0.621
673.82	0.617
674.01	0.618
674.20	0.617
674.39	0.617
674.58	0.617
674.76	0.617
674.95	0.615
675.14	0.616
675.33	0.611
675.52	0.609
675.71	0.610
675.89	0.609
676.08	0.604
676.27	0.604
676.46	0.606
676.65	0.605
676.84	0.605
677.02	0.606
677.21	0.609
677.40	0.607
677.59	0.605
677.78	0.605
677.96	0.608
678.15	0.608
678.34	0.605
678.53	0.605
678.72	0.605
678.90	0.601
679.09	0.598
679.28	0.594
679.47	0.593
679.66	0.593
679.84	0.590
680.03	0.587
680.22	0.586
680.41	0.588
680.60	0.584
680.78	0.583
680.97	0.586
681.16	0.586
681.35	0.585
681.53	0.584
681.72	0.586
681.91	0.588
682.10	0.586
682.29	0.590
682.47	0.587
682.66	0.586
682.85	0.585
683.04	0.583
683.22	0.583
683.41	0.585
683.60	0.584
683.79	0.585
683.97	0.584
684.16	0.583
684.35	0.578
684.54	0.580
684.72	0.580
684.91	0.582
685.10	0.579
685.29	0.581
685.47	0.578
685.66	0.576
685.85	0.573
686.04	0.572
686.22	0.574
686.41	0.576
686.60	0.573
686.79	0.576
686.97	0.577
687.16	0.578
687.35	0.576
687.54	0.580
687.72	0.584
687.91	0.584
688.10	0.586
688.29	0.585
688.47	0.583
688.66	0.583
688.85	0.579
689.03	0.577
689.22	0.582
689.41	0.582
689.60	0.577
689.78	0.574
689.97	0.575
690.16	0.572
690.34	0.568
690.53	0.567
690.72	0.567
690.91	0.565
691.09	0.563
691.28	0.557
691.47	0.555
691.65	0.554
691.84	0.551
692.03	0.549
692.21	0.548
692.40	0.548
692.59	0.546
692.77	0.545
692.96	0.546
693.15	0.547
693.34	0.545
693.52	0.545
693.71	0.546
693.90	0.547
694.08	0.548
694.27	0.549
694.46	0.559
694.64	0.560
694.83	0.559
695.02	0.558
695.20	0.558
695.39	0.557
695.58	0.557
695.76	0.558
695.95	0.558
696.14	0.557
696.32	0.555
696.51	0.545
696.70	0.546
696.88	0.547
697.07	0.546
697.26	0.547
697.44	0.549
697.63	0.547
697.81	0.544
698.00	0.543
698.19	0.543
698.37	0.543
698.56	0.542
698.75	0.542
698.93	0.542
699.12	0.541
699.31	0.540
699.49	0.539
699.68	0.540
699.87	0.543
700.05	0.543
700.24	0.542
700.42	0.543
700.61	0.542
700.80	0.540
700.98	0.540
701.17	0.542
701.36	0.541
701.54	0.540
701.73	0.542
701.91	0.539
702.10	0.538
702.29	0.537
702.47	0.537
702.66	0.538
702.84	0.539
703.03	0.537
703.22	0.538
703.40	0.538
703.59	0.540
703.77	0.539
703.96	0.539
704.15	0.540
704.33	0.540
704.52	0.539
704.70	0.538
704.89	0.538
705.08	0.537
705.26	0.533
705.45	0.533
705.63	0.532
705.82	0.530
706.00	0.528
706.19	0.528
706.38	0.528
706.56	0.527
706.75	0.525
706.93	0.525
707.12	0.526
707.30	0.527
707.49	0.524
707.68	0.521
707.86	0.521
708.05	0.521
708.23	0.517
708.42	0.518
708.60	0.521
708.79	0.521
708.98	0.519
709.16	0.518
709.35	0.520
709.53	0.525
709.72	0.524
709.90	0.526
710.09	0.527
710.27	0.530
710.46	0.533
710.64	0.532
710.83	0.534
711.02	0.535
711.20	0.534
711.39	0.532
711.57	0.530
711.76	0.530
711.94	0.529
712.13	0.530
712.31	0.529
712.50	0.525
712.68	0.523
712.87	0.524
713.05	0.524
713.24	0.525
713.42	0.524
713.61	0.525
713.79	0.526
713.98	0.526
714.16	0.527
714.35	0.527
714.54	0.528
714.72	0.527
714.91	0.524
715.09	0.531
715.28	0.534
715.46	0.533
715.65	0.531
715.83	0.530
716.02	0.533
716.20	0.530
716.39	0.528
716.57	0.529
716.76	0.532
716.94	0.532
717.12	0.524
717.31	0.526
717.49	0.530
717.68	0.532
717.86	0.532
718.05	0.534
718.23	0.536
718.42	0.539
718.60	0.541
718.79	0.548
718.97	0.551
719.16	0.551
719.34	0.548
719.53	0.547
719.71	0.547
719.90	0.549
720.08	0.546
720.27	0.547
720.45	0.546
720.63	0.545
720.82	0.540
721.00	0.542
721.19	0.546
721.37	0.546
721.56	0.546
721.74	0.549
721.93	0.557
722.11	0.565
722.30	0.563
722.48	0.568
722.66	0.569
722.85	0.568
723.03	0.568
723.22	0.566
723.40	0.570
723.59	0.570
723.77	0.573
723.95	0.567
724.14	0.569
724.32	0.572
724.51	0.571
724.69	0.572
724.88	0.573
725.06	0.571
725.24	0.572
725.43	0.574
725.61	0.577
725.80	0.571
725.98	0.568
726.16	0.564
726.35	0.570
726.53	0.570
726.72	0.569
726.90	0.580
727.09	0.581
727.27	0.587
727.45	0.582
727.64	0.592
727.82	0.600
728.01	0.606
728.19	0.603
728.37	0.608
728.56	0.611
728.74	0.617
728.92	0.604
729.11	0.607
729.29	0.605
729.48	0.609
729.66	0.597
729.84	0.598
730.03	0.600
730.21	0.604
730.40	0.594
730.58	0.596
730.76	0.596
730.95	0.599
731.13	0.598
731.31	0.612
731.50	0.621
731.68	0.626
731.86	0.622
732.05	0.638
732.23	0.641
732.42	0.645
732.60	0.649
732.78	0.653
732.97	0.673
733.15	0.682
733.33	0.669
733.52	0.677
733.70	0.689
733.88	0.700
734.07	0.684
734.25	0.711
734.43	0.721
734.62	0.725
734.80	0.721
734.98	0.711
735.17	0.719
735.35	0.725
735.53	0.712
735.72	0.714
735.90	0.737
736.08	0.757
736.27	0.732
736.45	0.742
736.63	0.757
736.82	0.766
737.00	0.769
737.18	0.777
737.37	0.813
737.55	0.837
737.73	0.833
737.92	0.835
738.10	0.831
738.28	0.856
738.46	0.843
738.65	0.856
738.83	0.881
739.01	0.941
739.20	0.932
739.38	0.914
739.56	0.907
739.75	0.914
739.93	0.879
740.11	0.908
740.29	0.904
740.48	0.909
740.66	0.883
740.84	0.879
741.03	0.842
741.21	0.854
741.39	0.835
741.57	0.850
741.76	0.870
741.94	0.875
742.12	0.833
742.31	0.845
742.49	0.871
742.67	0.897
742.85	0.911
743.04	0.912
743.22	0.924
743.40	0.983
743.58	0.961
743.77	0.974
743.95	1.019
744.13	1.085
744.31	1.060
744.50	1.053
744.68	1.053
744.86	1.020
745.04	1.036
745.23	1.123
745.41	1.102
745.59	1.110
745.77	1.073
745.96	1.046
746.14	1.059
746.32	1.055
746.50	1.045
746.69	1.027
746.87	1.045
747.05	1.025
747.23	0.935
747.42	0.919
747.60	0.951
747.78	0.955
747.96	0.997
748.14	0.944
748.33	0.981
748.51	0.974
748.69	0.965
748.87	1.001
749.06	0.998
749.24	0.996
749.42	0.979
749.60	0.955
749.78	0.966
749.97	0.911
750.15	0.907
750.33	0.903
750.51	0.935
750.69	0.938
750.88	0.940
751.06	0.954
751.24	0.987
751.42	0.973
751.60	0.959
751.79	1.043
751.97	1.106
752.15	1.103
752.33	1.066
752.51	1.144
752.69	1.177
752.88	1.137
753.06	1.194
753.24	1.151
753.42	1.207
753.60	1.487
753.78	1.255
753.97	1.277
754.15	1.297
754.33	1.341
754.51	1.156
754.69	1.132
754.87	1.169
755.06	1.071
755.24	1.075
755.42	1.085
755.60	0.960
755.78	0.968
755.96	0.903
756.15	0.904
756.33	0.905
756.51	0.927
756.69	0.910
756.87	0.869
757.05	0.895
757.23	0.875
757.42	0.837
757.60	0.839
757.78	0.830
757.96	0.828
758.14	0.808
758.32	0.796
758.50	0.808
758.69	0.805
758.87	0.796
759.05	0.802
759.23	0.812
759.41	0.813
759.59	0.802
759.77	0.825
759.95	0.857
760.13	0.914
760.32	0.914
760.50	0.908
760.68	0.938
760.86	0.943
761.04	0.910
761.22	0.917
761.40	0.975
761.58	0.976
761.76	0.941
761.95	0.917
762.13	0.867
762.31	0.862
762.49	0.829
762.67	0.845
762.85	0.861
763.03	0.855
763.21	0.834
763.39	0.812
763.57	0.813
763.75	0.809
763.94	0.794
764.12	0.794
764.30	0.823
764.48	0.828
764.66	0.790
764.84	0.785
765.02	0.828
765.20	0.834
765.38	0.813
765.56	0.820
765.74	0.862
765.92	0.863
766.10	0.872
766.28	0.861
766.46	0.892
766.65	0.893
766.83	0.878
767.01	0.858
767.19	0.870
767.37	0.869
767.55	0.854
767.73	0.832
767.91	0.836
768.09	0.821
768.27	0.810
768.45	0.797
768.63	0.803
768.81	0.803
768.99	0.775
769.17	0.799
769.35	0.817
769.53	0.813
769.71	0.794
769.89	0.802
770.07	0.812
770.25	0.794
770.43	0.771
770.61	0.800
770.79	0.807
770.97	0.818
771.15	0.785
771.33	0.785
771.51	0.792
771.69	0.802
771.87	0.808
772.05	0.814
772.24	0.822
772.42	0.831
772.60	0.805
772.78	0.871
772.96	0.905
773.14	0.901
773.32	0.877
773.49	0.883
773.67	0.882
773.85	0.861
774.03	0.846
774.21	0.880
774.39	0.898
774.57	0.921
774.75	0.839
774.93	0.832
775.11	0.857
775.29	0.865
775.47	0.866
775.65	0.876
775.83	0.900
776.01	0.925
776.19	0.872
776.37	0.869
776.55	0.871
776.73	0.871
776.91	0.862
777.09	0.842
777.27	0.840
777.45	0.828
777.63	0.807
777.81	0.802
777.99	0.788
778.17	0.789
778.35	0.766
778.53	0.754
778.71	0.760
778.89	0.747
779.07	0.733
779.24	0.739
779.42	0.743
779.60	0.760
779.78	0.754
779.96	0.760
780.14	0.769
780.32	0.790
780.50	0.771
780.68	0.771
780.86	0.762
781.04	0.783
781.22	0.786
781.40	0.795
781.58	0.787
781.75	0.778
781.93	0.759
782.11	0.756
782.29	0.743
782.47	0.741
782.65	0.726
782.83	0.756
783.01	0.748
783.19	0.738
783.37	0.723
783.55	0.724
783.72	0.746
783.90	0.756
784.08	0.750
784.26	0.762
784.44	0.784
784.62	0.788
784.80	0.754
784.98	0.763
785.16	0.772
785.33	0.789
785.51	0.774
785.69	0.756
785.87	0.756
786.05	0.768
786.23	0.763
786.41	0.761
786.59	0.770
786.77	0.768
786.94	0.752
787.12	0.754
787.30	0.755
787.48	0.750
787.66	0.740
787.84	0.742
788.02	0.730
788.19	0.727
788.37	0.710
788.55	0.708
788.73	0.709
788.91	0.701
789.09	0.684
789.27	0.672
789.44	0.685
789.62	0.690
789.80	0.697
789.98	0.724
790.16	0.710
790.34	0.709
790.51	0.698
790.69	0.718
790.87	0.728
791.05	0.724
791.23	0.719
791.41	0.718
791.58	0.727
791.76	0.705
791.94	0.672
792.12	0.681
792.30	0.681
792.48	0.677
792.65	0.670
792.83	0.677
793.01	0.686
793.19	0.683
793.37	0.667
793.54	0.665
793.72	0.678
793.90	0.676
794.08	0.665
794.26	0.668
794.43	0.678
794.61	0.661
794.79	0.646
794.97	0.645
795.15	0.651
795.32	0.655
795.50	0.643
795.68	0.637
795.86	0.643
796.04	0.643
796.21	0.638
796.39	0.635
796.57	0.651
796.75	0.662
796.92	0.662
797.10	0.669
797.28	0.672
797.46	0.676
797.64	0.676
797.81	0.684
797.99	0.689
798.17	0.692
798.35	0.687
798.52	0.689
798.70	0.684
798.88	0.695
799.06	0.691
799.23	0.693
799.41	0.702
799.59	0.694
799.77	0.681
799.94	0.690
800.12	0.700
800.30	0.716
800.48	0.715
800.65	0.715
800.83	0.705
801.01	0.697
801.19	0.697
801.36	0.694
801.54	0.699
801.72	0.711
801.90	0.696
802.07	0.692
802.25	0.677
802.43	0.659
802.60	0.655
802.78	0.662
802.96	0.669
803.14	0.661
803.31	0.658
803.49	0.658
803.67	0.654
803.84	0.659
804.02	0.649
804.20	0.655
804.38	0.661
804.55	0.660
804.73	0.645
804.91	0.644
805.08	0.658
805.26	0.654
805.44	0.721
805.61	0.728
805.79	0.727
805.97	0.727
806.15	0.718
806.32	0.711
806.50	0.718
806.68	0.718
806.85	0.709
807.03	0.699
807.21	0.721
807.38	0.648
807.56	0.635
807.74	0.645
807.91	0.653
808.09	0.655
808.27	0.674
808.44	0.701
808.62	0.711
808.80	0.714
808.97	0.710
809.15	0.701
809.33	0.721
809.50	0.729
809.68	0.715
809.86	0.724
810.03	0.759
810.21	0.740
810.39	0.721
810.56	0.728
810.74	0.753
810.91	0.831
811.09	0.816
811.27	0.840
811.44	0.847
811.62	0.848
811.80	0.831
811.97	0.798
812.15	0.796
812.33	0.791
812.50	0.771
812.68	0.759
812.85	0.700
813.03	0.704
813.21	0.669
813.38	0.663
813.56	0.667
813.74	0.675
813.91	0.682
814.09	0.716
814.26	0.709
814.44	0.713
814.62	0.702
814.79	0.707
814.97	0.712
815.14	0.714
815.32	0.715
815.50	0.734
815.67	0.739
815.85	0.728
816.02	0.714
816.20	0.722
816.38	0.740
816.55	0.745
816.73	0.741
816.90	0.751
817.08	0.784
817.26	0.792
817.43	0.768
817.61	0.792
817.78	0.816
817.96	0.792
818.13	0.781
818.31	0.782
818.49	0.797
818.66	0.790
818.84	0.778
819.01	0.758
819.19	0.765
819.36	0.769
819.54	0.740
819.71	0.785
819.89	0.803
820.07	0.814
820.24	0.807
820.42	0.808
820.59	0.827
820.77	0.855
820.94	0.844
821.12	0.865
821.29	0.884
821.47	0.884
821.64	0.813
821.82	0.828
822.00	0.830
822.17	0.826
822.35	0.816
822.52	0.820
822.70	0.810
822.87	0.822
823.05	0.800
823.22	0.812
823.40	0.842
823.57	0.868
823.75	0.843
823.92	0.872
824.10	0.895
824.27	0.945
824.45	0.931
824.62	1.003
824.80	1.020
824.97	1.041
825.15	1.031
825.32	1.053
825.50	1.065
825.67	1.087
825.85	1.056
826.02	1.091
826.20	1.125
826.37	1.330
826.55	1.197
826.72	1.566
826.90	1.776
827.07	2.003
827.25	1.772
827.42	-0.000
827.60	-0.000
827.77	-0.000
827.95	-0.000
828.12	-0.000
828.30	-0.000
828.47	-0.000
828.65	1.837
828.82	2.078
829.00	-0.000
829.17	-0.000
829.34	-0.000
829.52	-0.000
829.69	-0.000
829.87	-0.000
830.04	-0.000
830.22	-0.000
830.39	-0.000
830.57	-0.000
830.74	-0.000
830.92	-0.000
831.09	-0.000
831.26	-0.000
831.44	-0.000
831.61	-0.000
831.79	-0.000
831.96	-0.000
832.14	-0.000
832.31	-0.000
832.49	-0.000
832.66	-0.000
832.83	-0.000
833.01	-0.000
833.18	-0.000
833.36	-0.000
833.53	-0.000
833.70	-0.000
833.88	-0.000
834.05	-0.000
834.23	-0.000
834.40	-0.000
834.58	-0.000
834.75	-0.000
834.92	-0.000
835.10	-0.000
835.27	-0.000
835.45	-0.000
835.62	-0.000
835.79	-0.000
835.97	-0.000
836.14	-0.000
836.32	-0.000
836.49	-0.000
836.66	-0.000
836.84	-0.000
837.01	-0.000
837.18	-0.000
837.36	-0.000
837.53	-0.000
837.71	-0.000
837.88	-0.000
838.05	-0.000
838.23	-0.000
838.40	-0.000
838.58	-0.000
838.75	-0.000
838.92	-0.000
839.10	-0.000
839.27	-0.000
839.44	-0.000
839.62	-0.000
839.79	-0.000
839.96	-0.000
840.14	-0.000
840.31	-0.000
840.48	-0.000
840.66	-0.000
840.83	-0.000
841.01	-0.000
841.18	-0.000
841.35	-0.000
841.53	-0.000
841.70	-0.000
841.87	-0.000
842.05	-0.000
842.22	-0.000
842.39	-0.000
842.57	-0.000
842.74	-0.000
842.91	-0.000
843.09	-0.000
843.26	-0.000
843.43	-0.000
843.60	-0.000
843.78	-0.000
843.95	-0.000
844.12	-0.000
844.30	-0.000
844.47	-0.000
844.64	-0.000
844.82	-0.000
844.99	-0.000
845.16	-0.000
845.34	-0.000
845.51	-0.000
845.68	-0.000
845.85	-0.000
846.03	-0.000
846.20	-0.000
846.37	-0.000
846.55	-0.000
846.72	-0.000
846.89	-0.000
847.06	-0.000
847.24	-0.000
847.41	-0.000
847.58	-0.000
847.76	-0.000
847.93	-0.000
848.10	-0.000
848.27	-0.000
848.45	-0.000
848.62	-0.000
848.79	-0.000
848.97	-0.000
849.14	-0.000
849.31	-0.000
849.48	-0.000
849.66	-0.000
849.83	-0.000
850.00	-0.000
850.17	-0.000
850.35	-0.000
850.52	-0.000
850.69	-0.000
850.86	-0.000
851.04	-0.000
851.21	-0.000
851.38	-0.000
851.55	-0.000
851.72	-0.000
851.90	-0.000
852.07	-0.000
852.24	-0.000
852.41	-0.000
852.59	-0.000
852.76	-0.000
852.93	-0.000
853.10	-0.000
853.28	-0.000
853.45	-0.000
853.62	-0.000
853.79	-0.000
853.96	-0.000
854.14	-0.000
854.31	-0.000
854.48	-0.000
854.65	-0.000
854.82	-0.000
855.00	-0.000
855.17	-0.000
855.34	-0.000
855.51	-0.000
855.68	-0.000
855.86	-0.000
856.03	-0.000
856.20	-0.000
856.37	-0.000
856.54	-0.000
856.72	-0.000
856.89	-0.000
857.06	-0.000
857.23	-0.000
857.40	-0.000
857.57	-0.000
857.75	-0.000
857.92	-0.000
858.09	-0.000
858.26	-0.000
858.43	-0.000
858.60	-0.000
858.78	-0.000
858.95	-0.000
859.12	-0.000
859.29	-0.000
859.46	-0.000
859.63	-0.000
859.81	-0.000
859.98	-0.000
860.15	-0.000
860.32	-0.000
860.49	-0.000
860.66	-0.000
860.83	-0.000
861.01	-0.000
861.18	-0.000
861.35	-0.000
861.52	-0.000
861.69	-0.000
861.86	-0.000
862.03	-0.000
862.21	-0.000
862.38	-0.000
862.55	-0.000
862.72	-0.000
862.89	-0.000
863.06	-0.000
863.23	-0.000
863.40	-0.000
863.58	-0.000
863.75	-0.000
863.92	-0.000
864.09	-0.000
864.26	-0.000
864.43	-0.000
864.60	-0.000
864.77	-0.000
864.94	-0.000
865.11	-0.000
865.29	-0.000
865.46	-0.000
865.63	-0.000
865.80	-0.000
865.97	-0.000
866.14	-0.000
866.31	-0.000
866.48	-0.000
866.65	-0.000
866.82	-0.000
866.99	-0.000
867.16	-0.000
867.34	-0.000
867.51	-0.000
867.68	-0.000
867.85	-0.000
868.02	-0.000
868.19	-0.000
868.36	-0.000
868.53	-0.000
868.70	-0.000
868.87	-0.000
869.04	-0.000
869.21	-0.000
869.38	-0.000
869.55	-0.000
869.72	-0.000
869.89	-0.000
870.06	-0.000
870.24	-0.000
870.41	-0.000
870.58	-0.000
870.75	-0.000
870.92	-0.000
871.09	-0.000
871.26	-0.000
871.43	-0.000
871.60	-0.000
871.77	-0.000
871.94	-0.000
872.11	-0.000
872.28	-0.000
872.45	-0.000
872.62	-0.000
872.79	-0.000
872.96	-0.000
873.13	-0.000
873.30	-0.000
873.47	-0.000
873.64	-0.000
873.81	-0.000
873.98	-0.000
874.15	-0.000
874.32	-0.000
874.49	-0.000
874.66	-0.000
874.83	-0.000
875.00	-0.000
875.17	-0.000
875.34	-0.000
875.51	-0.000
875.68	-0.000
875.85	-0.000
876.02	-0.000
876.19	-0.000
876.36	-0.000
876.53	-0.000
876.70	-0.000
876.87	-0.000
877.04	-0.000
877.21	-0.000
877.38	-0.000
877.55	-0.000
877.72	-0.000
877.89	-0.000
878.06	-0.000
878.23	-0.000
878.39	-0.000
878.56	-0.000
878.73	-0.000
878.90	-0.000
879.07	-0.000
879.24	-0.000
879.41	-0.000
879.58	-0.000
879.75	-0.000
879.92	-0.000
880.09	-0.000
880.26	-0.000
880.43	-0.000
880.60	-0.000
880.77	-0.000
880.94	-0.000
881.11	-0.000
881.27	-0.000
881.44	-0.000
881.61	-0.000
881.78	-0.000
881.95	-0.000
882.12	-0.000
882.29	-0.000
882.46	-0.000
882.63	-0.000
882.80	-0.000
882.97	-0.000
883.14	-0.000
883.30	-0.000
883.47	-0.000
883.64	-0.000
883.81	-0.000
883.98	-0.000
884.15	-0.000
884.32	-0.000
884.49	-0.000
884.66	-0.000
884.82	-0.000
884.99	-0.000
885.16	-0.000
885.33	-0.000
885.50	-0.000
885.67	-0.000
885.84	-0.000
886.01	-0.000
886.17	-0.000
886.34	-0.000
886.51	-0.000
886.68	-0.000
886.85	-0.000
887.02	-0.000
887.19	-0.000
887.36	-0.000
887.52	-0.000
887.69	-0.000
887.86	-0.000
888.03	-0.000
888.20	-0.000
888.37	-0.000
888.54	-0.000
888.70	-0.000
888.87	-0.000
889.04	-0.000
889.21	-0.000
889.38	-0.000
889.55	-0.000
889.71	-0.000
889.88	-0.000
890.05	-0.000
890.22	-0.000
890.39	-0.000
>>>>>End Processed Spectral Data<<<<<
