SpectraSuite Data File
++++++++++++++++++++++++++++++++++++
Date: Fri Jun 19 12:38:09 CEST 2015
User: introlabs
Dark Spectrum Present: Yes
Reference Spectrum Present: Yes
Number of Sampled Component Spectra: 1
Spectrometers: USB4H08886
Integration Time (usec): 745692 (USB4H08886)
Spectra Averaged: 5 (USB4H08886)
Boxcar Smoothing: 5 (USB4H08886)
Correct for Electrical Dark: Yes (USB4H08886)
Strobe/Lamp Enabled: No (USB4H08886)
Correct for Detector Non-linearity: Yes (USB4H08886)
Correct for Stray Light: Yes (USB4H08886)
Number of Pixels in Processed Spectrum: 3648
>>>>>Begin Processed Spectral Data<<<<<
178.14	-0.000
178.36	-0.000
178.57	-0.000
178.79	-0.000
179.01	-0.000
179.22	-0.000
179.44	-0.000
179.65	-0.000
179.87	-0.000
180.08	-0.000
180.30	-0.000
180.52	-0.000
180.73	-0.000
180.95	-0.000
181.16	-0.000
181.38	-0.000
181.59	-0.000
181.81	-0.000
182.03	-0.000
182.24	-0.000
182.46	-0.000
182.67	-0.000
182.89	-0.000
183.10	-0.000
183.32	-0.000
183.54	-0.000
183.75	-0.000
183.97	-0.000
184.18	-0.000
184.40	-0.000
184.61	-0.000
184.83	-0.000
185.04	-0.000
185.26	-0.000
185.48	-0.000
185.69	-0.000
185.91	-0.000
186.12	-0.000
186.34	-0.000
186.55	-0.000
186.77	-0.000
186.98	-0.000
187.20	-0.000
187.42	-0.000
187.63	-0.000
187.85	-0.000
188.06	-0.000
188.28	-0.000
188.49	-0.000
188.71	-0.000
188.92	-0.000
189.14	-0.000
189.36	-0.000
189.57	-0.000
189.79	-0.000
190.00	-0.000
190.22	-0.000
190.43	-0.000
190.65	-0.000
190.86	-0.000
191.08	-0.000
191.29	-0.000
191.51	-0.000
191.72	-0.000
191.94	-0.000
192.16	-0.000
192.37	-0.000
192.59	-0.000
192.80	-0.000
193.02	-0.000
193.23	-0.000
193.45	-0.000
193.66	-0.000
193.88	-0.000
194.09	-0.000
194.31	-0.000
194.52	-0.000
194.74	-0.000
194.95	-0.000
195.17	-0.000
195.38	-0.000
195.60	-0.000
195.81	-0.000
196.03	-0.000
196.25	-0.000
196.46	-0.000
196.68	-0.000
196.89	-0.000
197.11	-0.000
197.32	-0.000
197.54	-0.000
197.75	-0.000
197.97	-0.000
198.18	-0.000
198.40	-0.000
198.61	-0.000
198.83	-0.000
199.04	-0.000
199.26	-0.000
199.47	-0.000
199.69	-0.000
199.90	-0.000
200.12	-0.000
200.33	-0.000
200.55	-0.000
200.76	-0.000
200.98	-0.000
201.19	-0.000
201.41	-0.000
201.62	-0.000
201.84	-0.000
202.05	-0.000
202.27	-0.000
202.48	-0.000
202.70	-0.000
202.91	-0.000
203.13	-0.000
203.34	-0.000
203.56	-0.000
203.77	-0.000
203.99	-0.000
204.20	-0.000
204.42	-0.000
204.63	-0.000
204.85	-0.000
205.06	-0.000
205.28	-0.000
205.49	-0.000
205.71	-0.000
205.92	-0.000
206.14	-0.000
206.35	-0.000
206.56	-0.000
206.78	-0.000
206.99	-0.000
207.21	-0.000
207.42	-0.000
207.64	-0.000
207.85	-0.000
208.07	-0.000
208.28	-0.000
208.50	-0.000
208.71	-0.000
208.93	-0.000
209.14	-0.000
209.36	-0.000
209.57	-0.000
209.79	-0.000
210.00	-0.000
210.22	-0.000
210.43	-0.000
210.64	-0.000
210.86	-0.000
211.07	-0.000
211.29	-0.000
211.50	-0.000
211.72	-0.000
211.93	-0.000
212.15	-0.000
212.36	-0.000
212.58	-0.000
212.79	-0.000
213.01	-0.000
213.22	-0.000
213.43	-0.000
213.65	-0.000
213.86	-0.000
214.08	-0.000
214.29	-0.000
214.51	-0.000
214.72	-0.000
214.94	-0.000
215.15	-0.000
215.36	-0.000
215.58	-0.000
215.79	-0.000
216.01	-0.000
216.22	-0.000
216.44	-0.000
216.65	-0.000
216.87	-0.000
217.08	-0.000
217.29	-0.000
217.51	-0.000
217.72	-0.000
217.94	-0.000
218.15	-0.000
218.37	-0.000
218.58	-0.000
218.80	-0.000
219.01	-0.000
219.22	-0.000
219.44	-0.000
219.65	-0.000
219.87	-0.000
220.08	-0.000
220.30	-0.000
220.51	-0.000
220.72	-0.000
220.94	-0.000
221.15	-0.000
221.37	-0.000
221.58	-0.000
221.79	-0.000
222.01	-0.000
222.22	-0.000
222.44	-0.000
222.65	-0.000
222.87	-0.000
223.08	-0.000
223.29	-0.000
223.51	-0.000
223.72	-0.000
223.94	-0.000
224.15	-0.000
224.36	-0.000
224.58	-0.000
224.79	-0.000
225.01	-0.000
225.22	-0.000
225.44	-0.000
225.65	-0.000
225.86	-0.000
226.08	-0.000
226.29	-0.000
226.51	-0.000
226.72	-0.000
226.93	-0.000
227.15	-0.000
227.36	-0.000
227.58	-0.000
227.79	-0.000
228.00	-0.000
228.22	-0.000
228.43	-0.000
228.65	-0.000
228.86	-0.000
229.07	-0.000
229.29	-0.000
229.50	-0.000
229.72	-0.000
229.93	-0.000
230.14	-0.000
230.36	-0.000
230.57	-0.000
230.78	-0.000
231.00	-0.000
231.21	-0.000
231.43	-0.000
231.64	-0.000
231.85	-0.000
232.07	-0.000
232.28	-0.000
232.50	-0.000
232.71	-0.000
232.92	-0.000
233.14	-0.000
233.35	-0.000
233.56	-0.000
233.78	-0.000
233.99	-0.000
234.21	-0.000
234.42	-0.000
234.63	-0.000
234.85	-0.000
235.06	-0.000
235.27	-0.000
235.49	-0.000
235.70	-0.000
235.91	-0.000
236.13	-0.000
236.34	-0.000
236.56	-0.000
236.77	-0.000
236.98	-0.000
237.20	-0.000
237.41	-0.000
237.62	-0.000
237.84	-0.000
238.05	-0.000
238.26	-0.000
238.48	-0.000
238.69	-0.000
238.91	-0.000
239.12	-0.000
239.33	-0.000
239.55	-0.000
239.76	-0.000
239.97	-0.000
240.19	-0.000
240.40	-0.000
240.61	-0.000
240.83	-0.000
241.04	-0.000
241.25	-0.000
241.47	-0.000
241.68	-0.000
241.89	-0.000
242.11	-0.000
242.32	-0.000
242.53	-0.000
242.75	-0.000
242.96	-0.000
243.17	-0.000
243.39	-0.000
243.60	-0.000
243.81	-0.000
244.03	-0.000
244.24	-0.000
244.45	-0.000
244.67	-0.000
244.88	-0.000
245.09	-0.000
245.31	-0.000
245.52	-0.000
245.73	-0.000
245.95	-0.000
246.16	-0.000
246.37	-0.000
246.59	-0.000
246.80	-0.000
247.01	-0.000
247.23	-0.000
247.44	-0.000
247.65	-0.000
247.87	-0.000
248.08	-0.000
248.29	-0.000
248.51	-0.000
248.72	-0.000
248.93	-0.000
249.15	-0.000
249.36	-0.000
249.57	-0.000
249.78	-0.000
250.00	-0.000
250.21	-0.000
250.42	-0.000
250.64	-0.000
250.85	-0.000
251.06	-0.000
251.28	-0.000
251.49	-0.000
251.70	-0.000
251.92	-0.000
252.13	-0.000
252.34	-0.000
252.55	-0.000
252.77	-0.000
252.98	-0.000
253.19	-0.000
253.41	-0.000
253.62	-0.000
253.83	-0.000
254.05	-0.000
254.26	-0.000
254.47	-0.000
254.68	-0.000
254.90	-0.000
255.11	-0.000
255.32	-0.000
255.54	-0.000
255.75	-0.000
255.96	-0.000
256.17	-0.000
256.39	-0.000
256.60	-0.000
256.81	-0.000
257.03	-0.000
257.24	-0.000
257.45	-0.000
257.66	-0.000
257.88	-0.000
258.09	-0.000
258.30	-0.000
258.51	-0.000
258.73	-0.000
258.94	-0.000
259.15	-0.000
259.37	-0.000
259.58	-0.000
259.79	-0.000
260.00	-0.000
260.22	-0.000
260.43	-0.000
260.64	-0.000
260.85	-0.000
261.07	-0.000
261.28	-0.000
261.49	-0.000
261.71	-0.000
261.92	-0.000
262.13	-0.000
262.34	-0.000
262.56	-0.000
262.77	-0.000
262.98	-0.000
263.19	-0.000
263.41	-0.000
263.62	-0.000
263.83	-0.000
264.04	-0.000
264.26	-0.000
264.47	-0.000
264.68	-0.000
264.89	-0.000
265.11	-0.000
265.32	-0.000
265.53	-0.000
265.74	-0.000
265.96	-0.000
266.17	-0.000
266.38	-0.000
266.59	-0.000
266.81	-0.000
267.02	-0.000
267.23	-0.000
267.44	-0.000
267.65	-0.000
267.87	-0.000
268.08	-0.000
268.29	-0.000
268.50	-0.000
268.72	-0.000
268.93	-0.000
269.14	-0.000
269.35	-0.000
269.57	-0.000
269.78	-0.000
269.99	-0.000
270.20	-0.000
270.41	-0.000
270.63	-0.000
270.84	-0.000
271.05	-0.000
271.26	-0.000
271.48	-0.000
271.69	-0.000
271.90	-0.000
272.11	-0.000
272.32	-0.000
272.54	-0.000
272.75	-0.000
272.96	-0.000
273.17	-0.000
273.39	-0.000
273.60	-0.000
273.81	-0.000
274.02	-0.000
274.23	-0.000
274.45	-0.000
274.66	-0.000
274.87	-0.000
275.08	-0.000
275.29	-0.000
275.51	-0.000
275.72	-0.000
275.93	-0.000
276.14	-0.000
276.35	-0.000
276.57	-0.000
276.78	-0.000
276.99	-0.000
277.20	-0.000
277.41	-0.000
277.63	-0.000
277.84	-0.000
278.05	-0.000
278.26	-0.000
278.47	-0.000
278.69	-0.000
278.90	-0.000
279.11	-0.000
279.32	-0.000
279.53	-0.000
279.74	-0.000
279.96	-0.000
280.17	-0.000
280.38	-0.000
280.59	-0.000
280.80	-0.000
281.02	-0.000
281.23	-0.000
281.44	-0.000
281.65	-0.000
281.86	-0.000
282.07	-0.000
282.29	-0.000
282.50	-0.000
282.71	-0.000
282.92	-0.000
283.13	-0.000
283.35	-0.000
283.56	-0.000
283.77	-0.000
283.98	-0.000
284.19	-0.000
284.40	-0.000
284.62	-0.000
284.83	-0.000
285.04	-0.000
285.25	-0.000
285.46	-0.000
285.67	-0.000
285.88	-0.000
286.10	-0.000
286.31	-0.000
286.52	-0.000
286.73	-0.000
286.94	-0.000
287.15	-0.000
287.37	-0.000
287.58	-0.000
287.79	-0.000
288.00	-0.000
288.21	-0.000
288.42	-0.000
288.63	-0.000
288.85	-0.000
289.06	-0.000
289.27	-0.000
289.48	-0.000
289.69	-0.000
289.90	-0.000
290.11	-0.000
290.33	-0.000
290.54	-0.000
290.75	-0.000
290.96	-0.000
291.17	-0.000
291.38	-0.000
291.59	-0.000
291.81	-0.000
292.02	-0.000
292.23	-0.000
292.44	-0.000
292.65	-0.000
292.86	-0.000
293.07	-0.000
293.28	-0.000
293.50	-0.000
293.71	-0.000
293.92	-0.000
294.13	-0.000
294.34	-0.000
294.55	-0.000
294.76	-0.000
294.97	-0.000
295.19	-0.000
295.40	-0.000
295.61	-0.000
295.82	-0.000
296.03	4.503
296.24	-0.000
296.45	2.037
296.66	1.702
296.87	1.710
297.09	1.817
297.30	2.008
297.51	1.651
297.72	1.613
297.93	1.705
298.14	1.671
298.35	1.621
298.56	1.603
298.77	1.727
298.99	1.695
299.20	1.652
299.41	1.626
299.62	1.603
299.83	1.590
300.04	1.514
300.25	1.507
300.46	1.549
300.67	1.520
300.88	1.456
301.10	1.464
301.31	1.544
301.52	1.486
301.73	1.424
301.94	1.419
302.15	1.438
302.36	1.396
302.57	1.336
302.78	1.348
302.99	1.389
303.20	1.405
303.41	1.318
303.63	1.298
303.84	1.308
304.05	1.307
304.26	1.250
304.47	1.258
304.68	1.265
304.89	1.254
305.10	1.211
305.31	1.202
305.52	1.241
305.73	1.233
305.94	1.192
306.15	1.185
306.37	1.205
306.58	1.212
306.79	1.177
307.00	1.196
307.21	1.237
307.42	1.229
307.63	1.196
307.84	1.167
308.05	1.202
308.26	1.203
308.47	1.179
308.68	1.172
308.89	1.179
309.10	1.178
309.31	1.138
309.52	1.129
309.73	1.146
309.95	1.136
310.16	1.109
310.37	1.100
310.58	1.116
310.79	1.117
311.00	1.114
311.21	1.113
311.42	1.116
311.63	1.111
311.84	1.092
312.05	1.090
312.26	1.114
312.47	1.122
312.68	1.097
312.89	1.084
313.10	1.091
313.31	1.066
313.52	1.065
313.73	1.067
313.94	1.074
314.15	1.057
314.36	1.033
314.57	1.027
314.78	1.018
314.99	1.012
315.21	0.999
315.42	1.001
315.63	1.014
315.84	0.993
316.05	0.977
316.26	0.983
316.47	1.002
316.68	1.000
316.89	0.981
317.10	1.000
317.31	1.010
317.52	1.008
317.73	0.990
317.94	0.991
318.15	1.032
318.36	1.033
318.57	1.013
318.78	1.002
318.99	1.037
319.20	1.034
319.41	1.001
319.62	1.001
319.83	1.015
320.04	1.009
320.25	0.994
320.46	0.963
320.67	0.968
320.88	0.966
321.09	0.952
321.30	0.938
321.51	0.953
321.72	0.952
321.93	0.934
322.14	0.930
322.35	0.955
322.56	0.956
322.77	0.942
322.98	0.952
323.19	0.961
323.40	0.965
323.61	0.944
323.82	0.939
324.03	0.946
324.24	0.945
324.45	0.931
324.66	0.914
324.87	0.914
325.08	0.916
325.29	0.895
325.50	0.888
325.71	0.895
325.92	0.902
326.13	0.888
326.34	0.890
326.55	0.900
326.76	0.898
326.97	0.886
327.18	0.881
327.39	0.904
327.60	0.905
327.80	0.904
328.01	0.901
328.22	0.903
328.43	0.906
328.64	0.891
328.85	0.895
329.06	0.898
329.27	0.897
329.48	0.890
329.69	0.874
329.90	0.884
330.11	0.878
330.32	0.870
330.53	0.865
330.74	0.867
330.95	0.865
331.16	0.850
331.37	0.858
331.58	0.860
331.79	0.859
332.00	0.850
332.21	0.844
332.42	0.849
332.63	0.842
332.83	0.836
333.04	0.837
333.25	0.852
333.46	0.851
333.67	0.837
333.88	0.840
334.09	0.850
334.30	0.846
334.51	0.837
334.72	0.833
334.93	0.838
335.14	0.838
335.35	0.830
335.56	0.824
335.77	0.833
335.98	0.833
336.18	0.826
336.39	0.820
336.60	0.825
336.81	0.823
337.02	0.822
337.23	0.826
337.44	0.830
337.65	0.831
337.86	0.819
338.07	0.815
338.28	0.821
338.49	0.819
338.70	0.810
338.91	0.817
339.11	0.824
339.32	0.820
339.53	0.808
339.74	0.805
339.95	0.804
340.16	0.804
340.37	0.795
340.58	0.793
340.79	0.798
341.00	0.799
341.21	0.787
341.41	0.789
341.62	0.792
341.83	0.793
342.04	0.787
342.25	0.796
342.46	0.801
342.67	0.800
342.88	0.792
343.09	0.791
343.30	0.799
343.50	0.803
343.71	0.793
343.92	0.791
344.13	0.796
344.34	0.796
344.55	0.781
344.76	0.779
344.97	0.785
345.18	0.783
345.38	0.780
345.59	0.775
345.80	0.775
346.01	0.772
346.22	0.767
346.43	0.762
346.64	0.771
346.85	0.771
347.06	0.764
347.26	0.765
347.47	0.769
347.68	0.766
347.89	0.762
348.10	0.758
348.31	0.765
348.52	0.765
348.73	0.761
348.93	0.758
349.14	0.760
349.35	0.760
349.56	0.754
349.77	0.750
349.98	0.756
350.19	0.753
350.39	0.748
350.60	0.745
350.81	0.760
351.02	0.759
351.23	0.755
351.44	0.758
351.65	0.762
351.86	0.759
352.06	0.757
352.27	0.757
352.48	0.759
352.69	0.759
352.90	0.753
353.11	0.741
353.31	0.748
353.52	0.744
353.73	0.736
353.94	0.737
354.15	0.744
354.36	0.743
354.57	0.734
354.77	0.736
354.98	0.736
355.19	0.735
355.40	0.734
355.61	0.739
355.82	0.745
356.02	0.744
356.23	0.736
356.44	0.738
356.65	0.743
356.86	0.743
357.07	0.737
357.27	0.741
357.48	0.746
357.69	0.741
357.90	0.726
358.11	0.723
358.32	0.727
358.52	0.730
358.73	0.719
358.94	0.722
359.15	0.728
359.36	0.728
359.56	0.723
359.77	0.719
359.98	0.726
360.19	0.727
360.40	0.723
360.61	0.724
360.81	0.724
361.02	0.725
361.23	0.716
361.44	0.715
361.65	0.717
361.85	0.716
362.06	0.714
362.27	0.716
362.48	0.717
362.69	0.720
362.89	0.713
363.10	0.715
363.31	0.720
363.52	0.724
363.73	0.719
363.93	0.719
364.14	0.722
364.35	0.723
364.56	0.713
364.77	0.716
364.97	0.718
365.18	0.719
365.39	0.712
365.60	0.709
365.81	0.710
366.01	0.710
366.22	0.706
366.43	0.707
366.64	0.709
366.84	0.716
367.05	0.712
367.26	0.712
367.47	0.714
367.68	0.714
367.88	0.712
368.09	0.710
368.30	0.713
368.51	0.713
368.71	0.710
368.92	0.715
369.13	0.713
369.34	0.712
369.55	0.710
369.75	0.710
369.96	0.718
370.17	0.717
370.38	0.713
370.58	0.713
370.79	0.719
371.00	0.718
371.21	0.708
371.41	0.714
371.62	0.718
371.83	0.714
372.04	0.711
372.24	0.703
372.45	0.705
372.66	0.706
372.87	0.702
373.07	0.699
373.28	0.700
373.49	0.704
373.70	0.694
373.90	0.693
374.11	0.702
374.32	0.702
374.53	0.701
374.73	0.701
374.94	0.704
375.15	0.704
375.36	0.700
375.56	0.709
375.77	0.709
375.98	0.709
376.19	0.705
376.39	0.699
376.60	0.704
376.81	0.704
377.02	0.701
377.22	0.700
377.43	0.701
377.64	0.700
377.84	0.691
378.05	0.695
378.26	0.702
378.47	0.701
378.67	0.697
378.88	0.694
379.09	0.696
379.30	0.696
379.50	0.694
379.71	0.696
379.92	0.700
380.12	0.699
380.33	0.690
380.54	0.687
380.75	0.694
380.95	0.694
381.16	0.692
381.37	0.692
381.57	0.695
381.78	0.695
381.99	0.694
382.20	0.693
382.40	0.696
382.61	0.697
382.82	0.693
383.02	0.686
383.23	0.690
383.44	0.690
383.64	0.687
383.85	0.689
384.06	0.693
384.27	0.689
384.47	0.687
384.68	0.688
384.89	0.693
385.09	0.692
385.30	0.691
385.51	0.690
385.71	0.694
385.92	0.694
386.13	0.692
386.33	0.693
386.54	0.695
386.75	0.694
386.95	0.689
387.16	0.685
387.37	0.689
387.58	0.689
387.78	0.686
387.99	0.683
388.20	0.685
388.40	0.682
388.61	0.678
388.82	0.680
389.02	0.683
389.23	0.683
389.44	0.681
389.64	0.681
389.85	0.692
390.06	0.691
390.26	0.691
390.47	0.690
390.68	0.693
390.88	0.692
391.09	0.688
391.30	0.687
391.50	0.687
391.71	0.687
391.92	0.684
392.12	0.676
392.33	0.677
392.53	0.677
392.74	0.677
392.95	0.676
393.15	0.678
393.36	0.679
393.57	0.677
393.77	0.679
393.98	0.682
394.19	0.681
394.39	0.681
394.60	0.682
394.81	0.684
395.01	0.682
395.22	0.680
395.43	0.681
395.63	0.686
395.84	0.687
396.04	0.682
396.25	0.684
396.46	0.686
396.66	0.684
396.87	0.680
397.08	0.677
397.28	0.680
397.49	0.680
397.69	0.676
397.90	0.670
398.11	0.671
398.31	0.672
398.52	0.669
398.73	0.669
398.93	0.669
399.14	0.668
399.34	0.668
399.55	0.668
399.76	0.669
399.96	0.670
400.17	0.669
400.37	0.667
400.58	0.674
400.79	0.675
400.99	0.672
401.20	0.678
401.41	0.681
401.61	0.681
401.82	0.685
402.02	0.685
402.23	0.685
402.44	0.684
402.64	0.684
402.85	0.678
403.05	0.678
403.26	0.677
403.47	0.670
403.67	0.669
403.88	0.671
404.08	0.665
404.29	0.663
404.50	0.662
404.70	0.663
404.91	0.662
405.11	0.658
405.32	0.658
405.52	0.659
405.73	0.658
405.94	0.655
406.14	0.658
406.35	0.660
406.55	0.660
406.76	0.657
406.97	0.658
407.17	0.661
407.38	0.660
407.58	0.658
407.79	0.661
407.99	0.664
408.20	0.665
408.41	0.660
408.61	0.658
408.82	0.660
409.02	0.660
409.23	0.657
409.43	0.656
409.64	0.658
409.84	0.658
410.05	0.654
410.26	0.653
410.46	0.652
410.67	0.652
410.87	0.653
411.08	0.654
411.28	0.656
411.49	0.657
411.69	0.654
411.90	0.656
412.11	0.657
412.31	0.658
412.52	0.656
412.72	0.657
412.93	0.659
413.13	0.658
413.34	0.654
413.54	0.655
413.75	0.657
413.95	0.657
414.16	0.653
414.37	0.657
414.57	0.657
414.78	0.659
414.98	0.657
415.19	0.658
415.39	0.656
415.60	0.658
415.80	0.657
416.01	0.655
416.21	0.657
416.42	0.657
416.62	0.651
416.83	0.652
417.03	0.652
417.24	0.652
417.44	0.650
417.65	0.650
417.86	0.651
418.06	0.650
418.27	0.648
418.47	0.650
418.68	0.651
418.88	0.652
419.09	0.650
419.29	0.650
419.50	0.651
419.70	0.650
419.91	0.647
420.11	0.645
420.32	0.647
420.52	0.647
420.73	0.645
420.93	0.646
421.14	0.648
421.34	0.647
421.55	0.644
421.75	0.644
421.96	0.646
422.16	0.647
422.37	0.646
422.57	0.643
422.78	0.645
422.98	0.642
423.19	0.640
423.39	0.639
423.60	0.643
423.80	0.644
424.01	0.643
424.21	0.646
424.42	0.647
424.62	0.647
424.83	0.645
425.03	0.646
425.23	0.648
425.44	0.649
425.64	0.648
425.85	0.647
426.05	0.649
426.26	0.650
426.46	0.646
426.67	0.645
426.87	0.651
427.08	0.650
427.28	0.648
427.49	0.649
427.69	0.650
427.90	0.649
428.10	0.645
428.31	0.645
428.51	0.646
428.71	0.645
428.92	0.645
429.12	0.643
429.33	0.644
429.53	0.647
429.74	0.651
429.94	0.651
430.15	0.652
430.35	0.652
430.56	0.650
430.76	0.649
430.96	0.652
431.17	0.649
431.37	0.646
431.58	0.645
431.78	0.643
431.99	0.636
432.19	0.639
432.40	0.640
432.60	0.641
432.80	0.644
433.01	0.642
433.21	0.642
433.42	0.644
433.62	0.645
433.83	0.645
434.03	0.647
434.23	0.650
434.44	0.650
434.64	0.647
434.85	0.652
435.05	0.653
435.26	0.653
435.46	0.651
435.66	0.651
435.87	0.651
436.07	0.651
436.28	0.647
436.48	0.644
436.69	0.644
436.89	0.644
437.09	0.637
437.30	0.636
437.50	0.637
437.71	0.649
437.91	0.648
438.11	0.649
438.32	0.653
438.52	0.654
438.73	0.653
438.93	0.652
439.13	0.652
439.34	0.656
439.54	0.654
439.75	0.654
439.95	0.644
440.15	0.649
440.36	0.647
440.56	0.645
440.77	0.646
440.97	0.646
441.17	0.645
441.38	0.645
441.58	0.644
441.79	0.643
441.99	0.642
442.19	0.641
442.40	0.639
442.60	0.639
442.81	0.637
443.01	0.637
443.21	0.639
443.42	0.638
443.62	0.637
443.82	0.637
444.03	0.639
444.23	0.639
444.44	0.640
444.64	0.639
444.84	0.640
445.05	0.640
445.25	0.637
445.45	0.637
445.66	0.641
445.86	0.640
446.06	0.640
446.27	0.640
446.47	0.643
446.68	0.641
446.88	0.640
447.08	0.640
447.29	0.642
447.49	0.642
447.69	0.641
447.90	0.640
448.10	0.644
448.30	0.642
448.51	0.642
448.71	0.640
448.91	0.643
449.12	0.642
449.32	0.643
449.52	0.642
449.73	0.646
449.93	0.646
450.14	0.646
450.34	0.645
450.54	0.647
450.75	0.645
450.95	0.644
451.15	0.644
451.36	0.647
451.56	0.644
451.76	0.642
451.97	0.640
452.17	0.640
452.37	0.639
452.58	0.635
452.78	0.635
452.98	0.638
453.19	0.638
453.39	0.638
453.59	0.637
453.79	0.639
454.00	0.640
454.20	0.638
454.40	0.638
454.61	0.641
454.81	0.642
455.01	0.640
455.22	0.640
455.42	0.643
455.62	0.641
455.83	0.641
456.03	0.644
456.23	0.646
456.44	0.647
456.64	0.645
456.84	0.645
457.04	0.646
457.25	0.645
457.45	0.642
457.65	0.640
457.86	0.642
458.06	0.640
458.26	0.635
458.47	0.634
458.67	0.636
458.87	0.637
459.07	0.634
459.28	0.636
459.48	0.639
459.68	0.639
459.89	0.638
460.09	0.637
460.29	0.638
460.49	0.640
460.70	0.639
460.90	0.639
461.10	0.640
461.31	0.639
461.51	0.635
461.71	0.637
461.91	0.639
462.12	0.639
462.32	0.637
462.52	0.639
462.72	0.642
462.93	0.642
463.13	0.640
463.33	0.641
463.53	0.643
463.74	0.643
463.94	0.638
464.14	0.638
464.35	0.640
464.55	0.640
464.75	0.637
464.95	0.635
465.16	0.637
465.36	0.636
465.56	0.635
465.76	0.634
465.97	0.636
466.17	0.637
466.37	0.635
466.57	0.636
466.78	0.637
466.98	0.638
467.18	0.635
467.38	0.634
467.59	0.637
467.79	0.638
467.99	0.637
468.19	0.638
468.39	0.641
468.60	0.641
468.80	0.638
469.00	0.640
469.20	0.641
469.41	0.642
469.61	0.640
469.81	0.641
470.01	0.641
470.22	0.641
470.42	0.639
470.62	0.637
470.82	0.638
471.02	0.638
471.23	0.635
471.43	0.636
471.63	0.638
471.83	0.637
472.04	0.636
472.24	0.634
472.44	0.639
472.64	0.640
472.84	0.637
473.05	0.637
473.25	0.640
473.45	0.640
473.65	0.637
473.85	0.638
474.06	0.640
474.26	0.640
474.46	0.640
474.66	0.636
474.86	0.638
475.07	0.638
475.27	0.636
475.47	0.634
475.67	0.635
475.87	0.638
476.08	0.634
476.28	0.634
476.48	0.636
476.68	0.635
476.88	0.633
477.09	0.634
477.29	0.636
477.49	0.636
477.69	0.634
477.89	0.634
478.09	0.634
478.30	0.636
478.50	0.633
478.70	0.632
478.90	0.633
479.10	0.636
479.31	0.636
479.51	0.634
479.71	0.635
479.91	0.636
480.11	0.634
480.31	0.635
480.52	0.634
480.72	0.634
480.92	0.633
481.12	0.632
481.32	0.630
481.52	0.628
481.72	0.628
481.93	0.631
482.13	0.632
482.33	0.631
482.53	0.628
482.73	0.629
482.93	0.630
483.14	0.630
483.34	0.628
483.54	0.629
483.74	0.629
483.94	0.629
484.14	0.625
484.34	0.624
484.55	0.625
484.75	0.626
484.95	0.624
485.15	0.624
485.35	0.624
485.55	0.624
485.75	0.622
485.96	0.622
486.16	0.624
486.36	0.624
486.56	0.622
486.76	0.622
486.96	0.622
487.16	0.622
487.36	0.620
487.57	0.620
487.77	0.621
487.97	0.622
488.17	0.620
488.37	0.619
488.57	0.620
488.77	0.620
488.97	0.618
489.18	0.618
489.38	0.621
489.58	0.622
489.78	0.621
489.98	0.621
490.18	0.621
490.38	0.622
490.58	0.621
490.78	0.622
490.98	0.624
491.19	0.624
491.39	0.623
491.59	0.622
491.79	0.625
491.99	0.626
492.19	0.625
492.39	0.628
492.59	0.628
492.79	0.630
492.99	0.629
493.20	0.629
493.40	0.629
493.60	0.630
493.80	0.628
494.00	0.626
494.20	0.626
494.40	0.626
494.60	0.623
494.80	0.628
495.00	0.627
495.20	0.625
495.40	0.624
495.61	0.626
495.81	0.626
496.01	0.629
496.21	0.630
496.41	0.630
496.61	0.631
496.81	0.630
497.01	0.625
497.21	0.625
497.41	0.626
497.61	0.626
497.81	0.623
498.01	0.623
498.21	0.622
498.41	0.620
498.61	0.619
498.82	0.621
499.02	0.623
499.22	0.624
499.42	0.623
499.62	0.624
499.82	0.625
500.02	0.627
500.22	0.625
500.42	0.627
500.62	0.628
500.82	0.628
501.02	0.626
501.22	0.626
501.42	0.626
501.62	0.628
501.82	0.626
502.02	0.626
502.22	0.626
502.42	0.628
502.62	0.625
502.82	0.625
503.02	0.626
503.22	0.625
503.42	0.623
503.63	0.623
503.83	0.622
504.03	0.621
504.23	0.619
504.43	0.620
504.63	0.621
504.83	0.621
505.03	0.619
505.23	0.621
505.43	0.624
505.63	0.624
505.83	0.623
506.03	0.626
506.23	0.628
506.43	0.629
506.63	0.628
506.83	0.627
507.03	0.629
507.23	0.630
507.43	0.627
507.63	0.628
507.83	0.628
508.03	0.629
508.23	0.627
508.43	0.626
508.63	0.628
508.83	0.628
509.03	0.629
509.23	0.628
509.43	0.629
509.63	0.630
509.83	0.628
510.03	0.630
510.23	0.632
510.43	0.633
510.63	0.634
510.83	0.633
511.03	0.635
511.23	0.632
511.43	0.632
511.63	0.633
511.83	0.636
512.03	0.636
512.22	0.632
512.42	0.631
512.62	0.633
512.82	0.632
513.02	0.631
513.22	0.631
513.42	0.633
513.62	0.636
513.82	0.633
514.02	0.633
514.22	0.634
514.42	0.635
514.62	0.634
514.82	0.634
515.02	0.636
515.22	0.640
515.42	0.638
515.62	0.640
515.82	0.639
516.02	0.640
516.22	0.640
516.42	0.641
516.62	0.643
516.82	0.645
517.01	0.642
517.21	0.641
517.41	0.645
517.61	0.646
517.81	0.641
518.01	0.641
518.21	0.641
518.41	0.640
518.61	0.639
518.81	0.639
519.01	0.640
519.21	0.641
519.41	0.640
519.61	0.634
519.81	0.637
520.00	0.639
520.20	0.639
520.40	0.641
520.60	0.643
520.80	0.642
521.00	0.642
521.20	0.642
521.40	0.648
521.60	0.648
521.80	0.647
522.00	0.647
522.20	0.650
522.39	0.649
522.59	0.645
522.79	0.647
522.99	0.650
523.19	0.649
523.39	0.646
523.59	0.644
523.79	0.648
523.99	0.650
524.19	0.649
524.38	0.647
524.58	0.650
524.78	0.650
524.98	0.648
525.18	0.650
525.38	0.651
525.58	0.652
525.78	0.649
525.98	0.648
526.18	0.649
526.37	0.648
526.57	0.649
526.77	0.649
526.97	0.650
527.17	0.650
527.37	0.646
527.57	0.648
527.77	0.650
527.96	0.650
528.16	0.648
528.36	0.649
528.56	0.651
528.76	0.649
528.96	0.648
529.16	0.650
529.36	0.654
529.55	0.654
529.75	0.651
529.95	0.652
530.15	0.654
530.35	0.656
530.55	0.653
530.75	0.654
530.94	0.655
531.14	0.655
531.34	0.652
531.54	0.650
531.74	0.654
531.94	0.656
532.13	0.653
532.33	0.655
532.53	0.654
532.73	0.653
532.93	0.651
533.13	0.652
533.33	0.653
533.52	0.653
533.72	0.657
533.92	0.655
534.12	0.654
534.32	0.654
534.52	0.652
534.71	0.654
534.91	0.658
535.11	0.660
535.31	0.657
535.51	0.659
535.71	0.662
535.90	0.658
536.10	0.659
536.30	0.661
536.50	0.662
536.70	0.662
536.89	0.659
537.09	0.659
537.29	0.661
537.49	0.662
537.69	0.659
537.89	0.660
538.08	0.660
538.28	0.658
538.48	0.658
538.68	0.660
538.88	0.662
539.07	0.662
539.27	0.660
539.47	0.659
539.67	0.660
539.87	0.661
540.06	0.658
540.26	0.660
540.46	0.662
540.66	0.660
540.86	0.657
541.05	0.657
541.25	0.660
541.45	0.659
541.65	0.658
541.84	0.660
542.04	0.661
542.24	0.662
542.44	0.660
542.64	0.660
542.83	0.663
543.03	0.663
543.23	0.660
543.43	0.660
543.62	0.662
543.82	0.662
544.02	0.660
544.22	0.660
544.42	0.664
544.61	0.664
544.81	0.661
545.01	0.660
545.21	0.663
545.40	0.663
545.60	0.662
545.80	0.665
546.00	0.666
546.19	0.665
546.39	0.663
546.59	0.661
546.79	0.663
546.98	0.663
547.18	0.662
547.38	0.663
547.58	0.667
547.77	0.667
547.97	0.662
548.17	0.664
548.37	0.666
548.56	0.666
548.76	0.665
548.96	0.667
549.16	0.672
549.35	0.671
549.55	0.668
549.75	0.669
549.95	0.673
550.14	0.673
550.34	0.671
550.54	0.676
550.73	0.680
550.93	0.680
551.13	0.676
551.33	0.674
551.52	0.675
551.72	0.675
551.92	0.673
552.12	0.673
552.31	0.674
552.51	0.674
552.71	0.669
552.90	0.668
553.10	0.669
553.30	0.670
553.50	0.669
553.69	0.670
553.89	0.671
554.09	0.671
554.28	0.668
554.48	0.669
554.68	0.672
554.87	0.673
555.07	0.670
555.27	0.670
555.47	0.671
555.66	0.673
555.86	0.671
556.06	0.673
556.25	0.675
556.45	0.683
556.65	0.680
556.84	0.683
557.04	0.686
557.24	0.688
557.43	0.687
557.63	0.689
557.83	0.691
558.02	0.691
558.22	0.694
558.42	0.694
558.61	0.687
558.81	0.687
559.01	0.683
559.21	0.683
559.40	0.684
559.60	0.684
559.80	0.680
559.99	0.681
560.19	0.684
560.39	0.678
560.58	0.676
560.78	0.677
560.97	0.681
561.17	0.680
561.37	0.676
561.56	0.677
561.76	0.680
561.96	0.679
562.15	0.677
562.35	0.679
562.55	0.681
562.74	0.681
562.94	0.680
563.14	0.678
563.33	0.679
563.53	0.679
563.73	0.677
563.92	0.679
564.12	0.682
564.31	0.685
564.51	0.682
564.71	0.683
564.90	0.687
565.10	0.687
565.30	0.690
565.49	0.690
565.69	0.693
565.89	0.693
566.08	0.689
566.28	0.691
566.47	0.693
566.67	0.690
566.87	0.686
567.06	0.687
567.26	0.694
567.46	0.690
567.65	0.688
567.85	0.689
568.04	0.693
568.24	0.691
568.44	0.688
568.63	0.686
568.83	0.687
569.02	0.686
569.22	0.681
569.42	0.678
569.61	0.680
569.81	0.678
570.00	0.676
570.20	0.678
570.40	0.680
570.59	0.679
570.79	0.677
570.98	0.675
571.18	0.677
571.38	0.677
571.57	0.673
571.77	0.671
571.96	0.675
572.16	0.672
572.35	0.666
572.55	0.667
572.75	0.666
572.94	0.666
573.14	0.665
573.33	0.665
573.53	0.667
573.73	0.666
573.92	0.664
574.12	0.662
574.31	0.664
574.51	0.665
574.70	0.662
574.90	0.663
575.09	0.666
575.29	0.666
575.49	0.663
575.68	0.664
575.88	0.666
576.07	0.667
576.27	0.665
576.46	0.664
576.66	0.664
576.86	0.663
577.05	0.660
577.25	0.659
577.44	0.661
577.64	0.660
577.83	0.658
578.03	0.659
578.22	0.659
578.42	0.658
578.61	0.656
578.81	0.657
579.00	0.658
579.20	0.658
579.40	0.656
579.59	0.655
579.79	0.657
579.98	0.656
580.18	0.655
580.37	0.656
580.57	0.659
580.76	0.664
580.96	0.661
581.15	0.662
581.35	0.664
581.54	0.663
581.74	0.662
581.93	0.663
582.13	0.665
582.32	0.662
582.52	0.661
582.71	0.660
582.91	0.656
583.10	0.657
583.30	0.655
583.49	0.655
583.69	0.659
583.88	0.660
584.08	0.659
584.27	0.661
584.47	0.665
584.66	0.665
584.86	0.663
585.05	0.664
585.25	0.667
585.44	0.666
585.64	0.664
585.83	0.661
586.03	0.662
586.22	0.661
586.42	0.657
586.61	0.658
586.81	0.662
587.00	0.662
587.20	0.660
587.39	0.661
587.59	0.664
587.78	0.665
587.98	0.665
588.17	0.666
588.37	0.669
588.56	0.671
588.76	0.666
588.95	0.666
589.15	0.671
589.34	0.674
589.54	0.671
589.73	0.671
589.92	0.674
590.12	0.673
590.31	0.671
590.51	0.675
590.70	0.676
590.90	0.676
591.09	0.673
591.29	0.672
591.48	0.672
591.68	0.673
591.87	0.671
592.06	0.670
592.26	0.673
592.45	0.672
592.65	0.666
592.84	0.666
593.04	0.670
593.23	0.672
593.43	0.669
593.62	0.669
593.81	0.670
594.01	0.670
594.20	0.668
594.40	0.667
594.59	0.670
594.79	0.671
594.98	0.669
595.17	0.669
595.37	0.669
595.56	0.671
595.76	0.669
595.95	0.671
596.14	0.674
596.34	0.675
596.53	0.672
596.73	0.673
596.92	0.674
597.12	0.677
597.31	0.675
597.50	0.675
597.70	0.678
597.89	0.677
598.09	0.673
598.28	0.674
598.47	0.677
598.67	0.676
598.86	0.672
599.06	0.674
599.25	0.675
599.44	0.674
599.64	0.672
599.83	0.670
600.03	0.674
600.22	0.674
600.41	0.674
600.61	0.671
600.80	0.675
601.00	0.676
601.19	0.672
601.38	0.670
601.58	0.673
601.77	0.673
601.96	0.675
602.16	0.675
602.35	0.685
602.55	0.682
602.74	0.683
602.93	0.683
603.13	0.688
603.32	0.689
603.51	0.688
603.71	0.691
603.90	0.693
604.09	0.693
604.29	0.689
604.48	0.684
604.68	0.686
604.87	0.684
605.06	0.680
605.26	0.677
605.45	0.679
605.64	0.679
605.84	0.673
606.03	0.673
606.22	0.672
606.42	0.672
606.61	0.668
606.80	0.668
607.00	0.671
607.19	0.672
607.38	0.670
607.58	0.672
607.77	0.675
607.96	0.675
608.16	0.674
608.35	0.679
608.54	0.683
608.74	0.687
608.93	0.691
609.12	0.694
609.32	0.696
609.51	0.700
609.70	0.697
609.90	0.699
610.09	0.704
610.28	0.709
610.48	0.701
610.67	0.702
610.86	0.702
611.06	0.696
611.25	0.693
611.44	0.693
611.64	0.693
611.83	0.696
612.02	0.690
612.21	0.689
612.41	0.688
612.60	0.687
612.79	0.683
612.99	0.684
613.18	0.686
613.37	0.684
613.57	0.681
613.76	0.684
613.95	0.683
614.14	0.683
614.34	0.680
614.53	0.681
614.72	0.685
614.92	0.685
615.11	0.682
615.30	0.681
615.49	0.683
615.69	0.686
615.88	0.682
616.07	0.683
616.26	0.686
616.46	0.688
616.65	0.684
616.84	0.683
617.04	0.685
617.23	0.689
617.42	0.688
617.61	0.693
617.81	0.695
618.00	0.697
618.19	0.694
618.38	0.697
618.58	0.701
618.77	0.702
618.96	0.700
619.15	0.702
619.35	0.704
619.54	0.704
619.73	0.698
619.92	0.699
620.12	0.704
620.31	0.704
620.50	0.699
620.69	0.699
620.89	0.703
621.08	0.703
621.27	0.703
621.46	0.701
621.66	0.706
621.85	0.706
622.04	0.701
622.23	0.702
622.43	0.704
622.62	0.703
622.81	0.701
623.00	0.700
623.19	0.706
623.39	0.704
623.58	0.700
623.77	0.699
623.96	0.702
624.16	0.702
624.35	0.697
624.54	0.701
624.73	0.706
624.92	0.704
625.12	0.701
625.31	0.701
625.50	0.705
625.69	0.706
625.88	0.702
626.08	0.702
626.27	0.704
626.46	0.705
626.65	0.701
626.84	0.701
627.04	0.708
627.23	0.708
627.42	0.703
627.61	0.705
627.80	0.709
628.00	0.710
628.19	0.707
628.38	0.712
628.57	0.715
628.76	0.714
628.96	0.709
629.15	0.711
629.34	0.714
629.53	0.715
629.72	0.708
629.91	0.708
630.11	0.714
630.30	0.714
630.49	0.715
630.68	0.716
630.87	0.720
631.06	0.723
631.26	0.717
631.45	0.719
631.64	0.728
631.83	0.730
632.02	0.727
632.21	0.727
632.41	0.736
632.60	0.729
632.79	0.726
632.98	0.726
633.17	0.728
633.36	0.729
633.55	0.725
633.75	0.721
633.94	0.724
634.13	0.724
634.32	0.719
634.51	0.713
634.70	0.717
634.89	0.718
635.09	0.712
635.28	0.714
635.47	0.716
635.66	0.719
635.85	0.714
636.04	0.715
636.23	0.721
636.43	0.723
636.62	0.721
636.81	0.720
637.00	0.725
637.19	0.729
637.38	0.724
637.57	0.723
637.76	0.726
637.95	0.727
638.15	0.722
638.34	0.719
638.53	0.724
638.72	0.726
638.91	0.721
639.10	0.718
639.29	0.719
639.48	0.720
639.67	0.719
639.87	0.716
640.06	0.723
640.25	0.722
640.44	0.722
640.63	0.722
640.82	0.725
641.01	0.724
641.20	0.723
641.39	0.724
641.58	0.728
641.78	0.727
641.97	0.723
642.16	0.737
642.35	0.739
642.54	0.737
642.73	0.731
642.92	0.730
643.11	0.735
643.30	0.735
643.49	0.729
643.68	0.732
643.87	0.735
644.06	0.736
644.25	0.713
644.45	0.717
644.64	0.720
644.83	0.722
645.02	0.717
645.21	0.716
645.40	0.719
645.59	0.719
645.78	0.711
645.97	0.713
646.16	0.714
646.35	0.714
646.54	0.710
646.73	0.710
646.92	0.713
647.11	0.712
647.30	0.706
647.49	0.707
647.68	0.708
647.88	0.707
648.07	0.698
648.26	0.700
648.45	0.702
648.64	0.699
648.83	0.696
649.02	0.697
649.21	0.710
649.40	0.710
649.59	0.704
649.78	0.706
649.97	0.721
650.16	0.722
650.35	0.716
650.54	0.719
650.73	0.729
650.92	0.726
651.11	0.718
651.30	0.714
651.49	0.720
651.68	0.721
651.87	0.715
652.06	0.704
652.25	0.707
652.44	0.708
652.63	0.702
652.82	0.699
653.01	0.698
653.20	0.696
653.39	0.682
653.58	0.679
653.77	0.679
653.96	0.674
654.15	0.666
654.34	0.664
654.53	0.660
654.72	0.656
654.91	0.647
655.10	0.643
655.29	0.643
655.48	0.642
655.67	0.637
655.86	0.634
656.05	0.633
656.24	0.634
656.43	0.629
656.62	0.628
656.81	0.630
657.00	0.630
657.19	0.629
657.38	0.629
657.57	0.630
657.76	0.633
657.95	0.631
658.14	0.636
658.33	0.639
658.51	0.645
658.70	0.645
658.89	0.645
659.08	0.653
659.27	0.659
659.46	0.658
659.65	0.665
659.84	0.669
660.03	0.672
660.22	0.671
660.41	0.675
660.60	0.676
660.79	0.677
660.98	0.683
661.17	0.682
661.36	0.681
661.55	0.681
661.74	0.678
661.92	0.680
662.11	0.683
662.30	0.682
662.49	0.675
662.68	0.674
662.87	0.678
663.06	0.671
663.25	0.671
663.44	0.672
663.63	0.674
663.82	0.672
664.01	0.666
664.20	0.665
664.38	0.667
664.57	0.668
664.76	0.667
664.95	0.668
665.14	0.674
665.33	0.669
665.52	0.676
665.71	0.679
665.90	0.680
666.09	0.682
666.28	0.679
666.46	0.679
666.65	0.681
666.84	0.679
667.03	0.672
667.22	0.670
667.41	0.674
667.60	0.663
667.79	0.656
667.98	0.657
668.16	0.659
668.35	0.658
668.54	0.652
668.73	0.652
668.92	0.654
669.11	0.652
669.30	0.645
669.49	0.641
669.67	0.643
669.86	0.646
670.05	0.643
670.24	0.640
670.43	0.638
670.62	0.637
670.81	0.632
671.00	0.633
671.18	0.634
671.37	0.634
671.56	0.631
671.75	0.631
671.94	0.628
672.13	0.626
672.32	0.620
672.50	0.620
672.69	0.622
672.88	0.622
673.07	0.617
673.26	0.619
673.45	0.621
673.63	0.620
673.82	0.616
674.01	0.618
674.20	0.618
674.39	0.617
674.58	0.615
674.76	0.615
674.95	0.614
675.14	0.614
675.33	0.608
675.52	0.606
675.71	0.607
675.89	0.606
676.08	0.601
676.27	0.601
676.46	0.602
676.65	0.601
676.84	0.600
677.02	0.601
677.21	0.604
677.40	0.603
677.59	0.601
677.78	0.602
677.96	0.606
678.15	0.605
678.34	0.602
678.53	0.603
678.72	0.603
678.90	0.600
679.09	0.596
679.28	0.592
679.47	0.593
679.66	0.592
679.84	0.587
680.03	0.585
680.22	0.585
680.41	0.587
680.60	0.583
680.78	0.583
680.97	0.587
681.16	0.586
681.35	0.584
681.53	0.583
681.72	0.585
681.91	0.587
682.10	0.584
682.29	0.587
682.47	0.584
682.66	0.584
682.85	0.582
683.04	0.580
683.22	0.581
683.41	0.583
683.60	0.581
683.79	0.582
683.97	0.582
684.16	0.581
684.35	0.576
684.54	0.578
684.72	0.579
684.91	0.579
685.10	0.577
685.29	0.578
685.47	0.576
685.66	0.575
685.85	0.571
686.04	0.571
686.22	0.574
686.41	0.577
686.60	0.573
686.79	0.576
686.97	0.578
687.16	0.579
687.35	0.576
687.54	0.579
687.72	0.584
687.91	0.584
688.10	0.584
688.29	0.584
688.47	0.583
688.66	0.582
688.85	0.577
689.03	0.575
689.22	0.579
689.41	0.579
689.60	0.575
689.78	0.571
689.97	0.573
690.16	0.570
690.34	0.565
690.53	0.565
690.72	0.567
690.91	0.564
691.09	0.562
691.28	0.557
691.47	0.555
691.65	0.554
691.84	0.551
692.03	0.550
692.21	0.548
692.40	0.548
692.59	0.545
692.77	0.544
692.96	0.547
693.15	0.547
693.34	0.544
693.52	0.545
693.71	0.545
693.90	0.546
694.08	0.547
694.27	0.549
694.46	0.559
694.64	0.560
694.83	0.559
695.02	0.557
695.20	0.558
695.39	0.558
695.58	0.557
695.76	0.558
695.95	0.558
696.14	0.557
696.32	0.554
696.51	0.544
696.70	0.544
696.88	0.545
697.07	0.544
697.26	0.545
697.44	0.547
697.63	0.546
697.81	0.543
698.00	0.542
698.19	0.542
698.37	0.542
698.56	0.541
698.75	0.542
698.93	0.541
699.12	0.540
699.31	0.539
699.49	0.538
699.68	0.540
699.87	0.542
700.05	0.541
700.24	0.540
700.42	0.542
700.61	0.541
700.80	0.538
700.98	0.539
701.17	0.541
701.36	0.539
701.54	0.538
701.73	0.540
701.91	0.538
702.10	0.537
702.29	0.535
702.47	0.534
702.66	0.537
702.84	0.538
703.03	0.536
703.22	0.538
703.40	0.538
703.59	0.539
703.77	0.538
703.96	0.539
704.15	0.540
704.33	0.540
704.52	0.538
704.70	0.538
704.89	0.538
705.08	0.536
705.26	0.531
705.45	0.532
705.63	0.532
705.82	0.529
706.00	0.527
706.19	0.526
706.38	0.526
706.56	0.525
706.75	0.522
706.93	0.520
707.12	0.523
707.30	0.524
707.49	0.521
707.68	0.519
707.86	0.519
708.05	0.519
708.23	0.516
708.42	0.517
708.60	0.520
708.79	0.520
708.98	0.519
709.16	0.518
709.35	0.520
709.53	0.524
709.72	0.522
709.90	0.524
710.09	0.526
710.27	0.528
710.46	0.531
710.64	0.529
710.83	0.532
711.02	0.533
711.20	0.531
711.39	0.529
711.57	0.527
711.76	0.528
711.94	0.525
712.13	0.526
712.31	0.526
712.50	0.520
712.68	0.517
712.87	0.517
713.05	0.518
713.24	0.518
713.42	0.518
713.61	0.518
713.79	0.518
713.98	0.519
714.16	0.520
714.35	0.520
714.54	0.522
714.72	0.522
714.91	0.519
715.09	0.526
715.28	0.529
715.46	0.529
715.65	0.526
715.83	0.527
716.02	0.529
716.20	0.526
716.39	0.525
716.57	0.526
716.76	0.528
716.94	0.529
717.12	0.520
717.31	0.522
717.49	0.525
717.68	0.527
717.86	0.526
718.05	0.528
718.23	0.532
718.42	0.534
718.60	0.535
718.79	0.544
718.97	0.548
719.16	0.549
719.34	0.546
719.53	0.546
719.71	0.546
719.90	0.548
720.08	0.543
720.27	0.543
720.45	0.543
720.63	0.541
720.82	0.534
721.00	0.536
721.19	0.540
721.37	0.540
721.56	0.539
721.74	0.543
721.93	0.552
722.11	0.558
722.30	0.556
722.48	0.561
722.66	0.563
722.85	0.563
723.03	0.562
723.22	0.559
723.40	0.564
723.59	0.564
723.77	0.567
723.95	0.562
724.14	0.566
724.32	0.569
724.51	0.567
724.69	0.568
724.88	0.568
725.06	0.566
725.24	0.568
725.43	0.569
725.61	0.572
725.80	0.565
725.98	0.561
726.16	0.557
726.35	0.563
726.53	0.562
726.72	0.559
726.90	0.571
727.09	0.572
727.27	0.577
727.45	0.573
727.64	0.582
727.82	0.592
728.01	0.597
728.19	0.593
728.37	0.598
728.56	0.603
728.74	0.610
728.92	0.597
729.11	0.600
729.29	0.601
729.48	0.602
729.66	0.590
729.84	0.591
730.03	0.595
730.21	0.597
730.40	0.586
730.58	0.587
730.76	0.589
730.95	0.591
731.13	0.590
731.31	0.602
731.50	0.614
731.68	0.616
731.86	0.609
732.05	0.624
732.23	0.628
732.42	0.632
732.60	0.634
732.78	0.639
732.97	0.659
733.15	0.666
733.33	0.653
733.52	0.659
733.70	0.673
733.88	0.684
734.07	0.667
734.25	0.695
734.43	0.706
734.62	0.708
734.80	0.700
734.98	0.690
735.17	0.700
735.35	0.707
735.53	0.695
735.72	0.696
735.90	0.722
736.08	0.744
736.27	0.717
736.45	0.726
736.63	0.742
736.82	0.754
737.00	0.752
737.18	0.764
737.37	0.799
737.55	0.824
737.73	0.816
737.92	0.821
738.10	0.818
738.28	0.840
738.46	0.823
738.65	0.837
738.83	0.864
739.01	0.924
739.20	0.909
739.38	0.892
739.56	0.886
739.75	0.896
739.93	0.850
740.11	0.881
740.29	0.882
740.48	0.889
740.66	0.861
740.84	0.857
741.03	0.823
741.21	0.835
741.39	0.811
741.57	0.826
741.76	0.849
741.94	0.857
742.12	0.810
742.31	0.820
742.49	0.846
742.67	0.871
742.85	0.881
743.04	0.882
743.22	0.900
743.40	0.958
743.58	0.933
743.77	0.949
743.95	0.992
744.13	1.059
744.31	1.031
744.50	1.024
744.68	1.038
744.86	1.007
745.04	1.015
745.23	1.091
745.41	1.085
745.59	1.087
745.77	1.038
745.96	1.021
746.14	1.040
746.32	1.038
746.50	1.018
746.69	0.990
746.87	1.010
747.05	0.994
747.23	0.901
747.42	0.885
747.60	0.932
747.78	0.938
747.96	0.970
748.14	0.916
748.33	0.953
748.51	0.955
748.69	0.946
748.87	0.982
749.06	0.991
749.24	0.994
749.42	0.969
749.60	0.939
749.78	0.959
749.97	0.908
750.15	0.898
750.33	0.900
750.51	0.931
750.69	0.935
750.88	0.934
751.06	0.943
751.24	0.983
751.42	0.970
751.60	0.953
751.79	1.039
751.97	1.100
752.15	1.094
752.33	1.047
752.51	1.128
752.69	1.159
752.88	1.106
753.06	1.153
753.24	1.119
753.42	1.178
753.60	1.428
753.78	1.190
753.97	1.210
754.15	1.245
754.33	1.285
754.51	1.107
754.69	1.088
754.87	1.140
755.06	1.048
755.24	1.039
755.42	1.045
755.60	0.936
755.78	0.948
755.96	0.886
756.15	0.889
756.33	0.897
756.51	0.918
756.69	0.898
756.87	0.861
757.05	0.891
757.23	0.873
757.42	0.833
757.60	0.828
757.78	0.821
757.96	0.819
758.14	0.796
758.32	0.781
758.50	0.802
758.69	0.800
758.87	0.787
759.05	0.788
759.23	0.804
759.41	0.804
759.59	0.795
759.77	0.819
759.95	0.854
760.13	0.913
760.32	0.907
760.50	0.900
760.68	0.935
760.86	0.933
761.04	0.900
761.22	0.901
761.40	0.965
761.58	0.964
761.76	0.927
761.95	0.902
762.13	0.854
762.31	0.851
762.49	0.812
762.67	0.829
762.85	0.851
763.03	0.842
763.21	0.818
763.39	0.800
763.57	0.806
763.75	0.801
763.94	0.782
764.12	0.783
764.30	0.815
764.48	0.822
764.66	0.778
764.84	0.773
765.02	0.822
765.20	0.829
765.38	0.802
765.56	0.811
765.74	0.857
765.92	0.857
766.10	0.862
766.28	0.856
766.46	0.893
766.65	0.896
766.83	0.881
767.01	0.861
767.19	0.877
767.37	0.873
767.55	0.853
767.73	0.834
767.91	0.843
768.09	0.830
768.27	0.816
768.45	0.799
768.63	0.805
768.81	0.806
768.99	0.773
769.17	0.798
769.35	0.822
769.53	0.818
769.71	0.791
769.89	0.805
770.07	0.812
770.25	0.791
770.43	0.766
770.61	0.797
770.79	0.806
770.97	0.819
771.15	0.780
771.33	0.781
771.51	0.789
771.69	0.802
771.87	0.804
772.05	0.812
772.24	0.826
772.42	0.838
772.60	0.810
772.78	0.876
772.96	0.912
773.14	0.908
773.32	0.879
773.49	0.889
773.67	0.895
773.85	0.868
774.03	0.850
774.21	0.884
774.39	0.902
774.57	0.925
774.75	0.839
774.93	0.836
775.11	0.867
775.29	0.875
775.47	0.867
775.65	0.877
775.83	0.904
776.01	0.931
776.19	0.876
776.37	0.876
776.55	0.878
776.73	0.871
776.91	0.861
777.09	0.839
777.27	0.843
777.45	0.833
777.63	0.802
777.81	0.800
777.99	0.792
778.17	0.789
778.35	0.764
778.53	0.756
778.71	0.770
778.89	0.754
779.07	0.740
779.24	0.746
779.42	0.750
779.60	0.772
779.78	0.763
779.96	0.768
780.14	0.782
780.32	0.802
780.50	0.776
780.68	0.772
780.86	0.771
781.04	0.792
781.22	0.792
781.40	0.805
781.58	0.799
781.75	0.790
781.93	0.769
782.11	0.768
782.29	0.758
782.47	0.760
782.65	0.746
782.83	0.776
783.01	0.772
783.19	0.764
783.37	0.744
783.55	0.746
783.72	0.768
783.90	0.776
784.08	0.762
784.26	0.775
784.44	0.797
784.62	0.798
784.80	0.757
784.98	0.761
785.16	0.770
785.33	0.787
785.51	0.765
785.69	0.752
785.87	0.755
786.05	0.768
786.23	0.761
786.41	0.761
786.59	0.769
786.77	0.771
786.94	0.753
787.12	0.754
787.30	0.762
787.48	0.757
787.66	0.739
787.84	0.739
788.02	0.732
788.19	0.728
788.37	0.708
788.55	0.711
788.73	0.712
788.91	0.707
789.09	0.691
789.27	0.677
789.44	0.694
789.62	0.703
789.80	0.713
789.98	0.741
790.16	0.729
790.34	0.727
790.51	0.711
790.69	0.734
790.87	0.743
791.05	0.736
791.23	0.728
791.41	0.727
791.58	0.738
791.76	0.713
791.94	0.677
792.12	0.687
792.30	0.691
792.48	0.689
792.65	0.679
792.83	0.685
793.01	0.698
793.19	0.695
793.37	0.676
793.54	0.671
793.72	0.684
793.90	0.682
794.08	0.670
794.26	0.672
794.43	0.685
794.61	0.667
794.79	0.654
794.97	0.652
795.15	0.661
795.32	0.665
795.50	0.651
795.68	0.647
795.86	0.652
796.04	0.653
796.21	0.646
796.39	0.643
796.57	0.660
796.75	0.668
796.92	0.667
797.10	0.670
797.28	0.676
797.46	0.681
797.64	0.678
797.81	0.689
797.99	0.696
798.17	0.700
798.35	0.690
798.52	0.694
798.70	0.691
798.88	0.701
799.06	0.697
799.23	0.699
799.41	0.710
799.59	0.703
799.77	0.687
799.94	0.697
800.12	0.709
800.30	0.732
800.48	0.728
800.65	0.726
800.83	0.717
801.01	0.710
801.19	0.708
801.36	0.705
801.54	0.712
801.72	0.721
801.90	0.704
802.07	0.698
802.25	0.683
802.43	0.665
802.60	0.662
802.78	0.669
802.96	0.675
803.14	0.668
803.31	0.663
803.49	0.663
803.67	0.663
803.84	0.667
804.02	0.655
804.20	0.657
804.38	0.666
804.55	0.665
804.73	0.648
804.91	0.647
805.08	0.663
805.26	0.660
805.44	0.721
805.61	0.725
805.79	0.728
805.97	0.728
806.15	0.717
806.32	0.713
806.50	0.722
806.68	0.721
806.85	0.709
807.03	0.699
807.21	0.717
807.38	0.650
807.56	0.636
807.74	0.645
807.91	0.655
808.09	0.657
808.27	0.673
808.44	0.702
808.62	0.716
808.80	0.718
808.97	0.712
809.15	0.706
809.33	0.729
809.50	0.737
809.68	0.721
809.86	0.727
810.03	0.766
810.21	0.744
810.39	0.722
810.56	0.729
810.74	0.758
810.91	0.839
811.09	0.822
811.27	0.847
811.44	0.857
811.62	0.857
811.80	0.834
811.97	0.802
812.15	0.804
812.33	0.797
812.50	0.776
812.68	0.764
812.85	0.706
813.03	0.710
813.21	0.672
813.38	0.664
813.56	0.671
813.74	0.681
813.91	0.684
814.09	0.717
814.26	0.711
814.44	0.714
814.62	0.701
814.79	0.705
814.97	0.712
815.14	0.718
815.32	0.725
815.50	0.742
815.67	0.750
815.85	0.741
816.02	0.727
816.20	0.739
816.38	0.759
816.55	0.766
816.73	0.760
816.90	0.771
817.08	0.809
817.26	0.812
817.43	0.785
817.61	0.808
817.78	0.836
817.96	0.813
818.13	0.797
818.31	0.797
818.49	0.816
818.66	0.808
818.84	0.787
819.01	0.762
819.19	0.772
819.36	0.775
819.54	0.742
819.71	0.785
819.89	0.805
820.07	0.818
820.24	0.807
820.42	0.810
820.59	0.835
820.77	0.863
820.94	0.850
821.12	0.872
821.29	0.893
821.47	0.891
821.64	0.818
821.82	0.834
822.00	0.833
822.17	0.829
822.35	0.814
822.52	0.819
822.70	0.811
822.87	0.823
823.05	0.793
823.22	0.810
823.40	0.850
823.57	0.874
823.75	0.844
823.92	0.882
824.10	0.913
824.27	0.967
824.45	0.944
824.62	1.030
824.80	1.059
824.97	1.080
825.15	1.061
825.32	1.077
825.50	1.089
825.67	1.107
825.85	1.066
826.02	1.096
826.20	1.140
826.37	1.361
826.55	1.202
826.72	1.589
826.90	1.963
827.07	2.288
827.25	1.890
827.42	-0.000
827.60	-0.000
827.77	-0.000
827.95	-0.000
828.12	-0.000
828.30	-0.000
828.47	-0.000
828.65	1.917
828.82	2.186
829.00	-0.000
829.17	-0.000
829.34	-0.000
829.52	-0.000
829.69	-0.000
829.87	-0.000
830.04	-0.000
830.22	-0.000
830.39	-0.000
830.57	-0.000
830.74	-0.000
830.92	-0.000
831.09	-0.000
831.26	-0.000
831.44	-0.000
831.61	-0.000
831.79	-0.000
831.96	-0.000
832.14	-0.000
832.31	-0.000
832.49	-0.000
832.66	-0.000
832.83	-0.000
833.01	-0.000
833.18	-0.000
833.36	-0.000
833.53	-0.000
833.70	-0.000
833.88	-0.000
834.05	-0.000
834.23	-0.000
834.40	-0.000
834.58	-0.000
834.75	-0.000
834.92	-0.000
835.10	-0.000
835.27	-0.000
835.45	-0.000
835.62	-0.000
835.79	-0.000
835.97	-0.000
836.14	-0.000
836.32	-0.000
836.49	-0.000
836.66	-0.000
836.84	-0.000
837.01	-0.000
837.18	-0.000
837.36	-0.000
837.53	-0.000
837.71	-0.000
837.88	-0.000
838.05	-0.000
838.23	-0.000
838.40	-0.000
838.58	-0.000
838.75	-0.000
838.92	-0.000
839.10	-0.000
839.27	-0.000
839.44	-0.000
839.62	-0.000
839.79	-0.000
839.96	-0.000
840.14	-0.000
840.31	-0.000
840.48	-0.000
840.66	-0.000
840.83	-0.000
841.01	-0.000
841.18	-0.000
841.35	-0.000
841.53	-0.000
841.70	-0.000
841.87	-0.000
842.05	-0.000
842.22	-0.000
842.39	-0.000
842.57	-0.000
842.74	-0.000
842.91	-0.000
843.09	-0.000
843.26	-0.000
843.43	-0.000
843.60	-0.000
843.78	-0.000
843.95	-0.000
844.12	-0.000
844.30	-0.000
844.47	-0.000
844.64	-0.000
844.82	-0.000
844.99	-0.000
845.16	-0.000
845.34	-0.000
845.51	-0.000
845.68	-0.000
845.85	-0.000
846.03	-0.000
846.20	-0.000
846.37	-0.000
846.55	-0.000
846.72	-0.000
846.89	-0.000
847.06	-0.000
847.24	-0.000
847.41	-0.000
847.58	-0.000
847.76	-0.000
847.93	-0.000
848.10	-0.000
848.27	-0.000
848.45	-0.000
848.62	-0.000
848.79	-0.000
848.97	-0.000
849.14	-0.000
849.31	-0.000
849.48	-0.000
849.66	-0.000
849.83	-0.000
850.00	-0.000
850.17	-0.000
850.35	-0.000
850.52	-0.000
850.69	-0.000
850.86	-0.000
851.04	-0.000
851.21	-0.000
851.38	-0.000
851.55	-0.000
851.72	-0.000
851.90	-0.000
852.07	-0.000
852.24	-0.000
852.41	-0.000
852.59	-0.000
852.76	-0.000
852.93	-0.000
853.10	-0.000
853.28	-0.000
853.45	-0.000
853.62	-0.000
853.79	-0.000
853.96	-0.000
854.14	-0.000
854.31	-0.000
854.48	-0.000
854.65	-0.000
854.82	-0.000
855.00	-0.000
855.17	-0.000
855.34	-0.000
855.51	-0.000
855.68	-0.000
855.86	-0.000
856.03	-0.000
856.20	-0.000
856.37	-0.000
856.54	-0.000
856.72	-0.000
856.89	-0.000
857.06	-0.000
857.23	-0.000
857.40	-0.000
857.57	-0.000
857.75	-0.000
857.92	-0.000
858.09	-0.000
858.26	-0.000
858.43	-0.000
858.60	-0.000
858.78	-0.000
858.95	-0.000
859.12	-0.000
859.29	-0.000
859.46	-0.000
859.63	-0.000
859.81	-0.000
859.98	-0.000
860.15	-0.000
860.32	-0.000
860.49	-0.000
860.66	-0.000
860.83	-0.000
861.01	-0.000
861.18	-0.000
861.35	-0.000
861.52	-0.000
861.69	-0.000
861.86	-0.000
862.03	-0.000
862.21	-0.000
862.38	-0.000
862.55	-0.000
862.72	-0.000
862.89	-0.000
863.06	-0.000
863.23	-0.000
863.40	-0.000
863.58	-0.000
863.75	-0.000
863.92	-0.000
864.09	-0.000
864.26	-0.000
864.43	-0.000
864.60	-0.000
864.77	-0.000
864.94	-0.000
865.11	-0.000
865.29	-0.000
865.46	-0.000
865.63	-0.000
865.80	-0.000
865.97	-0.000
866.14	-0.000
866.31	-0.000
866.48	-0.000
866.65	-0.000
866.82	-0.000
866.99	-0.000
867.16	-0.000
867.34	-0.000
867.51	-0.000
867.68	-0.000
867.85	-0.000
868.02	-0.000
868.19	-0.000
868.36	-0.000
868.53	-0.000
868.70	-0.000
868.87	-0.000
869.04	-0.000
869.21	-0.000
869.38	-0.000
869.55	-0.000
869.72	-0.000
869.89	-0.000
870.06	-0.000
870.24	-0.000
870.41	-0.000
870.58	-0.000
870.75	-0.000
870.92	-0.000
871.09	-0.000
871.26	-0.000
871.43	-0.000
871.60	-0.000
871.77	-0.000
871.94	-0.000
872.11	-0.000
872.28	-0.000
872.45	-0.000
872.62	-0.000
872.79	-0.000
872.96	-0.000
873.13	-0.000
873.30	-0.000
873.47	-0.000
873.64	-0.000
873.81	-0.000
873.98	-0.000
874.15	-0.000
874.32	-0.000
874.49	-0.000
874.66	-0.000
874.83	-0.000
875.00	-0.000
875.17	-0.000
875.34	-0.000
875.51	-0.000
875.68	-0.000
875.85	-0.000
876.02	-0.000
876.19	-0.000
876.36	-0.000
876.53	-0.000
876.70	-0.000
876.87	-0.000
877.04	-0.000
877.21	-0.000
877.38	-0.000
877.55	-0.000
877.72	-0.000
877.89	-0.000
878.06	-0.000
878.23	-0.000
878.39	-0.000
878.56	-0.000
878.73	-0.000
878.90	-0.000
879.07	-0.000
879.24	-0.000
879.41	-0.000
879.58	-0.000
879.75	-0.000
879.92	-0.000
880.09	-0.000
880.26	-0.000
880.43	-0.000
880.60	-0.000
880.77	-0.000
880.94	-0.000
881.11	-0.000
881.27	-0.000
881.44	-0.000
881.61	-0.000
881.78	-0.000
881.95	-0.000
882.12	-0.000
882.29	-0.000
882.46	-0.000
882.63	-0.000
882.80	-0.000
882.97	-0.000
883.14	-0.000
883.30	-0.000
883.47	-0.000
883.64	-0.000
883.81	-0.000
883.98	-0.000
884.15	-0.000
884.32	-0.000
884.49	-0.000
884.66	-0.000
884.82	-0.000
884.99	-0.000
885.16	-0.000
885.33	-0.000
885.50	-0.000
885.67	-0.000
885.84	-0.000
886.01	-0.000
886.17	-0.000
886.34	-0.000
886.51	-0.000
886.68	-0.000
886.85	-0.000
887.02	-0.000
887.19	-0.000
887.36	-0.000
887.52	-0.000
887.69	-0.000
887.86	-0.000
888.03	-0.000
888.20	-0.000
888.37	-0.000
888.54	-0.000
888.70	-0.000
888.87	-0.000
889.04	-0.000
889.21	-0.000
889.38	-0.000
889.55	-0.000
889.71	-0.000
889.88	-0.000
890.05	-0.000
890.22	-0.000
890.39	-0.000
>>>>>End Processed Spectral Data<<<<<
