SpectraSuite Data File
++++++++++++++++++++++++++++++++++++
Date: Fri Jun 19 17:04:00 CEST 2015
User: introlabs
Dark Spectrum Present: Yes
Reference Spectrum Present: Yes
Number of Sampled Component Spectra: 1
Spectrometers: USB4H08886
Integration Time (usec): 745692 (USB4H08886)
Spectra Averaged: 5 (USB4H08886)
Boxcar Smoothing: 5 (USB4H08886)
Correct for Electrical Dark: Yes (USB4H08886)
Strobe/Lamp Enabled: No (USB4H08886)
Correct for Detector Non-linearity: Yes (USB4H08886)
Correct for Stray Light: Yes (USB4H08886)
Number of Pixels in Processed Spectrum: 3648
>>>>>Begin Processed Spectral Data<<<<<
178.14	-0.000
178.36	-0.000
178.57	-0.000
178.79	-0.000
179.01	-0.000
179.22	-0.000
179.44	-0.000
179.65	-0.000
179.87	-0.000
180.08	-0.000
180.30	-0.000
180.52	-0.000
180.73	-0.000
180.95	-0.000
181.16	-0.000
181.38	-0.000
181.59	-0.000
181.81	-0.000
182.03	-0.000
182.24	-0.000
182.46	-0.000
182.67	-0.000
182.89	-0.000
183.10	-0.000
183.32	-0.000
183.54	-0.000
183.75	-0.000
183.97	-0.000
184.18	-0.000
184.40	-0.000
184.61	-0.000
184.83	-0.000
185.04	-0.000
185.26	-0.000
185.48	-0.000
185.69	-0.000
185.91	-0.000
186.12	-0.000
186.34	-0.000
186.55	-0.000
186.77	-0.000
186.98	-0.000
187.20	-0.000
187.42	-0.000
187.63	-0.000
187.85	-0.000
188.06	-0.000
188.28	-0.000
188.49	-0.000
188.71	-0.000
188.92	-0.000
189.14	-0.000
189.36	-0.000
189.57	-0.000
189.79	-0.000
190.00	-0.000
190.22	-0.000
190.43	-0.000
190.65	-0.000
190.86	-0.000
191.08	-0.000
191.29	-0.000
191.51	-0.000
191.72	-0.000
191.94	-0.000
192.16	-0.000
192.37	-0.000
192.59	-0.000
192.80	-0.000
193.02	-0.000
193.23	-0.000
193.45	-0.000
193.66	-0.000
193.88	-0.000
194.09	-0.000
194.31	-0.000
194.52	-0.000
194.74	-0.000
194.95	-0.000
195.17	-0.000
195.38	-0.000
195.60	-0.000
195.81	-0.000
196.03	-0.000
196.25	-0.000
196.46	-0.000
196.68	-0.000
196.89	-0.000
197.11	-0.000
197.32	-0.000
197.54	-0.000
197.75	-0.000
197.97	-0.000
198.18	-0.000
198.40	-0.000
198.61	-0.000
198.83	-0.000
199.04	-0.000
199.26	-0.000
199.47	-0.000
199.69	-0.000
199.90	-0.000
200.12	-0.000
200.33	-0.000
200.55	-0.000
200.76	-0.000
200.98	-0.000
201.19	-0.000
201.41	-0.000
201.62	-0.000
201.84	-0.000
202.05	-0.000
202.27	-0.000
202.48	-0.000
202.70	-0.000
202.91	-0.000
203.13	-0.000
203.34	-0.000
203.56	-0.000
203.77	-0.000
203.99	-0.000
204.20	-0.000
204.42	-0.000
204.63	-0.000
204.85	-0.000
205.06	-0.000
205.28	-0.000
205.49	-0.000
205.71	-0.000
205.92	-0.000
206.14	-0.000
206.35	-0.000
206.56	-0.000
206.78	-0.000
206.99	-0.000
207.21	-0.000
207.42	-0.000
207.64	-0.000
207.85	-0.000
208.07	-0.000
208.28	-0.000
208.50	-0.000
208.71	-0.000
208.93	-0.000
209.14	-0.000
209.36	-0.000
209.57	-0.000
209.79	-0.000
210.00	-0.000
210.22	-0.000
210.43	-0.000
210.64	-0.000
210.86	-0.000
211.07	-0.000
211.29	-0.000
211.50	-0.000
211.72	-0.000
211.93	-0.000
212.15	-0.000
212.36	-0.000
212.58	-0.000
212.79	-0.000
213.01	-0.000
213.22	-0.000
213.43	-0.000
213.65	-0.000
213.86	-0.000
214.08	-0.000
214.29	-0.000
214.51	-0.000
214.72	-0.000
214.94	-0.000
215.15	-0.000
215.36	-0.000
215.58	-0.000
215.79	-0.000
216.01	-0.000
216.22	-0.000
216.44	-0.000
216.65	-0.000
216.87	-0.000
217.08	-0.000
217.29	-0.000
217.51	-0.000
217.72	-0.000
217.94	-0.000
218.15	-0.000
218.37	-0.000
218.58	-0.000
218.80	-0.000
219.01	-0.000
219.22	-0.000
219.44	-0.000
219.65	-0.000
219.87	-0.000
220.08	-0.000
220.30	-0.000
220.51	-0.000
220.72	-0.000
220.94	-0.000
221.15	-0.000
221.37	-0.000
221.58	-0.000
221.79	-0.000
222.01	-0.000
222.22	-0.000
222.44	-0.000
222.65	-0.000
222.87	-0.000
223.08	-0.000
223.29	-0.000
223.51	-0.000
223.72	-0.000
223.94	-0.000
224.15	-0.000
224.36	-0.000
224.58	-0.000
224.79	-0.000
225.01	-0.000
225.22	-0.000
225.44	-0.000
225.65	-0.000
225.86	-0.000
226.08	-0.000
226.29	-0.000
226.51	-0.000
226.72	-0.000
226.93	-0.000
227.15	-0.000
227.36	-0.000
227.58	-0.000
227.79	-0.000
228.00	-0.000
228.22	-0.000
228.43	-0.000
228.65	-0.000
228.86	-0.000
229.07	-0.000
229.29	-0.000
229.50	-0.000
229.72	-0.000
229.93	-0.000
230.14	-0.000
230.36	-0.000
230.57	-0.000
230.78	-0.000
231.00	-0.000
231.21	-0.000
231.43	-0.000
231.64	-0.000
231.85	-0.000
232.07	-0.000
232.28	-0.000
232.50	-0.000
232.71	-0.000
232.92	-0.000
233.14	-0.000
233.35	-0.000
233.56	-0.000
233.78	-0.000
233.99	-0.000
234.21	-0.000
234.42	-0.000
234.63	-0.000
234.85	-0.000
235.06	-0.000
235.27	-0.000
235.49	-0.000
235.70	-0.000
235.91	-0.000
236.13	-0.000
236.34	-0.000
236.56	-0.000
236.77	-0.000
236.98	-0.000
237.20	-0.000
237.41	-0.000
237.62	-0.000
237.84	-0.000
238.05	-0.000
238.26	-0.000
238.48	-0.000
238.69	-0.000
238.91	-0.000
239.12	-0.000
239.33	-0.000
239.55	-0.000
239.76	-0.000
239.97	-0.000
240.19	-0.000
240.40	-0.000
240.61	-0.000
240.83	-0.000
241.04	-0.000
241.25	-0.000
241.47	-0.000
241.68	-0.000
241.89	-0.000
242.11	-0.000
242.32	-0.000
242.53	-0.000
242.75	-0.000
242.96	-0.000
243.17	-0.000
243.39	-0.000
243.60	-0.000
243.81	-0.000
244.03	-0.000
244.24	-0.000
244.45	-0.000
244.67	-0.000
244.88	-0.000
245.09	-0.000
245.31	-0.000
245.52	-0.000
245.73	-0.000
245.95	-0.000
246.16	-0.000
246.37	-0.000
246.59	-0.000
246.80	-0.000
247.01	-0.000
247.23	-0.000
247.44	-0.000
247.65	-0.000
247.87	-0.000
248.08	-0.000
248.29	-0.000
248.51	-0.000
248.72	-0.000
248.93	-0.000
249.15	-0.000
249.36	-0.000
249.57	-0.000
249.78	-0.000
250.00	-0.000
250.21	-0.000
250.42	-0.000
250.64	-0.000
250.85	-0.000
251.06	-0.000
251.28	-0.000
251.49	-0.000
251.70	-0.000
251.92	-0.000
252.13	-0.000
252.34	-0.000
252.55	-0.000
252.77	-0.000
252.98	-0.000
253.19	-0.000
253.41	-0.000
253.62	-0.000
253.83	-0.000
254.05	-0.000
254.26	-0.000
254.47	-0.000
254.68	-0.000
254.90	-0.000
255.11	-0.000
255.32	-0.000
255.54	-0.000
255.75	-0.000
255.96	-0.000
256.17	-0.000
256.39	-0.000
256.60	-0.000
256.81	-0.000
257.03	-0.000
257.24	-0.000
257.45	-0.000
257.66	-0.000
257.88	-0.000
258.09	-0.000
258.30	-0.000
258.51	-0.000
258.73	-0.000
258.94	-0.000
259.15	-0.000
259.37	-0.000
259.58	-0.000
259.79	-0.000
260.00	-0.000
260.22	-0.000
260.43	-0.000
260.64	-0.000
260.85	-0.000
261.07	-0.000
261.28	-0.000
261.49	-0.000
261.71	-0.000
261.92	-0.000
262.13	-0.000
262.34	-0.000
262.56	-0.000
262.77	-0.000
262.98	-0.000
263.19	-0.000
263.41	-0.000
263.62	-0.000
263.83	-0.000
264.04	-0.000
264.26	-0.000
264.47	-0.000
264.68	-0.000
264.89	-0.000
265.11	-0.000
265.32	-0.000
265.53	-0.000
265.74	-0.000
265.96	-0.000
266.17	-0.000
266.38	-0.000
266.59	-0.000
266.81	-0.000
267.02	-0.000
267.23	-0.000
267.44	-0.000
267.65	-0.000
267.87	-0.000
268.08	-0.000
268.29	-0.000
268.50	-0.000
268.72	-0.000
268.93	-0.000
269.14	-0.000
269.35	-0.000
269.57	-0.000
269.78	-0.000
269.99	-0.000
270.20	-0.000
270.41	-0.000
270.63	-0.000
270.84	-0.000
271.05	-0.000
271.26	-0.000
271.48	-0.000
271.69	-0.000
271.90	-0.000
272.11	-0.000
272.32	-0.000
272.54	-0.000
272.75	-0.000
272.96	-0.000
273.17	-0.000
273.39	-0.000
273.60	-0.000
273.81	-0.000
274.02	-0.000
274.23	-0.000
274.45	-0.000
274.66	-0.000
274.87	-0.000
275.08	-0.000
275.29	-0.000
275.51	-0.000
275.72	-0.000
275.93	-0.000
276.14	-0.000
276.35	-0.000
276.57	-0.000
276.78	-0.000
276.99	-0.000
277.20	-0.000
277.41	-0.000
277.63	-0.000
277.84	-0.000
278.05	-0.000
278.26	-0.000
278.47	-0.000
278.69	-0.000
278.90	-0.000
279.11	-0.000
279.32	-0.000
279.53	-0.000
279.74	-0.000
279.96	-0.000
280.17	-0.000
280.38	-0.000
280.59	-0.000
280.80	-0.000
281.02	-0.000
281.23	-0.000
281.44	-0.000
281.65	-0.000
281.86	-0.000
282.07	-0.000
282.29	-0.000
282.50	-0.000
282.71	-0.000
282.92	-0.000
283.13	-0.000
283.35	-0.000
283.56	-0.000
283.77	-0.000
283.98	-0.000
284.19	-0.000
284.40	-0.000
284.62	-0.000
284.83	-0.000
285.04	-0.000
285.25	-0.000
285.46	-0.000
285.67	-0.000
285.88	-0.000
286.10	-0.000
286.31	-0.000
286.52	-0.000
286.73	-0.000
286.94	-0.000
287.15	-0.000
287.37	-0.000
287.58	-0.000
287.79	-0.000
288.00	-0.000
288.21	-0.000
288.42	-0.000
288.63	-0.000
288.85	-0.000
289.06	-0.000
289.27	-0.000
289.48	-0.000
289.69	-0.000
289.90	-0.000
290.11	-0.000
290.33	-0.000
290.54	-0.000
290.75	-0.000
290.96	-0.000
291.17	-0.000
291.38	-0.000
291.59	-0.000
291.81	-0.000
292.02	-0.000
292.23	-0.000
292.44	-0.000
292.65	-0.000
292.86	-0.000
293.07	-0.000
293.28	-0.000
293.50	-0.000
293.71	-0.000
293.92	-0.000
294.13	-0.000
294.34	-0.000
294.55	-0.000
294.76	-0.000
294.97	-0.000
295.19	-0.000
295.40	-0.000
295.61	-0.000
295.82	-0.000
296.03	-0.000
296.24	-0.000
296.45	-0.000
296.66	-0.000
296.87	-0.000
297.09	-0.000
297.30	-0.000
297.51	-0.000
297.72	-0.000
297.93	-0.000
298.14	-0.000
298.35	-0.000
298.56	-0.000
298.77	-0.000
298.99	-0.000
299.20	-0.000
299.41	-0.000
299.62	-0.000
299.83	-0.000
300.04	-0.000
300.25	-0.000
300.46	-0.000
300.67	-0.000
300.88	-0.000
301.10	-0.000
301.31	-0.000
301.52	-0.000
301.73	-0.000
301.94	-0.000
302.15	-0.000
302.36	-0.000
302.57	-0.000
302.78	-0.000
302.99	-0.000
303.20	-0.000
303.41	-0.000
303.63	-0.000
303.84	-0.000
304.05	-0.000
304.26	-0.000
304.47	-0.000
304.68	-0.000
304.89	-0.000
305.10	-0.000
305.31	-0.000
305.52	-0.000
305.73	-0.000
305.94	-0.000
306.15	-0.000
306.37	-0.000
306.58	-0.000
306.79	-0.000
307.00	-0.000
307.21	-0.000
307.42	-0.000
307.63	-0.000
307.84	-0.000
308.05	-0.000
308.26	-0.000
308.47	-0.000
308.68	-0.000
308.89	-0.000
309.10	-0.000
309.31	-0.000
309.52	-0.000
309.73	-0.000
309.95	-0.000
310.16	-0.000
310.37	-0.000
310.58	-0.000
310.79	-0.000
311.00	-0.000
311.21	-0.000
311.42	-0.000
311.63	-0.000
311.84	-0.000
312.05	-0.000
312.26	-0.000
312.47	-0.000
312.68	-0.000
312.89	-0.000
313.10	-0.000
313.31	-0.000
313.52	-0.000
313.73	-0.000
313.94	-0.000
314.15	-0.000
314.36	-0.000
314.57	-0.000
314.78	-0.000
314.99	-0.000
315.21	-0.000
315.42	-0.000
315.63	-0.000
315.84	-0.000
316.05	-0.000
316.26	-0.000
316.47	-0.000
316.68	-0.000
316.89	-0.000
317.10	-0.000
317.31	-0.000
317.52	-0.000
317.73	-0.000
317.94	-0.000
318.15	-0.000
318.36	-0.000
318.57	-0.000
318.78	-0.000
318.99	-0.000
319.20	-0.000
319.41	-0.000
319.62	-0.000
319.83	-0.000
320.04	-0.000
320.25	-0.000
320.46	-0.000
320.67	-0.000
320.88	-0.000
321.09	-0.000
321.30	-0.000
321.51	-0.000
321.72	-0.000
321.93	-0.000
322.14	-0.000
322.35	-0.000
322.56	-0.000
322.77	-0.000
322.98	-0.000
323.19	-0.000
323.40	-0.000
323.61	-0.000
323.82	-0.000
324.03	-0.000
324.24	-0.000
324.45	-0.000
324.66	-0.000
324.87	-0.000
325.08	-0.000
325.29	-0.000
325.50	-0.000
325.71	-0.000
325.92	-0.000
326.13	-0.000
326.34	-0.000
326.55	-0.000
326.76	-0.000
326.97	-0.000
327.18	-0.000
327.39	-0.000
327.60	-0.000
327.80	-0.000
328.01	-0.000
328.22	-0.000
328.43	-0.000
328.64	-0.000
328.85	-0.000
329.06	-0.000
329.27	-0.000
329.48	-0.000
329.69	-0.000
329.90	-0.000
330.11	-0.000
330.32	-0.000
330.53	-0.000
330.74	-0.000
330.95	-0.000
331.16	3.068
331.37	-0.000
331.58	-0.000
331.79	-0.000
332.00	-0.000
332.21	2.822
332.42	3.013
332.63	2.542
332.83	2.504
333.04	2.669
333.25	-0.000
333.46	-0.000
333.67	2.650
333.88	2.774
334.09	-0.000
334.30	-0.000
334.51	3.048
334.72	2.746
334.93	2.863
335.14	2.730
335.35	2.456
335.56	2.307
335.77	2.445
335.98	2.463
336.18	2.351
336.39	2.177
336.60	2.225
336.81	2.186
337.02	2.178
337.23	2.272
337.44	2.289
337.65	2.363
337.86	2.200
338.07	2.123
338.28	2.161
338.49	2.157
338.70	2.089
338.91	2.192
339.11	2.335
339.32	2.299
339.53	2.139
339.74	2.143
339.95	2.062
340.16	2.061
340.37	2.008
340.58	1.997
340.79	2.002
341.00	2.008
341.21	1.919
341.41	1.917
341.62	1.912
341.83	1.919
342.04	1.882
342.25	2.016
342.46	2.047
342.67	2.040
342.88	1.986
343.09	1.999
343.30	2.069
343.50	2.123
343.71	2.011
343.92	2.005
344.13	2.048
344.34	2.051
344.55	1.877
344.76	1.880
344.97	1.906
345.18	1.908
345.38	1.894
345.59	1.854
345.80	1.842
346.01	1.847
346.22	1.841
346.43	1.789
346.64	1.842
346.85	1.852
347.06	1.809
347.26	1.811
347.47	1.827
347.68	1.803
347.89	1.786
348.10	1.745
348.31	1.777
348.52	1.767
348.73	1.761
348.93	1.750
349.14	1.757
349.35	1.754
349.56	1.727
349.77	1.698
349.98	1.734
350.19	1.719
350.39	1.709
350.60	1.691
350.81	1.801
351.02	1.800
351.23	1.766
351.44	1.784
351.65	1.801
351.86	1.788
352.06	1.785
352.27	1.780
352.48	1.783
352.69	1.783
352.90	1.744
353.11	1.652
353.31	1.701
353.52	1.688
353.73	1.648
353.94	1.660
354.15	1.682
354.36	1.681
354.57	1.637
354.77	1.650
354.98	1.644
355.19	1.644
355.40	1.646
355.61	1.688
355.82	1.702
356.02	1.703
356.23	1.665
356.44	1.682
356.65	1.703
356.86	1.701
357.07	1.673
357.27	1.680
357.48	1.688
357.69	1.666
357.90	1.573
358.11	1.556
358.32	1.566
358.52	1.583
358.73	1.540
358.94	1.551
359.15	1.578
359.36	1.582
359.56	1.571
359.77	1.557
359.98	1.587
360.19	1.587
360.40	1.582
360.61	1.592
360.81	1.575
361.02	1.576
361.23	1.536
361.44	1.521
361.65	1.519
361.85	1.515
362.06	1.514
362.27	1.530
362.48	1.528
362.69	1.532
362.89	1.511
363.10	1.521
363.31	1.540
363.52	1.560
363.73	1.542
363.93	1.540
364.14	1.539
364.35	1.540
364.56	1.494
364.77	1.500
364.97	1.503
365.18	1.498
365.39	1.483
365.60	1.466
365.81	1.465
366.01	1.465
366.22	1.454
366.43	1.451
366.64	1.458
366.84	1.480
367.05	1.471
367.26	1.470
367.47	1.476
367.68	1.470
367.88	1.465
368.09	1.453
368.30	1.457
368.51	1.459
368.71	1.458
368.92	1.476
369.13	1.465
369.34	1.462
369.55	1.462
369.75	1.461
369.96	1.488
370.17	1.488
370.38	1.483
370.58	1.483
370.79	1.502
371.00	1.498
371.21	1.464
371.41	1.485
371.62	1.494
371.83	1.479
372.04	1.473
372.24	1.446
372.45	1.446
372.66	1.444
372.87	1.437
373.07	1.423
373.28	1.422
373.49	1.438
373.70	1.402
373.90	1.398
374.11	1.433
374.32	1.428
374.53	1.426
374.73	1.431
374.94	1.435
375.15	1.432
375.36	1.425
375.56	1.463
375.77	1.452
375.98	1.450
376.19	1.446
376.39	1.416
376.60	1.427
376.81	1.428
377.02	1.419
377.22	1.414
377.43	1.413
377.64	1.413
377.84	1.378
378.05	1.398
378.26	1.421
378.47	1.418
378.67	1.408
378.88	1.397
379.09	1.394
379.30	1.393
379.50	1.389
379.71	1.393
379.92	1.397
380.12	1.395
380.33	1.368
380.54	1.352
380.75	1.373
380.95	1.372
381.16	1.371
381.37	1.371
381.57	1.375
381.78	1.377
381.99	1.377
382.20	1.376
382.40	1.386
382.61	1.389
382.82	1.380
383.02	1.358
383.23	1.370
383.44	1.368
383.64	1.365
383.85	1.370
384.06	1.376
384.27	1.369
384.47	1.365
384.68	1.361
384.89	1.376
385.09	1.376
385.30	1.373
385.51	1.367
385.71	1.372
385.92	1.373
386.13	1.371
386.33	1.382
386.54	1.381
386.75	1.375
386.95	1.363
387.16	1.348
387.37	1.350
387.58	1.350
387.78	1.342
387.99	1.336
388.20	1.338
388.40	1.327
388.61	1.310
388.82	1.323
389.02	1.327
389.23	1.329
389.44	1.325
389.64	1.327
389.85	1.364
390.06	1.363
390.26	1.365
390.47	1.363
390.68	1.370
390.88	1.367
391.09	1.351
391.30	1.349
391.50	1.345
391.71	1.343
391.92	1.334
392.12	1.303
392.33	1.305
392.53	1.303
392.74	1.304
392.95	1.297
393.15	1.300
393.36	1.303
393.57	1.300
393.77	1.307
393.98	1.311
394.19	1.309
394.39	1.309
394.60	1.312
394.81	1.316
395.01	1.311
395.22	1.309
395.43	1.312
395.63	1.326
395.84	1.324
396.04	1.316
396.25	1.318
396.46	1.323
396.66	1.316
396.87	1.308
397.08	1.298
397.28	1.301
397.49	1.305
397.69	1.295
397.90	1.278
398.11	1.281
398.31	1.282
398.52	1.272
398.73	1.278
398.93	1.273
399.14	1.269
399.34	1.270
399.55	1.273
399.76	1.270
399.96	1.270
400.17	1.268
400.37	1.262
400.58	1.280
400.79	1.286
400.99	1.277
401.20	1.296
401.41	1.300
401.61	1.300
401.82	1.319
402.02	1.318
402.23	1.322
402.44	1.320
402.64	1.322
402.85	1.301
403.05	1.295
403.26	1.289
403.47	1.271
403.67	1.266
403.88	1.264
404.08	1.244
404.29	1.242
404.50	1.240
404.70	1.238
404.91	1.235
405.11	1.228
405.32	1.229
405.52	1.230
405.73	1.229
405.94	1.227
406.14	1.235
406.35	1.240
406.55	1.237
406.76	1.231
406.97	1.235
407.17	1.241
407.38	1.241
407.58	1.239
407.79	1.246
407.99	1.251
408.20	1.253
408.41	1.241
408.61	1.236
408.82	1.237
409.02	1.238
409.23	1.233
409.43	1.228
409.64	1.229
409.84	1.228
410.05	1.218
410.26	1.214
410.46	1.212
410.67	1.212
410.87	1.218
411.08	1.223
411.28	1.224
411.49	1.229
411.69	1.224
411.90	1.229
412.11	1.232
412.31	1.234
412.52	1.231
412.72	1.233
412.93	1.233
413.13	1.231
413.34	1.224
413.54	1.230
413.75	1.233
413.95	1.232
414.16	1.225
414.37	1.232
414.57	1.231
414.78	1.238
414.98	1.235
415.19	1.237
415.39	1.226
415.60	1.230
415.80	1.227
416.01	1.221
416.21	1.223
416.42	1.223
416.62	1.211
416.83	1.211
417.03	1.208
417.24	1.208
417.44	1.203
417.65	1.201
417.86	1.200
418.06	1.195
418.27	1.191
418.47	1.197
418.68	1.197
418.88	1.198
419.09	1.196
419.29	1.197
419.50	1.197
419.70	1.198
419.91	1.196
420.11	1.191
420.32	1.194
420.52	1.193
420.73	1.191
420.93	1.192
421.14	1.196
421.34	1.194
421.55	1.188
421.75	1.188
421.96	1.190
422.16	1.189
422.37	1.188
422.57	1.183
422.78	1.186
422.98	1.179
423.19	1.175
423.39	1.172
423.60	1.180
423.80	1.183
424.01	1.180
424.21	1.186
424.42	1.187
424.62	1.188
424.83	1.186
425.03	1.185
425.23	1.188
425.44	1.187
425.64	1.189
425.85	1.185
426.05	1.185
426.26	1.186
426.46	1.178
426.67	1.178
426.87	1.189
427.08	1.189
427.28	1.187
427.49	1.190
427.69	1.191
427.90	1.188
428.10	1.183
428.31	1.183
428.51	1.188
428.71	1.186
428.92	1.190
429.12	1.183
429.33	1.184
429.53	1.195
429.74	1.209
429.94	1.209
430.15	1.207
430.35	1.205
430.56	1.198
430.76	1.195
430.96	1.197
431.17	1.190
431.37	1.185
431.58	1.182
431.78	1.172
431.99	1.152
432.19	1.160
432.40	1.165
432.60	1.167
432.80	1.175
433.01	1.172
433.21	1.171
433.42	1.174
433.62	1.173
433.83	1.174
434.03	1.181
434.23	1.187
434.44	1.183
434.64	1.176
434.85	1.191
435.05	1.193
435.26	1.193
435.46	1.190
435.66	1.189
435.87	1.189
436.07	1.188
436.28	1.179
436.48	1.174
436.69	1.172
436.89	1.174
437.09	1.158
437.30	1.154
437.50	1.153
437.71	1.190
437.91	1.189
438.11	1.192
438.32	1.203
438.52	1.203
438.73	1.202
438.93	1.199
439.13	1.198
439.34	1.209
439.54	1.204
439.75	1.205
439.95	1.174
440.15	1.186
440.36	1.183
440.56	1.175
440.77	1.177
440.97	1.176
441.17	1.174
441.38	1.176
441.58	1.168
441.79	1.168
441.99	1.166
442.19	1.160
442.40	1.152
442.60	1.152
442.81	1.149
443.01	1.148
443.21	1.150
443.42	1.149
443.62	1.147
443.82	1.147
444.03	1.149
444.23	1.149
444.44	1.151
444.64	1.150
444.84	1.154
445.05	1.154
445.25	1.150
445.45	1.150
445.66	1.154
445.86	1.151
446.06	1.157
446.27	1.154
446.47	1.160
446.68	1.156
446.88	1.152
447.08	1.150
447.29	1.151
447.49	1.152
447.69	1.151
447.90	1.149
448.10	1.155
448.30	1.148
448.51	1.153
448.71	1.148
448.91	1.152
449.12	1.151
449.32	1.156
449.52	1.155
449.73	1.162
449.93	1.161
450.14	1.166
450.34	1.165
450.54	1.169
450.75	1.162
450.95	1.161
451.15	1.161
451.36	1.166
451.56	1.160
451.76	1.160
451.97	1.155
452.17	1.156
452.37	1.150
452.58	1.145
452.78	1.144
452.98	1.150
453.19	1.151
453.39	1.155
453.59	1.151
453.79	1.152
454.00	1.152
454.20	1.150
454.40	1.151
454.61	1.157
454.81	1.158
455.01	1.156
455.22	1.160
455.42	1.162
455.62	1.156
455.83	1.155
456.03	1.162
456.23	1.162
456.44	1.164
456.64	1.162
456.84	1.160
457.04	1.161
457.25	1.160
457.45	1.152
457.65	1.150
457.86	1.152
458.06	1.152
458.26	1.143
458.47	1.143
458.67	1.144
458.87	1.144
459.07	1.141
459.28	1.145
459.48	1.149
459.68	1.149
459.89	1.148
460.09	1.144
460.29	1.144
460.49	1.147
460.70	1.146
460.90	1.147
461.10	1.146
461.31	1.145
461.51	1.140
461.71	1.148
461.91	1.150
462.12	1.151
462.32	1.150
462.52	1.150
462.72	1.156
462.93	1.156
463.13	1.153
463.33	1.157
463.53	1.159
463.74	1.159
463.94	1.146
464.14	1.147
464.35	1.147
464.55	1.147
464.75	1.144
464.95	1.139
465.16	1.141
465.36	1.140
465.56	1.139
465.76	1.137
465.97	1.136
466.17	1.137
466.37	1.132
466.57	1.133
466.78	1.135
466.98	1.136
467.18	1.132
467.38	1.129
467.59	1.130
467.79	1.134
467.99	1.132
468.19	1.134
468.39	1.140
468.60	1.140
468.80	1.137
469.00	1.139
469.20	1.141
469.41	1.142
469.61	1.142
469.81	1.143
470.01	1.140
470.22	1.142
470.42	1.140
470.62	1.135
470.82	1.138
471.02	1.137
471.23	1.133
471.43	1.134
471.63	1.139
471.83	1.139
472.04	1.136
472.24	1.132
472.44	1.146
472.64	1.146
472.84	1.144
473.05	1.142
473.25	1.146
473.45	1.145
473.65	1.141
473.85	1.138
474.06	1.138
474.26	1.138
474.46	1.144
474.66	1.132
474.86	1.132
475.07	1.131
475.27	1.128
475.47	1.122
475.67	1.121
475.87	1.126
476.08	1.120
476.28	1.125
476.48	1.128
476.68	1.122
476.88	1.118
477.09	1.120
477.29	1.122
477.49	1.122
477.69	1.123
477.89	1.123
478.09	1.120
478.30	1.125
478.50	1.117
478.70	1.114
478.90	1.113
479.10	1.119
479.31	1.122
479.51	1.119
479.71	1.119
479.91	1.118
480.11	1.116
480.31	1.116
480.52	1.112
480.72	1.111
480.92	1.109
481.12	1.108
481.32	1.101
481.52	1.097
481.72	1.096
481.93	1.104
482.13	1.106
482.33	1.104
482.53	1.100
482.73	1.102
482.93	1.104
483.14	1.103
483.34	1.100
483.54	1.101
483.74	1.097
483.94	1.095
484.14	1.085
484.34	1.084
484.55	1.084
484.75	1.085
484.95	1.080
485.15	1.078
485.35	1.078
485.55	1.079
485.75	1.075
485.96	1.077
486.16	1.079
486.36	1.078
486.56	1.075
486.76	1.076
486.96	1.076
487.16	1.075
487.36	1.072
487.57	1.072
487.77	1.072
487.97	1.074
488.17	1.071
488.37	1.070
488.57	1.070
488.77	1.071
488.97	1.068
489.18	1.067
489.38	1.072
489.58	1.073
489.78	1.073
489.98	1.071
490.18	1.071
490.38	1.072
490.58	1.070
490.78	1.071
490.98	1.073
491.19	1.074
491.39	1.073
491.59	1.070
491.79	1.076
491.99	1.076
492.19	1.077
492.39	1.083
492.59	1.083
492.79	1.087
492.99	1.089
493.20	1.088
493.40	1.087
493.60	1.091
493.80	1.089
494.00	1.083
494.20	1.084
494.40	1.084
494.60	1.078
494.80	1.088
495.00	1.084
495.20	1.080
495.40	1.079
495.61	1.082
495.81	1.081
496.01	1.089
496.21	1.092
496.41	1.091
496.61	1.090
496.81	1.088
497.01	1.078
497.21	1.076
497.41	1.078
497.61	1.076
497.81	1.072
498.01	1.071
498.21	1.064
498.41	1.060
498.61	1.059
498.82	1.063
499.02	1.066
499.22	1.066
499.42	1.067
499.62	1.069
499.82	1.072
500.02	1.075
500.22	1.073
500.42	1.079
500.62	1.080
500.82	1.081
501.02	1.077
501.22	1.078
501.42	1.078
501.62	1.081
501.82	1.080
502.02	1.079
502.22	1.078
502.42	1.083
502.62	1.077
502.82	1.078
503.02	1.080
503.22	1.079
503.42	1.076
503.63	1.076
503.83	1.071
504.03	1.069
504.23	1.067
504.43	1.068
504.63	1.068
504.83	1.068
505.03	1.066
505.23	1.068
505.43	1.071
505.63	1.072
505.83	1.072
506.03	1.074
506.23	1.077
506.43	1.077
506.63	1.076
506.83	1.073
507.03	1.077
507.23	1.078
507.43	1.073
507.63	1.074
507.83	1.073
508.03	1.073
508.23	1.073
508.43	1.071
508.63	1.074
508.83	1.074
509.03	1.078
509.23	1.074
509.43	1.075
509.63	1.076
509.83	1.075
510.03	1.081
510.23	1.083
510.43	1.084
510.63	1.085
510.83	1.083
511.03	1.086
511.23	1.081
511.43	1.081
511.63	1.084
511.83	1.088
512.03	1.088
512.22	1.083
512.42	1.084
512.62	1.085
512.82	1.086
513.02	1.086
513.22	1.085
513.42	1.088
513.62	1.095
513.82	1.091
514.02	1.089
514.22	1.089
514.42	1.089
514.62	1.089
514.82	1.089
515.02	1.093
515.22	1.101
515.42	1.101
515.62	1.107
515.82	1.102
516.02	1.105
516.22	1.107
516.42	1.111
516.62	1.114
516.82	1.116
517.01	1.113
517.21	1.111
517.41	1.118
517.61	1.118
517.81	1.110
518.01	1.108
518.21	1.107
518.41	1.105
518.61	1.103
518.81	1.103
519.01	1.104
519.21	1.104
519.41	1.103
519.61	1.090
519.81	1.095
520.00	1.097
520.20	1.099
520.40	1.105
520.60	1.104
520.80	1.102
521.00	1.106
521.20	1.106
521.40	1.116
521.60	1.116
521.80	1.114
522.00	1.112
522.20	1.115
522.39	1.113
522.59	1.107
522.79	1.112
522.99	1.115
523.19	1.110
523.39	1.109
523.59	1.104
523.79	1.110
523.99	1.115
524.19	1.115
524.38	1.111
524.58	1.113
524.78	1.114
524.98	1.109
525.18	1.115
525.38	1.117
525.58	1.116
525.78	1.113
525.98	1.109
526.18	1.107
526.37	1.105
526.57	1.112
526.77	1.111
526.97	1.112
527.17	1.113
527.37	1.105
527.57	1.109
527.77	1.110
527.96	1.110
528.16	1.110
528.36	1.113
528.56	1.118
528.76	1.113
528.96	1.112
529.16	1.115
529.36	1.120
529.55	1.119
529.75	1.113
529.95	1.113
530.15	1.113
530.35	1.119
530.55	1.113
530.75	1.112
530.94	1.113
531.14	1.115
531.34	1.112
531.54	1.109
531.74	1.115
531.94	1.123
532.13	1.121
532.33	1.124
532.53	1.118
532.73	1.118
532.93	1.114
533.13	1.116
533.33	1.114
533.52	1.115
533.72	1.123
533.92	1.119
534.12	1.113
534.32	1.113
534.52	1.110
534.71	1.115
534.91	1.119
535.11	1.126
535.31	1.124
535.51	1.129
535.71	1.131
535.90	1.123
536.10	1.126
536.30	1.130
536.50	1.132
536.70	1.132
536.89	1.128
537.09	1.127
537.29	1.126
537.49	1.127
537.69	1.122
537.89	1.124
538.08	1.123
538.28	1.119
538.48	1.121
538.68	1.124
538.88	1.126
539.07	1.126
539.27	1.121
539.47	1.120
539.67	1.118
539.87	1.120
540.06	1.116
540.26	1.116
540.46	1.119
540.66	1.114
540.86	1.109
541.05	1.109
541.25	1.112
541.45	1.114
541.65	1.111
541.84	1.116
542.04	1.116
542.24	1.117
542.44	1.116
542.64	1.118
542.83	1.122
543.03	1.122
543.23	1.119
543.43	1.121
543.62	1.122
543.82	1.123
544.02	1.121
544.22	1.122
544.42	1.127
544.61	1.130
544.81	1.125
545.01	1.121
545.21	1.124
545.40	1.124
545.60	1.121
545.80	1.128
546.00	1.127
546.19	1.125
546.39	1.122
546.59	1.119
546.79	1.120
546.98	1.121
547.18	1.121
547.38	1.122
547.58	1.127
547.77	1.127
547.97	1.119
548.17	1.121
548.37	1.121
548.56	1.122
548.76	1.122
548.96	1.123
549.16	1.126
549.35	1.128
549.55	1.124
549.75	1.123
549.95	1.129
550.14	1.130
550.34	1.128
550.54	1.140
550.73	1.146
550.93	1.147
551.13	1.144
551.33	1.143
551.52	1.142
551.72	1.142
551.92	1.139
552.12	1.142
552.31	1.141
552.51	1.141
552.71	1.129
552.90	1.130
553.10	1.130
553.30	1.130
553.50	1.128
553.69	1.130
553.89	1.132
554.09	1.131
554.28	1.123
554.48	1.127
554.68	1.129
554.87	1.130
555.07	1.125
555.27	1.125
555.47	1.126
555.66	1.127
555.86	1.126
556.06	1.131
556.25	1.135
556.45	1.155
556.65	1.153
556.84	1.162
557.04	1.170
557.24	1.172
557.43	1.173
557.63	1.182
557.83	1.187
558.02	1.189
558.22	1.200
558.42	1.199
558.61	1.178
558.81	1.177
559.01	1.167
559.21	1.164
559.40	1.164
559.60	1.164
559.80	1.154
559.99	1.155
560.19	1.156
560.39	1.142
560.58	1.138
560.78	1.139
560.97	1.145
561.17	1.143
561.37	1.139
561.56	1.141
561.76	1.144
561.96	1.144
562.15	1.140
562.35	1.147
562.55	1.147
562.74	1.149
562.94	1.146
563.14	1.142
563.33	1.143
563.53	1.143
563.73	1.138
563.92	1.140
564.12	1.142
564.31	1.146
564.51	1.141
564.71	1.147
564.90	1.149
565.10	1.151
565.30	1.161
565.49	1.164
565.69	1.168
565.89	1.171
566.08	1.165
566.28	1.170
566.47	1.171
566.67	1.166
566.87	1.159
567.06	1.165
567.26	1.179
567.46	1.168
567.65	1.164
567.85	1.165
568.04	1.170
568.24	1.169
568.44	1.162
568.63	1.158
568.83	1.160
569.02	1.156
569.22	1.146
569.42	1.136
569.61	1.138
569.81	1.137
570.00	1.133
570.20	1.135
570.40	1.135
570.59	1.135
570.79	1.131
570.98	1.126
571.18	1.126
571.38	1.124
571.57	1.119
571.77	1.114
571.96	1.118
572.16	1.112
572.35	1.100
572.55	1.102
572.75	1.098
572.94	1.097
573.14	1.094
573.33	1.094
573.53	1.094
573.73	1.093
573.92	1.089
574.12	1.086
574.31	1.091
574.51	1.092
574.70	1.086
574.90	1.089
575.09	1.093
575.29	1.093
575.49	1.089
575.68	1.092
575.88	1.093
576.07	1.095
576.27	1.091
576.46	1.088
576.66	1.087
576.86	1.086
577.05	1.082
577.25	1.079
577.44	1.081
577.64	1.081
577.83	1.077
578.03	1.080
578.22	1.077
578.42	1.076
578.61	1.074
578.81	1.074
579.00	1.073
579.20	1.072
579.40	1.070
579.59	1.067
579.79	1.068
579.98	1.066
580.18	1.065
580.37	1.067
580.57	1.069
580.76	1.081
580.96	1.078
581.15	1.080
581.35	1.083
581.54	1.082
581.74	1.082
581.93	1.085
582.13	1.087
582.32	1.081
582.52	1.077
582.71	1.076
582.91	1.065
583.10	1.065
583.30	1.063
583.49	1.062
583.69	1.069
583.88	1.072
584.08	1.069
584.27	1.075
584.47	1.080
584.66	1.083
584.86	1.081
585.05	1.086
585.25	1.090
585.44	1.090
585.64	1.089
585.83	1.082
586.03	1.084
586.22	1.082
586.42	1.075
586.61	1.079
586.81	1.083
587.00	1.084
587.20	1.079
587.39	1.081
587.59	1.083
587.78	1.085
587.98	1.087
588.17	1.088
588.37	1.092
588.56	1.095
588.76	1.086
588.95	1.085
589.15	1.094
589.34	1.101
589.54	1.098
589.73	1.100
589.92	1.106
590.12	1.105
590.31	1.102
590.51	1.115
590.70	1.118
590.90	1.119
591.09	1.117
591.29	1.110
591.48	1.107
591.68	1.110
591.87	1.108
592.06	1.107
592.26	1.113
592.45	1.112
592.65	1.098
592.84	1.097
593.04	1.101
593.23	1.106
593.43	1.103
593.62	1.103
593.81	1.104
594.01	1.102
594.20	1.098
594.40	1.094
594.59	1.096
594.79	1.097
594.98	1.097
595.17	1.096
595.37	1.097
595.56	1.099
595.76	1.100
595.95	1.104
596.14	1.110
596.34	1.112
596.53	1.110
596.73	1.114
596.92	1.116
597.12	1.119
597.31	1.119
597.50	1.115
597.70	1.118
597.89	1.115
598.09	1.109
598.28	1.110
598.47	1.115
598.67	1.111
598.86	1.105
599.06	1.110
599.25	1.110
599.44	1.106
599.64	1.102
599.83	1.098
600.03	1.105
600.22	1.105
600.41	1.107
600.61	1.101
600.80	1.105
601.00	1.105
601.19	1.098
601.38	1.095
601.58	1.099
601.77	1.102
601.96	1.108
602.16	1.108
602.35	1.128
602.55	1.122
602.74	1.127
602.93	1.130
603.13	1.140
603.32	1.142
603.51	1.142
603.71	1.150
603.90	1.152
604.09	1.153
604.29	1.147
604.48	1.132
604.68	1.133
604.87	1.130
605.06	1.123
605.26	1.117
605.45	1.117
605.64	1.116
605.84	1.106
606.03	1.104
606.22	1.100
606.42	1.098
606.61	1.093
606.80	1.094
607.00	1.099
607.19	1.099
607.38	1.099
607.58	1.103
607.77	1.105
607.96	1.106
608.16	1.105
608.35	1.116
608.54	1.123
608.74	1.130
608.93	1.146
609.12	1.151
609.32	1.158
609.51	1.163
609.70	1.160
609.90	1.166
610.09	1.174
610.28	1.187
610.48	1.172
610.67	1.174
610.86	1.175
611.06	1.159
611.25	1.154
611.44	1.155
611.64	1.155
611.83	1.164
612.02	1.159
612.21	1.156
612.41	1.150
612.60	1.149
612.79	1.142
612.99	1.142
613.18	1.146
613.37	1.140
613.57	1.136
613.76	1.139
613.95	1.130
614.14	1.128
614.34	1.124
614.53	1.125
614.72	1.130
614.92	1.130
615.11	1.124
615.30	1.117
615.49	1.121
615.69	1.126
615.88	1.120
616.07	1.123
616.26	1.129
616.46	1.132
616.65	1.128
616.84	1.125
617.04	1.126
617.23	1.134
617.42	1.137
617.61	1.143
617.81	1.141
618.00	1.145
618.19	1.143
618.38	1.150
618.58	1.158
618.77	1.161
618.96	1.162
619.15	1.171
619.35	1.175
619.54	1.176
619.73	1.168
619.92	1.174
620.12	1.184
620.31	1.186
620.50	1.174
620.69	1.172
620.89	1.179
621.08	1.178
621.27	1.178
621.46	1.174
621.66	1.182
621.85	1.181
622.04	1.175
622.23	1.178
622.43	1.179
622.62	1.180
622.81	1.178
623.00	1.176
623.19	1.182
623.39	1.178
623.58	1.174
623.77	1.170
623.96	1.175
624.16	1.177
624.35	1.166
624.54	1.173
624.73	1.180
624.92	1.177
625.12	1.173
625.31	1.174
625.50	1.182
625.69	1.184
625.88	1.179
626.08	1.179
626.27	1.181
626.46	1.181
626.65	1.172
626.84	1.170
627.04	1.182
627.23	1.182
627.42	1.176
627.61	1.179
627.80	1.182
628.00	1.182
628.19	1.178
628.38	1.184
628.57	1.188
628.76	1.190
628.96	1.186
629.15	1.185
629.34	1.193
629.53	1.194
629.72	1.184
629.91	1.187
630.11	1.196
630.30	1.197
630.49	1.209
630.68	1.208
630.87	1.214
631.06	1.220
631.26	1.209
631.45	1.213
631.64	1.232
631.83	1.235
632.02	1.232
632.21	1.228
632.41	1.247
632.60	1.230
632.79	1.229
632.98	1.235
633.17	1.235
633.36	1.241
633.55	1.233
633.75	1.221
633.94	1.223
634.13	1.222
634.32	1.219
634.51	1.204
634.70	1.207
634.89	1.207
635.09	1.198
635.28	1.198
635.47	1.195
635.66	1.202
635.85	1.198
636.04	1.203
636.23	1.213
636.43	1.213
636.62	1.214
636.81	1.213
637.00	1.214
637.19	1.223
637.38	1.221
637.57	1.224
637.76	1.227
637.95	1.226
638.15	1.219
638.34	1.210
638.53	1.217
638.72	1.219
638.91	1.213
639.10	1.210
639.29	1.204
639.48	1.203
639.67	1.203
639.87	1.198
640.06	1.214
640.25	1.213
640.44	1.216
640.63	1.219
640.82	1.224
641.01	1.226
641.20	1.229
641.39	1.237
641.58	1.243
641.78	1.242
641.97	1.234
642.16	1.275
642.35	1.275
642.54	1.272
642.73	1.260
642.92	1.255
643.11	1.262
643.30	1.260
643.49	1.248
643.68	1.252
643.87	1.254
644.06	1.253
644.25	1.199
644.45	1.209
644.64	1.211
644.83	1.212
645.02	1.210
645.21	1.209
645.40	1.209
645.59	1.210
645.78	1.199
645.97	1.204
646.16	1.202
646.35	1.198
646.54	1.194
646.73	1.197
646.92	1.199
647.11	1.196
647.30	1.190
647.49	1.194
647.68	1.192
647.88	1.188
648.07	1.176
648.26	1.186
648.45	1.188
648.64	1.180
648.83	1.175
649.02	1.182
649.21	1.206
649.40	1.202
649.59	1.191
649.78	1.192
649.97	1.229
650.16	1.228
650.35	1.212
650.54	1.221
650.73	1.238
650.92	1.229
651.11	1.214
651.30	1.208
651.49	1.220
651.68	1.222
651.87	1.218
652.06	1.188
652.25	1.191
652.44	1.198
652.63	1.192
652.82	1.192
653.01	1.191
653.20	1.184
653.39	1.157
653.58	1.149
653.77	1.145
653.96	1.133
654.15	1.117
654.34	1.111
654.53	1.101
654.72	1.087
654.91	1.068
655.10	1.059
655.29	1.054
655.48	1.048
655.67	1.039
655.86	1.034
656.05	1.031
656.24	1.029
656.43	1.021
656.62	1.020
656.81	1.022
657.00	1.017
657.19	1.013
657.38	1.011
657.57	1.010
657.76	1.015
657.95	1.013
658.14	1.020
658.33	1.027
658.51	1.038
658.70	1.039
658.89	1.041
659.08	1.061
659.27	1.080
659.46	1.085
659.65	1.100
659.84	1.108
660.03	1.115
660.22	1.118
660.41	1.128
660.60	1.127
660.79	1.131
660.98	1.148
661.17	1.143
661.36	1.139
661.55	1.143
661.74	1.138
661.92	1.144
662.11	1.146
662.30	1.143
662.49	1.129
662.68	1.127
662.87	1.129
663.06	1.115
663.25	1.121
663.44	1.120
663.63	1.120
663.82	1.118
664.01	1.109
664.20	1.107
664.38	1.108
664.57	1.108
664.76	1.109
664.95	1.114
665.14	1.121
665.33	1.112
665.52	1.135
665.71	1.147
665.90	1.146
666.09	1.151
666.28	1.146
666.46	1.141
666.65	1.140
666.84	1.137
667.03	1.125
667.22	1.123
667.41	1.126
667.60	1.101
667.79	1.086
667.98	1.088
668.16	1.086
668.35	1.086
668.54	1.084
668.73	1.086
668.92	1.088
669.11	1.086
669.30	1.076
669.49	1.068
669.67	1.072
669.86	1.076
670.05	1.072
670.24	1.067
670.43	1.063
670.62	1.059
670.81	1.051
671.00	1.050
671.18	1.048
671.37	1.045
671.56	1.041
671.75	1.037
671.94	1.030
672.13	1.026
672.32	1.018
672.50	1.015
672.69	1.016
672.88	1.015
673.07	1.008
673.26	1.012
673.45	1.013
673.63	1.012
673.82	1.008
674.01	1.012
674.20	1.010
674.39	1.011
674.58	1.011
674.76	1.012
674.95	1.010
675.14	1.012
675.33	1.005
675.52	1.004
675.71	1.004
675.89	1.003
676.08	0.997
676.27	0.997
676.46	0.997
676.65	0.996
676.84	0.995
677.02	0.997
677.21	0.998
677.40	0.997
677.59	0.994
677.78	0.995
677.96	0.999
678.15	0.998
678.34	0.996
678.53	0.996
678.72	0.994
678.90	0.990
679.09	0.983
679.28	0.980
679.47	0.980
679.66	0.977
679.84	0.973
680.03	0.967
680.22	0.965
680.41	0.968
680.60	0.962
680.78	0.963
680.97	0.966
681.16	0.966
681.35	0.963
681.53	0.961
681.72	0.963
681.91	0.966
682.10	0.964
682.29	0.968
682.47	0.962
682.66	0.957
682.85	0.955
683.04	0.952
683.22	0.951
683.41	0.953
683.60	0.952
683.79	0.952
683.97	0.949
684.16	0.948
684.35	0.942
684.54	0.944
684.72	0.947
684.91	0.948
685.10	0.944
685.29	0.947
685.47	0.941
685.66	0.940
685.85	0.934
686.04	0.932
686.22	0.935
686.41	0.940
686.60	0.936
686.79	0.942
686.97	0.942
687.16	0.945
687.35	0.940
687.54	0.947
687.72	0.954
687.91	0.955
688.10	0.961
688.29	0.961
688.47	0.954
688.66	0.955
688.85	0.947
689.03	0.945
689.22	0.954
689.41	0.956
689.60	0.949
689.78	0.945
689.97	0.946
690.16	0.940
690.34	0.935
690.53	0.936
690.72	0.936
690.91	0.933
691.09	0.930
691.28	0.919
691.47	0.916
691.65	0.913
691.84	0.909
692.03	0.907
692.21	0.903
692.40	0.902
692.59	0.898
692.77	0.896
692.96	0.897
693.15	0.898
693.34	0.894
693.52	0.892
693.71	0.892
693.90	0.895
694.08	0.897
694.27	0.899
694.46	0.917
694.64	0.918
694.83	0.918
695.02	0.918
695.20	0.917
695.39	0.917
695.58	0.919
695.76	0.920
695.95	0.916
696.14	0.914
696.32	0.910
696.51	0.890
696.70	0.890
696.88	0.892
697.07	0.888
697.26	0.890
697.44	0.890
697.63	0.888
697.81	0.884
698.00	0.885
698.19	0.883
698.37	0.883
698.56	0.883
698.75	0.883
698.93	0.880
699.12	0.880
699.31	0.880
699.49	0.879
699.68	0.879
699.87	0.884
700.05	0.884
700.24	0.883
700.42	0.885
700.61	0.885
700.80	0.882
700.98	0.885
701.17	0.886
701.36	0.885
701.54	0.885
701.73	0.888
701.91	0.883
702.10	0.882
702.29	0.880
702.47	0.879
702.66	0.882
702.84	0.883
703.03	0.880
703.22	0.884
703.40	0.882
703.59	0.885
703.77	0.886
703.96	0.886
704.15	0.887
704.33	0.888
704.52	0.888
704.70	0.886
704.89	0.885
705.08	0.883
705.26	0.877
705.45	0.876
705.63	0.874
705.82	0.869
706.00	0.868
706.19	0.869
706.38	0.869
706.56	0.867
706.75	0.865
706.93	0.862
707.12	0.863
707.30	0.864
707.49	0.860
707.68	0.857
707.86	0.856
708.05	0.855
708.23	0.850
708.42	0.850
708.60	0.854
708.79	0.853
708.98	0.852
709.16	0.851
709.35	0.854
709.53	0.861
709.72	0.861
709.90	0.863
710.09	0.866
710.27	0.867
710.46	0.874
710.64	0.871
710.83	0.873
711.02	0.876
711.20	0.876
711.39	0.873
711.57	0.867
711.76	0.868
711.94	0.866
712.13	0.868
712.31	0.868
712.50	0.860
712.68	0.857
712.87	0.860
713.05	0.859
713.24	0.858
713.42	0.856
713.61	0.858
713.79	0.861
713.98	0.860
714.16	0.863
714.35	0.862
714.54	0.865
714.72	0.866
714.91	0.863
715.09	0.875
715.28	0.880
715.46	0.880
715.65	0.878
715.83	0.875
716.02	0.880
716.20	0.875
716.39	0.875
716.57	0.879
716.76	0.882
716.94	0.883
717.12	0.871
717.31	0.874
717.49	0.880
717.68	0.884
717.86	0.885
718.05	0.887
718.23	0.890
718.42	0.894
718.60	0.896
718.79	0.911
718.97	0.914
719.16	0.914
719.34	0.912
719.53	0.910
719.71	0.910
719.90	0.913
720.08	0.908
720.27	0.909
720.45	0.908
720.63	0.904
720.82	0.893
721.00	0.898
721.19	0.903
721.37	0.902
721.56	0.904
721.74	0.909
721.93	0.924
722.11	0.937
722.30	0.939
722.48	0.948
722.66	0.948
722.85	0.947
723.03	0.949
723.22	0.948
723.40	0.953
723.59	0.952
723.77	0.961
723.95	0.949
724.14	0.954
724.32	0.957
724.51	0.957
724.69	0.962
724.88	0.963
725.06	0.960
725.24	0.963
725.43	0.967
725.61	0.975
725.80	0.964
725.98	0.963
726.16	0.954
726.35	0.963
726.53	0.959
726.72	0.957
726.90	0.977
727.09	0.981
727.27	0.994
727.45	0.990
727.64	1.008
727.82	1.022
728.01	1.030
728.19	1.031
728.37	1.044
728.56	1.053
728.74	1.071
728.92	1.049
729.11	1.052
729.29	1.044
729.48	1.051
729.66	1.030
729.84	1.030
730.03	1.036
730.21	1.039
730.40	1.020
730.58	1.024
730.76	1.022
730.95	1.026
731.13	1.030
731.31	1.063
731.50	1.076
731.68	1.084
731.86	1.085
732.05	1.123
732.23	1.129
732.42	1.146
732.60	1.154
732.78	1.170
732.97	1.215
733.15	1.227
733.33	1.199
733.52	1.222
733.70	1.252
733.88	1.272
734.07	1.227
734.25	1.315
734.43	1.334
734.62	1.356
734.80	1.348
734.98	1.316
735.17	1.349
735.35	1.377
735.53	1.347
735.72	1.357
735.90	1.437
736.08	1.539
736.27	1.423
736.45	1.473
736.63	1.517
736.82	1.557
737.00	1.562
737.18	1.601
737.37	1.815
737.55	2.094
737.73	2.065
737.92	2.101
738.10	2.031
738.28	2.657
738.46	2.267
738.65	2.908
738.83	-0.000
739.01	-0.000
739.20	-0.000
739.38	-0.000
739.56	-0.000
739.75	-0.000
739.93	-0.000
740.11	-0.000
740.29	-0.000
740.48	-0.000
740.66	-0.000
740.84	-0.000
741.03	2.710
741.21	-0.000
741.39	2.819
741.57	-0.000
741.76	-0.000
741.94	-0.000
742.12	2.469
742.31	3.040
742.49	-0.000
742.67	-0.000
742.85	-0.000
743.04	-0.000
743.22	-0.000
743.40	-0.000
743.58	-0.000
743.77	-0.000
743.95	-0.000
744.13	-0.000
744.31	-0.000
744.50	-0.000
744.68	-0.000
744.86	-0.000
745.04	-0.000
745.23	-0.000
745.41	-0.000
745.59	-0.000
745.77	-0.000
745.96	-0.000
746.14	-0.000
746.32	-0.000
746.50	-0.000
746.69	-0.000
746.87	-0.000
747.05	-0.000
747.23	-0.000
747.42	-0.000
747.60	-0.000
747.78	-0.000
747.96	-0.000
748.14	-0.000
748.33	-0.000
748.51	-0.000
748.69	-0.000
748.87	-0.000
749.06	-0.000
749.24	-0.000
749.42	-0.000
749.60	-0.000
749.78	-0.000
749.97	-0.000
750.15	-0.000
750.33	-0.000
750.51	-0.000
750.69	-0.000
750.88	-0.000
751.06	-0.000
751.24	-0.000
751.42	-0.000
751.60	-0.000
751.79	-0.000
751.97	-0.000
752.15	-0.000
752.33	-0.000
752.51	-0.000
752.69	-0.000
752.88	-0.000
753.06	-0.000
753.24	-0.000
753.42	-0.000
753.60	-0.000
753.78	-0.000
753.97	-0.000
754.15	-0.000
754.33	-0.000
754.51	-0.000
754.69	-0.000
754.87	-0.000
755.06	-0.000
755.24	-0.000
755.42	-0.000
755.60	-0.000
755.78	-0.000
755.96	-0.000
756.15	-0.000
756.33	-0.000
756.51	-0.000
756.69	-0.000
756.87	-0.000
757.05	-0.000
757.23	-0.000
757.42	2.246
757.60	2.358
757.78	2.140
757.96	2.198
758.14	1.947
758.32	1.814
758.50	1.867
758.69	1.839
758.87	1.827
759.05	1.856
759.23	1.892
759.41	1.879
759.59	1.852
759.77	2.071
759.95	2.910
760.13	-0.000
760.32	-0.000
760.50	-0.000
760.68	-0.000
760.86	-0.000
761.04	-0.000
761.22	-0.000
761.40	-0.000
761.58	-0.000
761.76	-0.000
761.95	-0.000
762.13	3.271
762.31	3.468
762.49	2.082
762.67	2.871
762.85	-0.000
763.03	-0.000
763.21	2.373
763.39	1.972
763.57	1.973
763.75	1.922
763.94	1.811
764.12	1.833
764.30	2.202
764.48	2.248
764.66	1.766
764.84	1.733
765.02	2.016
765.20	2.061
765.38	1.882
765.56	1.945
765.74	4.025
765.92	-0.000
766.10	-0.000
766.28	2.703
766.46	-0.000
766.65	-0.000
766.83	-0.000
767.01	3.189
767.19	-0.000
767.37	-0.000
767.55	2.629
767.73	1.992
767.91	2.002
768.09	1.912
768.27	1.870
768.45	1.789
768.63	1.814
768.81	1.817
768.99	1.631
769.17	1.820
769.35	1.913
769.53	1.919
769.71	1.775
769.89	1.810
770.07	1.806
770.25	1.670
770.43	1.580
770.61	1.708
770.79	1.736
770.97	1.823
771.15	1.616
771.33	1.631
771.51	1.654
771.69	1.743
771.87	1.864
772.05	1.956
772.24	1.998
772.42	2.072
772.60	1.818
772.78	-0.000
772.96	-0.000
773.14	-0.000
773.32	-0.000
773.49	-0.000
773.67	-0.000
773.85	2.901
774.03	2.304
774.21	-0.000
774.39	-0.000
774.57	-0.000
774.75	2.494
774.93	2.347
775.11	3.364
775.29	-0.000
775.47	-0.000
775.65	-0.000
775.83	-0.000
776.01	-0.000
776.19	-0.000
776.37	-0.000
776.55	-0.000
776.73	-0.000
776.91	-0.000
777.09	-0.000
777.27	-0.000
777.45	3.432
777.63	2.243
777.81	2.131
777.99	1.829
778.17	1.799
778.35	1.656
778.53	1.574
778.71	1.595
778.89	1.527
779.07	1.484
779.24	1.478
779.42	1.451
779.60	1.542
779.78	1.522
779.96	1.539
780.14	1.577
780.32	1.717
780.50	1.612
780.68	1.597
780.86	1.532
781.04	1.624
781.22	1.685
781.40	1.743
781.58	1.628
781.75	1.591
781.93	1.546
782.11	1.513
782.29	1.422
782.47	1.424
782.65	1.396
782.83	1.507
783.01	1.462
783.19	1.426
783.37	1.386
783.55	1.400
783.72	1.464
783.90	1.499
784.08	1.479
784.26	1.562
784.44	1.669
784.62	1.665
784.80	1.511
784.98	1.553
785.16	1.571
785.33	1.661
785.51	1.594
785.69	1.511
785.87	1.504
786.05	1.582
786.23	1.539
786.41	1.508
786.59	1.533
786.77	1.535
786.94	1.463
787.12	1.463
787.30	1.451
787.48	1.451
787.66	1.421
787.84	1.424
788.02	1.374
788.19	1.374
788.37	1.331
788.55	1.333
788.73	1.314
788.91	1.304
789.09	1.263
789.27	1.240
789.44	1.268
789.62	1.289
789.80	1.326
789.98	1.424
790.16	1.368
790.34	1.358
790.51	1.330
790.69	1.416
790.87	1.440
791.05	1.441
791.23	1.406
791.41	1.396
791.58	1.403
791.76	1.325
791.94	1.227
792.12	1.250
792.30	1.252
792.48	1.245
792.65	1.233
792.83	1.247
793.01	1.256
793.19	1.255
793.37	1.217
793.54	1.208
793.72	1.229
793.90	1.227
794.08	1.198
794.26	1.196
794.43	1.213
794.61	1.168
794.79	1.141
794.97	1.141
795.15	1.147
795.32	1.155
795.50	1.135
795.68	1.119
795.86	1.120
796.04	1.131
796.21	1.125
796.39	1.122
796.57	1.144
796.75	1.172
796.92	1.178
797.10	1.190
797.28	1.200
797.46	1.209
797.64	1.224
797.81	1.252
797.99	1.250
798.17	1.259
798.35	1.243
798.52	1.264
798.70	1.236
798.88	1.266
799.06	1.277
799.23	1.273
799.41	1.290
799.59	1.270
799.77	1.241
799.94	1.262
800.12	1.284
800.30	1.344
800.48	1.350
800.65	1.366
800.83	1.323
801.01	1.297
801.19	1.317
801.36	1.298
801.54	1.306
801.72	1.350
801.90	1.316
802.07	1.304
802.25	1.247
802.43	1.205
802.60	1.198
802.78	1.214
802.96	1.221
803.14	1.199
803.31	1.201
803.49	1.202
803.67	1.179
803.84	1.194
804.02	1.176
804.20	1.186
804.38	1.186
804.55	1.175
804.73	1.146
804.91	1.148
805.08	1.179
805.26	1.170
805.44	1.452
805.61	1.467
805.79	1.458
805.97	1.449
806.15	1.420
806.32	1.400
806.50	1.433
806.68	1.436
806.85	1.405
807.03	1.356
807.21	1.426
807.38	1.148
807.56	1.132
807.74	1.156
807.91	1.175
808.09	1.188
808.27	1.260
808.44	1.358
808.62	1.376
808.80	1.396
808.97	1.387
809.15	1.368
809.33	1.436
809.50	1.456
809.68	1.404
809.86	1.434
810.03	1.599
810.21	1.481
810.39	1.395
810.56	1.419
810.74	1.501
810.91	2.578
811.09	2.328
811.27	-0.000
811.44	-0.000
811.62	-0.000
811.80	3.798
811.97	1.973
812.15	1.955
812.33	1.934
812.50	1.851
812.68	1.742
812.85	1.346
813.03	1.342
813.21	1.243
813.38	1.238
813.56	1.236
813.74	1.275
813.91	1.302
814.09	1.413
814.26	1.370
814.44	1.367
814.62	1.346
814.79	1.370
814.97	1.375
815.14	1.390
815.32	1.373
815.50	1.439
815.67	1.422
815.85	1.389
816.02	1.357
816.20	1.389
816.38	1.456
816.55	1.473
816.73	1.489
816.90	1.550
817.08	1.742
817.26	1.850
817.43	1.728
817.61	2.140
817.78	2.595
817.96	2.108
818.13	1.990
818.31	2.001
818.49	2.177
818.66	2.026
818.84	1.927
819.01	1.734
819.19	1.774
819.36	1.813
819.54	1.561
819.71	2.008
819.89	2.143
820.07	2.605
820.24	2.545
820.42	2.793
820.59	-0.000
820.77	-0.000
820.94	-0.000
821.12	-0.000
821.29	-0.000
821.47	-0.000
821.64	3.772
821.82	-0.000
822.00	-0.000
822.17	-0.000
822.35	-0.000
822.52	-0.000
822.70	-0.000
822.87	-0.000
823.05	-0.000
823.22	-0.000
823.40	-0.000
823.57	-0.000
823.75	-0.000
823.92	-0.000
824.10	-0.000
824.27	-0.000
824.45	-0.000
824.62	-0.000
824.80	-0.000
824.97	-0.000
825.15	-0.000
825.32	-0.000
825.50	-0.000
825.67	-0.000
825.85	-0.000
826.02	-0.000
826.20	-0.000
826.37	-0.000
826.55	-0.000
826.72	-0.000
826.90	-0.000
827.07	-0.000
827.25	-0.000
827.42	-0.000
827.60	-0.000
827.77	-0.000
827.95	-0.000
828.12	-0.000
828.30	-0.000
828.47	-0.000
828.65	-0.000
828.82	-0.000
829.00	-0.000
829.17	-0.000
829.34	-0.000
829.52	-0.000
829.69	-0.000
829.87	-0.000
830.04	-0.000
830.22	-0.000
830.39	-0.000
830.57	-0.000
830.74	-0.000
830.92	-0.000
831.09	-0.000
831.26	-0.000
831.44	-0.000
831.61	-0.000
831.79	-0.000
831.96	-0.000
832.14	-0.000
832.31	-0.000
832.49	-0.000
832.66	-0.000
832.83	-0.000
833.01	-0.000
833.18	-0.000
833.36	-0.000
833.53	-0.000
833.70	-0.000
833.88	-0.000
834.05	-0.000
834.23	-0.000
834.40	-0.000
834.58	-0.000
834.75	-0.000
834.92	-0.000
835.10	-0.000
835.27	-0.000
835.45	-0.000
835.62	-0.000
835.79	-0.000
835.97	-0.000
836.14	-0.000
836.32	-0.000
836.49	-0.000
836.66	-0.000
836.84	-0.000
837.01	-0.000
837.18	-0.000
837.36	-0.000
837.53	-0.000
837.71	-0.000
837.88	-0.000
838.05	-0.000
838.23	-0.000
838.40	-0.000
838.58	-0.000
838.75	-0.000
838.92	-0.000
839.10	-0.000
839.27	-0.000
839.44	-0.000
839.62	-0.000
839.79	-0.000
839.96	-0.000
840.14	-0.000
840.31	-0.000
840.48	-0.000
840.66	-0.000
840.83	-0.000
841.01	-0.000
841.18	-0.000
841.35	-0.000
841.53	-0.000
841.70	-0.000
841.87	-0.000
842.05	-0.000
842.22	-0.000
842.39	-0.000
842.57	-0.000
842.74	-0.000
842.91	-0.000
843.09	-0.000
843.26	-0.000
843.43	-0.000
843.60	-0.000
843.78	-0.000
843.95	-0.000
844.12	-0.000
844.30	-0.000
844.47	-0.000
844.64	-0.000
844.82	-0.000
844.99	-0.000
845.16	-0.000
845.34	-0.000
845.51	-0.000
845.68	-0.000
845.85	-0.000
846.03	-0.000
846.20	-0.000
846.37	-0.000
846.55	-0.000
846.72	-0.000
846.89	-0.000
847.06	-0.000
847.24	-0.000
847.41	-0.000
847.58	-0.000
847.76	-0.000
847.93	-0.000
848.10	-0.000
848.27	-0.000
848.45	-0.000
848.62	-0.000
848.79	-0.000
848.97	-0.000
849.14	-0.000
849.31	-0.000
849.48	-0.000
849.66	-0.000
849.83	-0.000
850.00	-0.000
850.17	-0.000
850.35	-0.000
850.52	-0.000
850.69	-0.000
850.86	-0.000
851.04	-0.000
851.21	-0.000
851.38	-0.000
851.55	-0.000
851.72	-0.000
851.90	-0.000
852.07	-0.000
852.24	-0.000
852.41	-0.000
852.59	-0.000
852.76	-0.000
852.93	-0.000
853.10	-0.000
853.28	-0.000
853.45	-0.000
853.62	-0.000
853.79	-0.000
853.96	-0.000
854.14	-0.000
854.31	-0.000
854.48	-0.000
854.65	-0.000
854.82	-0.000
855.00	-0.000
855.17	-0.000
855.34	-0.000
855.51	-0.000
855.68	-0.000
855.86	-0.000
856.03	-0.000
856.20	-0.000
856.37	-0.000
856.54	-0.000
856.72	-0.000
856.89	-0.000
857.06	-0.000
857.23	-0.000
857.40	-0.000
857.57	-0.000
857.75	-0.000
857.92	-0.000
858.09	-0.000
858.26	-0.000
858.43	-0.000
858.60	-0.000
858.78	-0.000
858.95	-0.000
859.12	-0.000
859.29	-0.000
859.46	-0.000
859.63	-0.000
859.81	-0.000
859.98	-0.000
860.15	-0.000
860.32	-0.000
860.49	-0.000
860.66	-0.000
860.83	-0.000
861.01	-0.000
861.18	-0.000
861.35	-0.000
861.52	-0.000
861.69	-0.000
861.86	-0.000
862.03	-0.000
862.21	-0.000
862.38	-0.000
862.55	-0.000
862.72	-0.000
862.89	-0.000
863.06	-0.000
863.23	-0.000
863.40	-0.000
863.58	-0.000
863.75	-0.000
863.92	-0.000
864.09	-0.000
864.26	-0.000
864.43	-0.000
864.60	-0.000
864.77	-0.000
864.94	-0.000
865.11	-0.000
865.29	-0.000
865.46	-0.000
865.63	-0.000
865.80	-0.000
865.97	-0.000
866.14	-0.000
866.31	-0.000
866.48	-0.000
866.65	-0.000
866.82	-0.000
866.99	-0.000
867.16	-0.000
867.34	-0.000
867.51	-0.000
867.68	-0.000
867.85	-0.000
868.02	-0.000
868.19	-0.000
868.36	-0.000
868.53	-0.000
868.70	-0.000
868.87	-0.000
869.04	-0.000
869.21	-0.000
869.38	-0.000
869.55	-0.000
869.72	-0.000
869.89	-0.000
870.06	-0.000
870.24	-0.000
870.41	-0.000
870.58	-0.000
870.75	-0.000
870.92	-0.000
871.09	-0.000
871.26	-0.000
871.43	-0.000
871.60	-0.000
871.77	-0.000
871.94	-0.000
872.11	-0.000
872.28	-0.000
872.45	-0.000
872.62	-0.000
872.79	-0.000
872.96	-0.000
873.13	-0.000
873.30	-0.000
873.47	-0.000
873.64	-0.000
873.81	-0.000
873.98	-0.000
874.15	-0.000
874.32	-0.000
874.49	-0.000
874.66	-0.000
874.83	-0.000
875.00	-0.000
875.17	-0.000
875.34	-0.000
875.51	-0.000
875.68	-0.000
875.85	-0.000
876.02	-0.000
876.19	-0.000
876.36	-0.000
876.53	-0.000
876.70	-0.000
876.87	-0.000
877.04	-0.000
877.21	-0.000
877.38	-0.000
877.55	-0.000
877.72	-0.000
877.89	-0.000
878.06	-0.000
878.23	-0.000
878.39	-0.000
878.56	-0.000
878.73	-0.000
878.90	-0.000
879.07	-0.000
879.24	-0.000
879.41	-0.000
879.58	-0.000
879.75	-0.000
879.92	-0.000
880.09	-0.000
880.26	-0.000
880.43	-0.000
880.60	-0.000
880.77	-0.000
880.94	-0.000
881.11	-0.000
881.27	-0.000
881.44	-0.000
881.61	-0.000
881.78	-0.000
881.95	-0.000
882.12	-0.000
882.29	-0.000
882.46	-0.000
882.63	-0.000
882.80	-0.000
882.97	-0.000
883.14	-0.000
883.30	-0.000
883.47	-0.000
883.64	-0.000
883.81	-0.000
883.98	-0.000
884.15	-0.000
884.32	-0.000
884.49	-0.000
884.66	-0.000
884.82	-0.000
884.99	-0.000
885.16	-0.000
885.33	-0.000
885.50	-0.000
885.67	-0.000
885.84	-0.000
886.01	-0.000
886.17	-0.000
886.34	-0.000
886.51	-0.000
886.68	-0.000
886.85	-0.000
887.02	-0.000
887.19	-0.000
887.36	-0.000
887.52	-0.000
887.69	-0.000
887.86	-0.000
888.03	-0.000
888.20	-0.000
888.37	-0.000
888.54	-0.000
888.70	-0.000
888.87	-0.000
889.04	-0.000
889.21	-0.000
889.38	-0.000
889.55	-0.000
889.71	-0.000
889.88	-0.000
890.05	-0.000
890.22	-0.000
890.39	-0.000
>>>>>End Processed Spectral Data<<<<<
