SpectraSuite Data File
++++++++++++++++++++++++++++++++++++
Date: Fri Jun 19 15:19:49 CEST 2015
User: introlabs
Dark Spectrum Present: Yes
Reference Spectrum Present: Yes
Number of Sampled Component Spectra: 1
Spectrometers: USB4H08886
Integration Time (usec): 745692 (USB4H08886)
Spectra Averaged: 5 (USB4H08886)
Boxcar Smoothing: 5 (USB4H08886)
Correct for Electrical Dark: Yes (USB4H08886)
Strobe/Lamp Enabled: No (USB4H08886)
Correct for Detector Non-linearity: Yes (USB4H08886)
Correct for Stray Light: Yes (USB4H08886)
Number of Pixels in Processed Spectrum: 3648
>>>>>Begin Processed Spectral Data<<<<<
178.14	-0.000
178.36	-0.000
178.57	-0.000
178.79	-0.000
179.01	-0.000
179.22	-0.000
179.44	-0.000
179.65	-0.000
179.87	-0.000
180.08	-0.000
180.30	-0.000
180.52	-0.000
180.73	-0.000
180.95	-0.000
181.16	-0.000
181.38	-0.000
181.59	-0.000
181.81	-0.000
182.03	-0.000
182.24	-0.000
182.46	-0.000
182.67	-0.000
182.89	-0.000
183.10	-0.000
183.32	-0.000
183.54	-0.000
183.75	-0.000
183.97	-0.000
184.18	-0.000
184.40	-0.000
184.61	-0.000
184.83	-0.000
185.04	-0.000
185.26	-0.000
185.48	-0.000
185.69	-0.000
185.91	-0.000
186.12	-0.000
186.34	-0.000
186.55	-0.000
186.77	-0.000
186.98	-0.000
187.20	-0.000
187.42	-0.000
187.63	-0.000
187.85	-0.000
188.06	-0.000
188.28	-0.000
188.49	-0.000
188.71	-0.000
188.92	-0.000
189.14	-0.000
189.36	-0.000
189.57	-0.000
189.79	-0.000
190.00	-0.000
190.22	-0.000
190.43	-0.000
190.65	-0.000
190.86	-0.000
191.08	-0.000
191.29	-0.000
191.51	-0.000
191.72	-0.000
191.94	-0.000
192.16	-0.000
192.37	-0.000
192.59	-0.000
192.80	-0.000
193.02	-0.000
193.23	-0.000
193.45	-0.000
193.66	-0.000
193.88	-0.000
194.09	-0.000
194.31	-0.000
194.52	-0.000
194.74	-0.000
194.95	-0.000
195.17	-0.000
195.38	-0.000
195.60	-0.000
195.81	-0.000
196.03	-0.000
196.25	-0.000
196.46	-0.000
196.68	-0.000
196.89	-0.000
197.11	-0.000
197.32	-0.000
197.54	-0.000
197.75	-0.000
197.97	-0.000
198.18	-0.000
198.40	-0.000
198.61	-0.000
198.83	-0.000
199.04	-0.000
199.26	-0.000
199.47	-0.000
199.69	-0.000
199.90	-0.000
200.12	-0.000
200.33	-0.000
200.55	-0.000
200.76	-0.000
200.98	-0.000
201.19	-0.000
201.41	-0.000
201.62	-0.000
201.84	-0.000
202.05	-0.000
202.27	-0.000
202.48	-0.000
202.70	-0.000
202.91	-0.000
203.13	-0.000
203.34	-0.000
203.56	-0.000
203.77	-0.000
203.99	-0.000
204.20	-0.000
204.42	-0.000
204.63	-0.000
204.85	-0.000
205.06	-0.000
205.28	-0.000
205.49	-0.000
205.71	-0.000
205.92	-0.000
206.14	-0.000
206.35	-0.000
206.56	-0.000
206.78	-0.000
206.99	-0.000
207.21	-0.000
207.42	-0.000
207.64	-0.000
207.85	-0.000
208.07	-0.000
208.28	-0.000
208.50	-0.000
208.71	-0.000
208.93	-0.000
209.14	-0.000
209.36	-0.000
209.57	-0.000
209.79	-0.000
210.00	-0.000
210.22	-0.000
210.43	-0.000
210.64	-0.000
210.86	-0.000
211.07	-0.000
211.29	-0.000
211.50	-0.000
211.72	-0.000
211.93	-0.000
212.15	-0.000
212.36	-0.000
212.58	-0.000
212.79	-0.000
213.01	-0.000
213.22	-0.000
213.43	-0.000
213.65	-0.000
213.86	-0.000
214.08	-0.000
214.29	-0.000
214.51	-0.000
214.72	-0.000
214.94	-0.000
215.15	-0.000
215.36	-0.000
215.58	-0.000
215.79	-0.000
216.01	-0.000
216.22	-0.000
216.44	-0.000
216.65	-0.000
216.87	-0.000
217.08	-0.000
217.29	-0.000
217.51	-0.000
217.72	-0.000
217.94	-0.000
218.15	-0.000
218.37	-0.000
218.58	-0.000
218.80	-0.000
219.01	-0.000
219.22	-0.000
219.44	-0.000
219.65	-0.000
219.87	-0.000
220.08	-0.000
220.30	-0.000
220.51	-0.000
220.72	-0.000
220.94	-0.000
221.15	-0.000
221.37	-0.000
221.58	-0.000
221.79	-0.000
222.01	-0.000
222.22	-0.000
222.44	-0.000
222.65	-0.000
222.87	-0.000
223.08	-0.000
223.29	-0.000
223.51	-0.000
223.72	-0.000
223.94	-0.000
224.15	-0.000
224.36	-0.000
224.58	-0.000
224.79	-0.000
225.01	-0.000
225.22	-0.000
225.44	-0.000
225.65	-0.000
225.86	-0.000
226.08	-0.000
226.29	-0.000
226.51	-0.000
226.72	-0.000
226.93	-0.000
227.15	-0.000
227.36	-0.000
227.58	-0.000
227.79	-0.000
228.00	-0.000
228.22	-0.000
228.43	-0.000
228.65	-0.000
228.86	-0.000
229.07	-0.000
229.29	-0.000
229.50	-0.000
229.72	-0.000
229.93	-0.000
230.14	-0.000
230.36	-0.000
230.57	-0.000
230.78	-0.000
231.00	-0.000
231.21	-0.000
231.43	-0.000
231.64	-0.000
231.85	-0.000
232.07	-0.000
232.28	-0.000
232.50	-0.000
232.71	-0.000
232.92	-0.000
233.14	-0.000
233.35	-0.000
233.56	-0.000
233.78	-0.000
233.99	-0.000
234.21	-0.000
234.42	-0.000
234.63	-0.000
234.85	-0.000
235.06	-0.000
235.27	-0.000
235.49	-0.000
235.70	-0.000
235.91	-0.000
236.13	-0.000
236.34	-0.000
236.56	-0.000
236.77	-0.000
236.98	-0.000
237.20	-0.000
237.41	-0.000
237.62	-0.000
237.84	-0.000
238.05	-0.000
238.26	-0.000
238.48	-0.000
238.69	-0.000
238.91	-0.000
239.12	-0.000
239.33	-0.000
239.55	-0.000
239.76	-0.000
239.97	-0.000
240.19	-0.000
240.40	-0.000
240.61	-0.000
240.83	-0.000
241.04	-0.000
241.25	-0.000
241.47	-0.000
241.68	-0.000
241.89	-0.000
242.11	-0.000
242.32	-0.000
242.53	-0.000
242.75	-0.000
242.96	-0.000
243.17	-0.000
243.39	-0.000
243.60	-0.000
243.81	-0.000
244.03	-0.000
244.24	-0.000
244.45	-0.000
244.67	-0.000
244.88	-0.000
245.09	-0.000
245.31	-0.000
245.52	-0.000
245.73	-0.000
245.95	-0.000
246.16	-0.000
246.37	-0.000
246.59	-0.000
246.80	-0.000
247.01	-0.000
247.23	-0.000
247.44	-0.000
247.65	-0.000
247.87	-0.000
248.08	-0.000
248.29	-0.000
248.51	-0.000
248.72	-0.000
248.93	-0.000
249.15	-0.000
249.36	-0.000
249.57	-0.000
249.78	-0.000
250.00	-0.000
250.21	-0.000
250.42	-0.000
250.64	-0.000
250.85	-0.000
251.06	-0.000
251.28	-0.000
251.49	-0.000
251.70	-0.000
251.92	-0.000
252.13	-0.000
252.34	-0.000
252.55	-0.000
252.77	-0.000
252.98	-0.000
253.19	-0.000
253.41	-0.000
253.62	-0.000
253.83	-0.000
254.05	-0.000
254.26	-0.000
254.47	-0.000
254.68	-0.000
254.90	-0.000
255.11	-0.000
255.32	-0.000
255.54	-0.000
255.75	-0.000
255.96	-0.000
256.17	-0.000
256.39	-0.000
256.60	-0.000
256.81	-0.000
257.03	-0.000
257.24	-0.000
257.45	-0.000
257.66	-0.000
257.88	-0.000
258.09	-0.000
258.30	-0.000
258.51	-0.000
258.73	-0.000
258.94	-0.000
259.15	-0.000
259.37	-0.000
259.58	-0.000
259.79	-0.000
260.00	-0.000
260.22	-0.000
260.43	-0.000
260.64	-0.000
260.85	-0.000
261.07	-0.000
261.28	-0.000
261.49	-0.000
261.71	-0.000
261.92	-0.000
262.13	-0.000
262.34	-0.000
262.56	-0.000
262.77	-0.000
262.98	-0.000
263.19	-0.000
263.41	-0.000
263.62	-0.000
263.83	-0.000
264.04	-0.000
264.26	-0.000
264.47	-0.000
264.68	-0.000
264.89	-0.000
265.11	-0.000
265.32	-0.000
265.53	-0.000
265.74	-0.000
265.96	-0.000
266.17	-0.000
266.38	-0.000
266.59	-0.000
266.81	-0.000
267.02	-0.000
267.23	-0.000
267.44	-0.000
267.65	-0.000
267.87	-0.000
268.08	-0.000
268.29	-0.000
268.50	-0.000
268.72	-0.000
268.93	-0.000
269.14	-0.000
269.35	-0.000
269.57	-0.000
269.78	-0.000
269.99	-0.000
270.20	-0.000
270.41	-0.000
270.63	-0.000
270.84	-0.000
271.05	-0.000
271.26	-0.000
271.48	-0.000
271.69	-0.000
271.90	-0.000
272.11	-0.000
272.32	-0.000
272.54	-0.000
272.75	-0.000
272.96	-0.000
273.17	-0.000
273.39	-0.000
273.60	-0.000
273.81	-0.000
274.02	-0.000
274.23	-0.000
274.45	-0.000
274.66	-0.000
274.87	-0.000
275.08	-0.000
275.29	-0.000
275.51	-0.000
275.72	-0.000
275.93	-0.000
276.14	-0.000
276.35	-0.000
276.57	-0.000
276.78	-0.000
276.99	-0.000
277.20	-0.000
277.41	-0.000
277.63	-0.000
277.84	-0.000
278.05	-0.000
278.26	-0.000
278.47	-0.000
278.69	-0.000
278.90	-0.000
279.11	-0.000
279.32	-0.000
279.53	-0.000
279.74	-0.000
279.96	-0.000
280.17	-0.000
280.38	-0.000
280.59	-0.000
280.80	-0.000
281.02	-0.000
281.23	-0.000
281.44	-0.000
281.65	-0.000
281.86	-0.000
282.07	-0.000
282.29	-0.000
282.50	-0.000
282.71	-0.000
282.92	-0.000
283.13	-0.000
283.35	-0.000
283.56	-0.000
283.77	-0.000
283.98	-0.000
284.19	-0.000
284.40	-0.000
284.62	-0.000
284.83	-0.000
285.04	-0.000
285.25	-0.000
285.46	-0.000
285.67	-0.000
285.88	-0.000
286.10	-0.000
286.31	-0.000
286.52	-0.000
286.73	-0.000
286.94	-0.000
287.15	-0.000
287.37	-0.000
287.58	-0.000
287.79	-0.000
288.00	-0.000
288.21	-0.000
288.42	-0.000
288.63	-0.000
288.85	-0.000
289.06	-0.000
289.27	-0.000
289.48	-0.000
289.69	-0.000
289.90	-0.000
290.11	-0.000
290.33	-0.000
290.54	-0.000
290.75	-0.000
290.96	-0.000
291.17	-0.000
291.38	-0.000
291.59	-0.000
291.81	-0.000
292.02	-0.000
292.23	-0.000
292.44	-0.000
292.65	-0.000
292.86	-0.000
293.07	-0.000
293.28	-0.000
293.50	-0.000
293.71	-0.000
293.92	-0.000
294.13	-0.000
294.34	-0.000
294.55	-0.000
294.76	-0.000
294.97	-0.000
295.19	-0.000
295.40	-0.000
295.61	-0.000
295.82	-0.000
296.03	-0.000
296.24	-0.000
296.45	1.999
296.66	1.735
296.87	1.756
297.09	1.807
297.30	1.993
297.51	1.673
297.72	1.653
297.93	1.735
298.14	1.702
298.35	1.659
298.56	1.644
298.77	1.755
298.99	1.725
299.20	1.712
299.41	1.691
299.62	1.642
299.83	1.634
300.04	1.576
300.25	1.565
300.46	1.592
300.67	1.569
300.88	1.523
301.10	1.527
301.31	1.594
301.52	1.530
301.73	1.484
301.94	1.486
302.15	1.499
302.36	1.457
302.57	1.407
302.78	1.412
302.99	1.450
303.20	1.469
303.41	1.383
303.63	1.367
303.84	1.375
304.05	1.370
304.26	1.313
304.47	1.316
304.68	1.315
304.89	1.305
305.10	1.271
305.31	1.261
305.52	1.302
305.73	1.297
305.94	1.258
306.15	1.250
306.37	1.271
306.58	1.279
306.79	1.253
307.00	1.273
307.21	1.309
307.42	1.302
307.63	1.270
307.84	1.237
308.05	1.271
308.26	1.271
308.47	1.253
308.68	1.249
308.89	1.248
309.10	1.243
309.31	1.207
309.52	1.197
309.73	1.209
309.95	1.202
310.16	1.178
310.37	1.167
310.58	1.182
310.79	1.180
311.00	1.177
311.21	1.176
311.42	1.177
311.63	1.173
311.84	1.159
312.05	1.157
312.26	1.178
312.47	1.187
312.68	1.163
312.89	1.150
313.10	1.154
313.31	1.128
313.52	1.133
313.73	1.135
313.94	1.137
314.15	1.119
314.36	1.100
314.57	1.092
314.78	1.079
314.99	1.074
315.21	1.064
315.42	1.070
315.63	1.081
315.84	1.059
316.05	1.046
316.26	1.055
316.47	1.070
316.68	1.067
316.89	1.052
317.10	1.071
317.31	1.076
317.52	1.075
317.73	1.054
317.94	1.055
318.15	1.094
318.36	1.093
318.57	1.077
318.78	1.066
318.99	1.096
319.20	1.092
319.41	1.062
319.62	1.066
319.83	1.079
320.04	1.075
320.25	1.063
320.46	1.031
320.67	1.032
320.88	1.028
321.09	1.016
321.30	1.002
321.51	1.016
321.72	1.014
321.93	0.996
322.14	0.988
322.35	1.013
322.56	1.016
322.77	1.005
322.98	1.016
323.19	1.023
323.40	1.030
323.61	1.010
323.82	1.003
324.03	1.009
324.24	1.009
324.45	0.997
324.66	0.979
324.87	0.972
325.08	0.972
325.29	0.956
325.50	0.949
325.71	0.953
325.92	0.960
326.13	0.949
326.34	0.948
326.55	0.955
326.76	0.954
326.97	0.944
327.18	0.940
327.39	0.963
327.60	0.963
327.80	0.964
328.01	0.963
328.22	0.963
328.43	0.966
328.64	0.956
328.85	0.960
329.06	0.963
329.27	0.963
329.48	0.958
329.69	0.941
329.90	0.950
330.11	0.944
330.32	0.937
330.53	0.931
330.74	0.930
330.95	0.927
331.16	0.913
331.37	0.920
331.58	0.919
331.79	0.919
332.00	0.910
332.21	0.904
332.42	0.908
332.63	0.900
332.83	0.896
333.04	0.899
333.25	0.912
333.46	0.911
333.67	0.898
333.88	0.901
334.09	0.910
334.30	0.907
334.51	0.900
334.72	0.895
334.93	0.897
335.14	0.897
335.35	0.889
335.56	0.884
335.77	0.892
335.98	0.891
336.18	0.885
336.39	0.878
336.60	0.882
336.81	0.880
337.02	0.879
337.23	0.884
337.44	0.886
337.65	0.888
337.86	0.878
338.07	0.873
338.28	0.877
338.49	0.876
338.70	0.869
338.91	0.876
339.11	0.883
339.32	0.879
339.53	0.868
339.74	0.865
339.95	0.862
340.16	0.860
340.37	0.854
340.58	0.851
340.79	0.854
341.00	0.854
341.21	0.845
341.41	0.846
341.62	0.847
341.83	0.847
342.04	0.842
342.25	0.853
342.46	0.857
342.67	0.855
342.88	0.849
343.09	0.847
343.30	0.854
343.50	0.856
343.71	0.845
343.92	0.843
344.13	0.847
344.34	0.847
344.55	0.831
344.76	0.829
344.97	0.833
345.18	0.832
345.38	0.830
345.59	0.823
345.80	0.821
346.01	0.820
346.22	0.818
346.43	0.812
346.64	0.819
346.85	0.818
347.06	0.812
347.26	0.812
347.47	0.816
347.68	0.811
347.89	0.809
348.10	0.804
348.31	0.810
348.52	0.809
348.73	0.808
348.93	0.805
349.14	0.806
349.35	0.807
349.56	0.801
349.77	0.796
349.98	0.802
350.19	0.799
350.39	0.796
350.60	0.792
350.81	0.807
351.02	0.806
351.23	0.802
351.44	0.804
351.65	0.806
351.86	0.803
352.06	0.803
352.27	0.803
352.48	0.804
352.69	0.803
352.90	0.798
353.11	0.785
353.31	0.792
353.52	0.787
353.73	0.780
353.94	0.781
354.15	0.787
354.36	0.786
354.57	0.777
354.77	0.780
354.98	0.779
355.19	0.779
355.40	0.779
355.61	0.785
355.82	0.789
356.02	0.788
356.23	0.782
356.44	0.783
356.65	0.786
356.86	0.786
357.07	0.781
357.27	0.783
357.48	0.784
357.69	0.779
357.90	0.764
358.11	0.761
358.32	0.764
358.52	0.766
358.73	0.758
358.94	0.760
359.15	0.765
359.36	0.765
359.56	0.760
359.77	0.758
359.98	0.764
360.19	0.765
360.40	0.761
360.61	0.763
360.81	0.761
361.02	0.760
361.23	0.753
361.44	0.751
361.65	0.753
361.85	0.753
362.06	0.751
362.27	0.753
362.48	0.753
362.69	0.756
362.89	0.750
363.10	0.753
363.31	0.757
363.52	0.759
363.73	0.754
363.93	0.753
364.14	0.755
364.35	0.757
364.56	0.747
364.77	0.748
364.97	0.749
365.18	0.750
365.39	0.745
365.60	0.741
365.81	0.742
366.01	0.743
366.22	0.741
366.43	0.740
366.64	0.740
366.84	0.746
367.05	0.744
367.26	0.744
367.47	0.746
367.68	0.745
367.88	0.743
368.09	0.741
368.30	0.742
368.51	0.742
368.71	0.741
368.92	0.745
369.13	0.744
369.34	0.743
369.55	0.742
369.75	0.741
369.96	0.748
370.17	0.748
370.38	0.745
370.58	0.744
370.79	0.749
371.00	0.747
371.21	0.739
371.41	0.744
371.62	0.747
371.83	0.743
372.04	0.741
372.24	0.735
372.45	0.736
372.66	0.736
372.87	0.734
373.07	0.730
373.28	0.731
373.49	0.734
373.70	0.726
373.90	0.725
374.11	0.733
374.32	0.733
374.53	0.732
374.73	0.732
374.94	0.734
375.15	0.734
375.36	0.731
375.56	0.740
375.77	0.739
375.98	0.738
376.19	0.737
376.39	0.730
376.60	0.733
376.81	0.733
377.02	0.732
377.22	0.731
377.43	0.731
377.64	0.732
377.84	0.724
378.05	0.729
378.26	0.735
378.47	0.734
378.67	0.732
378.88	0.729
379.09	0.729
379.30	0.729
379.50	0.726
379.71	0.728
379.92	0.730
380.12	0.730
380.33	0.722
380.54	0.719
380.75	0.725
380.95	0.725
381.16	0.724
381.37	0.725
381.57	0.727
381.78	0.727
381.99	0.727
382.20	0.726
382.40	0.729
382.61	0.729
382.82	0.726
383.02	0.720
383.23	0.723
383.44	0.723
383.64	0.721
383.85	0.724
384.06	0.727
384.27	0.725
384.47	0.724
384.68	0.724
384.89	0.730
385.09	0.730
385.30	0.729
385.51	0.728
385.71	0.730
385.92	0.731
386.13	0.730
386.33	0.733
386.54	0.733
386.75	0.732
386.95	0.728
387.16	0.723
387.37	0.725
387.58	0.726
387.78	0.724
387.99	0.722
388.20	0.724
388.40	0.720
388.61	0.716
388.82	0.720
389.02	0.723
389.23	0.723
389.44	0.722
389.64	0.722
389.85	0.732
390.06	0.733
390.26	0.733
390.47	0.733
390.68	0.736
390.88	0.734
391.09	0.729
391.30	0.728
391.50	0.728
391.71	0.728
391.92	0.725
392.12	0.718
392.33	0.718
392.53	0.718
392.74	0.717
392.95	0.717
393.15	0.719
393.36	0.721
393.57	0.720
393.77	0.724
393.98	0.725
394.19	0.726
394.39	0.725
394.60	0.726
394.81	0.728
395.01	0.726
395.22	0.725
395.43	0.726
395.63	0.730
395.84	0.731
396.04	0.727
396.25	0.729
396.46	0.731
396.66	0.729
396.87	0.727
397.08	0.724
397.28	0.727
397.49	0.727
397.69	0.724
397.90	0.720
398.11	0.721
398.31	0.722
398.52	0.718
398.73	0.719
398.93	0.719
399.14	0.717
399.34	0.716
399.55	0.717
399.76	0.718
399.96	0.718
400.17	0.716
400.37	0.715
400.58	0.722
400.79	0.724
400.99	0.721
401.20	0.727
401.41	0.730
401.61	0.731
401.82	0.736
402.02	0.736
402.23	0.736
402.44	0.737
402.64	0.737
402.85	0.731
403.05	0.730
403.26	0.729
403.47	0.723
403.67	0.722
403.88	0.723
404.08	0.717
404.29	0.716
404.50	0.716
404.70	0.716
404.91	0.715
405.11	0.712
405.32	0.712
405.52	0.713
405.73	0.712
405.94	0.710
406.14	0.713
406.35	0.715
406.55	0.715
406.76	0.712
406.97	0.713
407.17	0.715
407.38	0.716
407.58	0.714
407.79	0.717
407.99	0.719
408.20	0.720
408.41	0.716
408.61	0.714
408.82	0.715
409.02	0.716
409.23	0.714
409.43	0.712
409.64	0.713
409.84	0.713
410.05	0.710
410.26	0.708
410.46	0.707
410.67	0.707
410.87	0.708
411.08	0.710
411.28	0.711
411.49	0.713
411.69	0.711
411.90	0.712
412.11	0.713
412.31	0.714
412.52	0.713
412.72	0.714
412.93	0.715
413.13	0.713
413.34	0.710
413.54	0.711
413.75	0.712
413.95	0.712
414.16	0.708
414.37	0.711
414.57	0.711
414.78	0.713
414.98	0.712
415.19	0.713
415.39	0.710
415.60	0.712
415.80	0.712
416.01	0.711
416.21	0.713
416.42	0.713
416.62	0.709
416.83	0.709
417.03	0.708
417.24	0.708
417.44	0.706
417.65	0.705
417.86	0.706
418.06	0.704
418.27	0.702
418.47	0.703
418.68	0.704
418.88	0.704
419.09	0.703
419.29	0.703
419.50	0.704
419.70	0.704
419.91	0.703
420.11	0.700
420.32	0.702
420.52	0.701
420.73	0.701
420.93	0.702
421.14	0.703
421.34	0.702
421.55	0.698
421.75	0.699
421.96	0.700
422.16	0.700
422.37	0.700
422.57	0.697
422.78	0.698
422.98	0.694
423.19	0.692
423.39	0.690
423.60	0.694
423.80	0.695
424.01	0.694
424.21	0.695
424.42	0.696
424.62	0.696
424.83	0.695
425.03	0.696
425.23	0.698
425.44	0.698
425.64	0.699
425.85	0.698
426.05	0.698
426.26	0.698
426.46	0.694
426.67	0.694
426.87	0.698
427.08	0.699
427.28	0.697
427.49	0.698
427.69	0.699
427.90	0.698
428.10	0.695
428.31	0.695
428.51	0.697
428.71	0.697
428.92	0.697
429.12	0.694
429.33	0.694
429.53	0.698
429.74	0.702
429.94	0.702
430.15	0.702
430.35	0.701
430.56	0.699
430.76	0.698
430.96	0.698
431.17	0.695
431.37	0.692
431.58	0.690
431.78	0.687
431.99	0.680
432.19	0.681
432.40	0.683
432.60	0.684
432.80	0.685
433.01	0.684
433.21	0.684
433.42	0.686
433.62	0.686
433.83	0.687
434.03	0.690
434.23	0.693
434.44	0.692
434.64	0.690
434.85	0.695
435.05	0.696
435.26	0.696
435.46	0.695
435.66	0.694
435.87	0.694
436.07	0.694
436.28	0.690
436.48	0.687
436.69	0.685
436.89	0.686
437.09	0.680
437.30	0.678
437.50	0.679
437.71	0.690
437.91	0.689
438.11	0.690
438.32	0.695
438.52	0.695
438.73	0.695
438.93	0.693
439.13	0.692
439.34	0.696
439.54	0.694
439.75	0.694
439.95	0.684
440.15	0.689
440.36	0.687
440.56	0.684
440.77	0.685
440.97	0.684
441.17	0.684
441.38	0.686
441.58	0.682
441.79	0.682
441.99	0.680
442.19	0.679
442.40	0.676
442.60	0.676
442.81	0.674
443.01	0.674
443.21	0.674
443.42	0.673
443.62	0.671
443.82	0.670
444.03	0.671
444.23	0.672
444.44	0.672
444.64	0.671
444.84	0.672
445.05	0.672
445.25	0.670
445.45	0.669
445.66	0.672
445.86	0.672
446.06	0.673
446.27	0.672
446.47	0.675
446.68	0.673
446.88	0.672
447.08	0.671
447.29	0.673
447.49	0.674
447.69	0.673
447.90	0.672
448.10	0.674
448.30	0.672
448.51	0.674
448.71	0.671
448.91	0.673
449.12	0.672
449.32	0.673
449.52	0.672
449.73	0.676
449.93	0.675
450.14	0.676
450.34	0.675
450.54	0.677
450.75	0.674
450.95	0.673
451.15	0.673
451.36	0.675
451.56	0.672
451.76	0.671
451.97	0.668
452.17	0.668
452.37	0.666
452.58	0.664
452.78	0.663
452.98	0.665
453.19	0.665
453.39	0.665
453.59	0.664
453.79	0.665
454.00	0.665
454.20	0.665
454.40	0.665
454.61	0.667
454.81	0.667
455.01	0.666
455.22	0.667
455.42	0.669
455.62	0.667
455.83	0.667
456.03	0.669
456.23	0.670
456.44	0.670
456.64	0.669
456.84	0.670
457.04	0.670
457.25	0.669
457.45	0.665
457.65	0.664
457.86	0.665
458.06	0.663
458.26	0.659
458.47	0.659
458.67	0.660
458.87	0.660
459.07	0.657
459.28	0.659
459.48	0.662
459.68	0.662
459.89	0.661
460.09	0.659
460.29	0.661
460.49	0.662
460.70	0.661
460.90	0.661
461.10	0.662
461.31	0.661
461.51	0.658
461.71	0.660
461.91	0.661
462.12	0.661
462.32	0.660
462.52	0.661
462.72	0.663
462.93	0.664
463.13	0.662
463.33	0.663
463.53	0.665
463.74	0.665
463.94	0.660
464.14	0.661
464.35	0.662
464.55	0.662
464.75	0.661
464.95	0.658
465.16	0.660
465.36	0.659
465.56	0.658
465.76	0.657
465.97	0.658
466.17	0.659
466.37	0.656
466.57	0.657
466.78	0.657
466.98	0.657
467.18	0.654
467.38	0.653
467.59	0.654
467.79	0.656
467.99	0.654
468.19	0.655
468.39	0.659
468.60	0.659
468.80	0.657
469.00	0.659
469.20	0.660
469.41	0.660
469.61	0.660
469.81	0.660
470.01	0.659
470.22	0.660
470.42	0.659
470.62	0.656
470.82	0.657
471.02	0.656
471.23	0.654
471.43	0.655
471.63	0.657
471.83	0.657
472.04	0.655
472.24	0.654
472.44	0.659
472.64	0.659
472.84	0.656
473.05	0.657
473.25	0.660
473.45	0.660
473.65	0.658
473.85	0.658
474.06	0.660
474.26	0.659
474.46	0.661
474.66	0.657
474.86	0.658
475.07	0.658
475.27	0.656
475.47	0.653
475.67	0.654
475.87	0.656
476.08	0.653
476.28	0.653
476.48	0.654
476.68	0.652
476.88	0.650
477.09	0.652
477.29	0.653
477.49	0.653
477.69	0.653
477.89	0.653
478.09	0.652
478.30	0.655
478.50	0.652
478.70	0.652
478.90	0.652
479.10	0.655
479.31	0.656
479.51	0.653
479.71	0.654
479.91	0.654
480.11	0.653
480.31	0.653
480.52	0.651
480.72	0.651
480.92	0.650
481.12	0.649
481.32	0.647
481.52	0.645
481.72	0.646
481.93	0.649
482.13	0.650
482.33	0.649
482.53	0.648
482.73	0.648
482.93	0.649
483.14	0.649
483.34	0.649
483.54	0.650
483.74	0.649
483.94	0.648
484.14	0.645
484.34	0.645
484.55	0.646
484.75	0.645
484.95	0.643
485.15	0.643
485.35	0.642
485.55	0.642
485.75	0.640
485.96	0.640
486.16	0.642
486.36	0.640
486.56	0.639
486.76	0.639
486.96	0.639
487.16	0.638
487.36	0.636
487.57	0.636
487.77	0.637
487.97	0.637
488.17	0.635
488.37	0.634
488.57	0.634
488.77	0.635
488.97	0.633
489.18	0.633
489.38	0.635
489.58	0.636
489.78	0.635
489.98	0.634
490.18	0.634
490.38	0.635
490.58	0.634
490.78	0.635
490.98	0.636
491.19	0.637
491.39	0.636
491.59	0.635
491.79	0.638
491.99	0.639
492.19	0.639
492.39	0.642
492.59	0.642
492.79	0.644
492.99	0.644
493.20	0.644
493.40	0.644
493.60	0.646
493.80	0.644
494.00	0.642
494.20	0.642
494.40	0.642
494.60	0.639
494.80	0.643
495.00	0.641
495.20	0.640
495.40	0.639
495.61	0.641
495.81	0.641
496.01	0.644
496.21	0.645
496.41	0.644
496.61	0.645
496.81	0.644
497.01	0.639
497.21	0.639
497.41	0.639
497.61	0.639
497.81	0.636
498.01	0.636
498.21	0.634
498.41	0.631
498.61	0.632
498.82	0.634
499.02	0.636
499.22	0.636
499.42	0.635
499.62	0.637
499.82	0.637
500.02	0.639
500.22	0.638
500.42	0.640
500.62	0.640
500.82	0.641
501.02	0.639
501.22	0.639
501.42	0.639
501.62	0.641
501.82	0.641
502.02	0.641
502.22	0.640
502.42	0.642
502.62	0.639
502.82	0.639
503.02	0.639
503.22	0.640
503.42	0.637
503.63	0.637
503.83	0.635
504.03	0.634
504.23	0.633
504.43	0.633
504.63	0.634
504.83	0.634
505.03	0.633
505.23	0.635
505.43	0.637
505.63	0.637
505.83	0.637
506.03	0.638
506.23	0.640
506.43	0.640
506.63	0.640
506.83	0.638
507.03	0.640
507.23	0.640
507.43	0.637
507.63	0.638
507.83	0.638
508.03	0.638
508.23	0.638
508.43	0.637
508.63	0.638
508.83	0.638
509.03	0.639
509.23	0.638
509.43	0.639
509.63	0.640
509.83	0.639
510.03	0.641
510.23	0.642
510.43	0.643
510.63	0.643
510.83	0.644
511.03	0.645
511.23	0.643
511.43	0.642
511.63	0.643
511.83	0.646
512.03	0.646
512.22	0.643
512.42	0.643
512.62	0.644
512.82	0.643
513.02	0.642
513.22	0.643
513.42	0.644
513.62	0.648
513.82	0.645
514.02	0.645
514.22	0.646
514.42	0.646
514.62	0.646
514.82	0.646
515.02	0.648
515.22	0.651
515.42	0.650
515.62	0.652
515.82	0.651
516.02	0.652
516.22	0.652
516.42	0.653
516.62	0.654
516.82	0.656
517.01	0.655
517.21	0.654
517.41	0.657
517.61	0.658
517.81	0.655
518.01	0.654
518.21	0.653
518.41	0.653
518.61	0.652
518.81	0.652
519.01	0.653
519.21	0.653
519.41	0.651
519.61	0.646
519.81	0.648
520.00	0.648
520.20	0.648
520.40	0.650
520.60	0.651
520.80	0.649
521.00	0.650
521.20	0.651
521.40	0.655
521.60	0.656
521.80	0.655
522.00	0.656
522.20	0.658
522.39	0.657
522.59	0.655
522.79	0.656
522.99	0.659
523.19	0.657
523.39	0.654
523.59	0.653
523.79	0.656
523.99	0.659
524.19	0.657
524.38	0.656
524.58	0.658
524.78	0.658
524.98	0.657
525.18	0.659
525.38	0.660
525.58	0.661
525.78	0.658
525.98	0.656
526.18	0.656
526.37	0.655
526.57	0.657
526.77	0.657
526.97	0.657
527.17	0.658
527.37	0.655
527.57	0.657
527.77	0.658
527.96	0.659
528.16	0.658
528.36	0.658
528.56	0.660
528.76	0.658
528.96	0.656
529.16	0.657
529.36	0.660
529.55	0.659
529.75	0.656
529.95	0.656
530.15	0.657
530.35	0.660
530.55	0.658
530.75	0.658
530.94	0.660
531.14	0.660
531.34	0.659
531.54	0.657
531.74	0.661
531.94	0.664
532.13	0.662
532.33	0.664
532.53	0.663
532.73	0.662
532.93	0.661
533.13	0.662
533.33	0.662
533.52	0.662
533.72	0.665
533.92	0.663
534.12	0.661
534.32	0.662
534.52	0.660
534.71	0.662
534.91	0.665
535.11	0.666
535.31	0.664
535.51	0.666
535.71	0.667
535.90	0.665
536.10	0.666
536.30	0.668
536.50	0.669
536.70	0.669
536.89	0.666
537.09	0.667
537.29	0.668
537.49	0.669
537.69	0.667
537.89	0.668
538.08	0.668
538.28	0.665
538.48	0.666
538.68	0.667
538.88	0.669
539.07	0.670
539.27	0.667
539.47	0.666
539.67	0.666
539.87	0.667
540.06	0.665
540.26	0.665
540.46	0.667
540.66	0.664
540.86	0.663
541.05	0.662
541.25	0.663
541.45	0.663
541.65	0.662
541.84	0.664
542.04	0.665
542.24	0.665
542.44	0.665
542.64	0.666
542.83	0.669
543.03	0.670
543.23	0.667
543.43	0.668
543.62	0.670
543.82	0.670
544.02	0.669
544.22	0.669
544.42	0.672
544.61	0.673
544.81	0.669
545.01	0.668
545.21	0.670
545.40	0.671
545.60	0.669
545.80	0.672
546.00	0.672
546.19	0.672
546.39	0.671
546.59	0.668
546.79	0.670
546.98	0.670
547.18	0.669
547.38	0.669
547.58	0.672
547.77	0.673
547.97	0.669
548.17	0.670
548.37	0.670
548.56	0.670
548.76	0.670
548.96	0.671
549.16	0.673
549.35	0.673
549.55	0.671
549.75	0.671
549.95	0.674
550.14	0.674
550.34	0.673
550.54	0.678
550.73	0.681
550.93	0.682
551.13	0.679
551.33	0.678
551.52	0.678
551.72	0.680
551.92	0.677
552.12	0.678
552.31	0.679
552.51	0.679
552.71	0.674
552.90	0.674
553.10	0.675
553.30	0.675
553.50	0.675
553.69	0.676
553.89	0.677
554.09	0.678
554.28	0.674
554.48	0.676
554.68	0.678
554.87	0.678
555.07	0.675
555.27	0.675
555.47	0.676
555.66	0.677
555.86	0.675
556.06	0.677
556.25	0.678
556.45	0.686
556.65	0.683
556.84	0.685
557.04	0.688
557.24	0.690
557.43	0.689
557.63	0.692
557.83	0.693
558.02	0.694
558.22	0.698
558.42	0.699
558.61	0.691
558.81	0.693
559.01	0.689
559.21	0.689
559.40	0.690
559.60	0.690
559.80	0.687
559.99	0.688
560.19	0.691
560.39	0.685
560.58	0.683
560.78	0.684
560.97	0.687
561.17	0.686
561.37	0.683
561.56	0.684
561.76	0.685
561.96	0.684
562.15	0.682
562.35	0.684
562.55	0.685
562.74	0.685
562.94	0.683
563.14	0.680
563.33	0.681
563.53	0.681
563.73	0.680
563.92	0.681
564.12	0.684
564.31	0.686
564.51	0.684
564.71	0.685
564.90	0.688
565.10	0.689
565.30	0.691
565.49	0.693
565.69	0.695
565.89	0.695
566.08	0.692
566.28	0.694
566.47	0.695
566.67	0.694
566.87	0.691
567.06	0.692
567.26	0.699
567.46	0.695
567.65	0.695
567.85	0.697
568.04	0.699
568.24	0.699
568.44	0.696
568.63	0.695
568.83	0.697
569.02	0.695
569.22	0.691
569.42	0.687
569.61	0.689
569.81	0.688
570.00	0.686
570.20	0.687
570.40	0.688
570.59	0.688
570.79	0.686
570.98	0.684
571.18	0.685
571.38	0.685
571.57	0.682
571.77	0.680
571.96	0.683
572.16	0.681
572.35	0.676
572.55	0.677
572.75	0.674
572.94	0.674
573.14	0.672
573.33	0.673
573.53	0.673
573.73	0.673
573.92	0.671
574.12	0.669
574.31	0.671
574.51	0.672
574.70	0.669
574.90	0.671
575.09	0.674
575.29	0.674
575.49	0.672
575.68	0.672
575.88	0.673
576.07	0.674
576.27	0.672
576.46	0.671
576.66	0.670
576.86	0.669
577.05	0.667
577.25	0.665
577.44	0.667
577.64	0.666
577.83	0.664
578.03	0.666
578.22	0.666
578.42	0.665
578.61	0.663
578.81	0.663
579.00	0.664
579.20	0.663
579.40	0.663
579.59	0.661
579.79	0.662
579.98	0.661
580.18	0.660
580.37	0.660
580.57	0.662
580.76	0.666
580.96	0.665
581.15	0.666
581.35	0.668
581.54	0.667
581.74	0.667
581.93	0.668
582.13	0.669
582.32	0.667
582.52	0.665
582.71	0.664
582.91	0.660
583.10	0.660
583.30	0.659
583.49	0.658
583.69	0.661
583.88	0.663
584.08	0.662
584.27	0.664
584.47	0.668
584.66	0.669
584.86	0.668
585.05	0.670
585.25	0.672
585.44	0.672
585.64	0.670
585.83	0.667
586.03	0.667
586.22	0.665
586.42	0.661
586.61	0.662
586.81	0.663
587.00	0.663
587.20	0.661
587.39	0.661
587.59	0.663
587.78	0.664
587.98	0.665
588.17	0.665
588.37	0.668
588.56	0.670
588.76	0.667
588.95	0.668
589.15	0.671
589.34	0.674
589.54	0.672
589.73	0.674
589.92	0.677
590.12	0.677
590.31	0.675
590.51	0.681
590.70	0.682
590.90	0.683
591.09	0.681
591.29	0.678
591.48	0.678
591.68	0.679
591.87	0.677
592.06	0.676
592.26	0.678
592.45	0.678
592.65	0.672
592.84	0.671
593.04	0.674
593.23	0.676
593.43	0.674
593.62	0.673
593.81	0.673
594.01	0.673
594.20	0.671
594.40	0.670
594.59	0.671
594.79	0.672
594.98	0.670
595.17	0.669
595.37	0.670
595.56	0.672
595.76	0.672
595.95	0.674
596.14	0.677
596.34	0.678
596.53	0.678
596.73	0.680
596.92	0.681
597.12	0.684
597.31	0.684
597.50	0.683
597.70	0.685
597.89	0.685
598.09	0.682
598.28	0.682
598.47	0.685
598.67	0.683
598.86	0.679
599.06	0.681
599.25	0.681
599.44	0.679
599.64	0.676
599.83	0.673
600.03	0.676
600.22	0.676
600.41	0.676
600.61	0.673
600.80	0.675
601.00	0.676
601.19	0.672
601.38	0.670
601.58	0.672
601.77	0.673
601.96	0.676
602.16	0.675
602.35	0.684
602.55	0.682
602.74	0.683
602.93	0.684
603.13	0.689
603.32	0.692
603.51	0.692
603.71	0.696
603.90	0.698
604.09	0.699
604.29	0.697
604.48	0.691
604.68	0.692
604.87	0.691
605.06	0.688
605.26	0.685
605.45	0.685
605.64	0.684
605.84	0.678
606.03	0.677
606.22	0.675
606.42	0.674
606.61	0.671
606.80	0.671
607.00	0.672
607.19	0.672
607.38	0.670
607.58	0.671
607.77	0.674
607.96	0.674
608.16	0.672
608.35	0.677
608.54	0.680
608.74	0.682
608.93	0.688
609.12	0.691
609.32	0.693
609.51	0.696
609.70	0.695
609.90	0.697
610.09	0.702
610.28	0.707
610.48	0.701
610.67	0.703
610.86	0.703
611.06	0.697
611.25	0.695
611.44	0.696
611.64	0.696
611.83	0.699
612.02	0.695
612.21	0.694
612.41	0.693
612.60	0.692
612.79	0.689
612.99	0.689
613.18	0.691
613.37	0.689
613.57	0.686
613.76	0.688
613.95	0.685
614.14	0.684
614.34	0.682
614.53	0.683
614.72	0.685
614.92	0.686
615.11	0.683
615.30	0.680
615.49	0.681
615.69	0.683
615.88	0.679
616.07	0.680
616.26	0.682
616.46	0.683
616.65	0.679
616.84	0.678
617.04	0.679
617.23	0.681
617.42	0.682
617.61	0.686
617.81	0.686
618.00	0.688
618.19	0.688
618.38	0.691
618.58	0.695
618.77	0.696
618.96	0.696
619.15	0.698
619.35	0.700
619.54	0.701
619.73	0.697
619.92	0.699
620.12	0.704
620.31	0.705
620.50	0.700
620.69	0.700
620.89	0.703
621.08	0.704
621.27	0.704
621.46	0.703
621.66	0.706
621.85	0.707
622.04	0.703
622.23	0.703
622.43	0.702
622.62	0.702
622.81	0.700
623.00	0.700
623.19	0.702
623.39	0.701
623.58	0.698
623.77	0.697
623.96	0.700
624.16	0.701
624.35	0.697
624.54	0.699
624.73	0.702
624.92	0.700
625.12	0.698
625.31	0.699
625.50	0.700
625.69	0.702
625.88	0.698
626.08	0.696
626.27	0.697
626.46	0.697
626.65	0.694
626.84	0.694
627.04	0.700
627.23	0.700
627.42	0.696
627.61	0.698
627.80	0.701
628.00	0.702
628.19	0.701
628.38	0.705
628.57	0.707
628.76	0.707
628.96	0.704
629.15	0.704
629.34	0.706
629.53	0.707
629.72	0.702
629.91	0.701
630.11	0.706
630.30	0.706
630.49	0.709
630.68	0.709
630.87	0.711
631.06	0.713
631.26	0.708
631.45	0.710
631.64	0.718
631.83	0.721
632.02	0.719
632.21	0.717
632.41	0.724
632.60	0.719
632.79	0.718
632.98	0.719
633.17	0.719
633.36	0.722
633.55	0.719
633.75	0.714
633.94	0.715
634.13	0.715
634.32	0.713
634.51	0.707
634.70	0.708
634.89	0.708
635.09	0.706
635.28	0.706
635.47	0.707
635.66	0.709
635.85	0.705
636.04	0.707
636.23	0.711
636.43	0.712
636.62	0.712
636.81	0.710
637.00	0.712
637.19	0.714
637.38	0.711
637.57	0.711
637.76	0.713
637.95	0.714
638.15	0.710
638.34	0.706
638.53	0.709
638.72	0.710
638.91	0.709
639.10	0.708
639.29	0.708
639.48	0.709
639.67	0.710
639.87	0.708
640.06	0.713
640.25	0.713
640.44	0.714
640.63	0.714
640.82	0.716
641.01	0.715
641.20	0.716
641.39	0.718
641.58	0.720
641.78	0.718
641.97	0.716
642.16	0.730
642.35	0.731
642.54	0.730
642.73	0.724
642.92	0.723
643.11	0.726
643.30	0.725
643.49	0.720
643.68	0.722
643.87	0.722
644.06	0.721
644.25	0.702
644.45	0.704
644.64	0.705
644.83	0.706
645.02	0.704
645.21	0.703
645.40	0.704
645.59	0.704
645.78	0.698
645.97	0.701
646.16	0.702
646.35	0.701
646.54	0.699
646.73	0.701
646.92	0.703
647.11	0.702
647.30	0.699
647.49	0.701
647.68	0.701
647.88	0.700
648.07	0.693
648.26	0.696
648.45	0.698
648.64	0.695
648.83	0.692
649.02	0.693
649.21	0.703
649.40	0.702
649.59	0.697
649.78	0.698
649.97	0.711
650.16	0.710
650.35	0.704
650.54	0.707
650.73	0.715
650.92	0.712
651.11	0.706
651.30	0.703
651.49	0.707
651.68	0.707
651.87	0.705
652.06	0.695
652.25	0.698
652.44	0.702
652.63	0.701
652.82	0.702
653.01	0.703
653.20	0.702
653.39	0.691
653.58	0.690
653.77	0.689
653.96	0.685
654.15	0.677
654.34	0.674
654.53	0.669
654.72	0.662
654.91	0.653
655.10	0.648
655.29	0.646
655.48	0.643
655.67	0.637
655.86	0.635
656.05	0.633
656.24	0.632
656.43	0.628
656.62	0.628
656.81	0.627
657.00	0.623
657.19	0.620
657.38	0.619
657.57	0.618
657.76	0.620
657.95	0.617
658.14	0.620
658.33	0.622
658.51	0.626
658.70	0.625
658.89	0.627
659.08	0.637
659.27	0.645
659.46	0.647
659.65	0.653
659.84	0.656
660.03	0.660
660.22	0.661
660.41	0.665
660.60	0.665
660.79	0.667
660.98	0.672
661.17	0.671
661.36	0.670
661.55	0.671
661.74	0.669
661.92	0.672
662.11	0.673
662.30	0.671
662.49	0.665
662.68	0.665
662.87	0.668
663.06	0.662
663.25	0.664
663.44	0.664
663.63	0.666
663.82	0.665
664.01	0.660
664.20	0.659
664.38	0.661
664.57	0.661
664.76	0.660
664.95	0.660
665.14	0.664
665.33	0.659
665.52	0.666
665.71	0.669
665.90	0.668
666.09	0.669
666.28	0.667
666.46	0.666
666.65	0.666
666.84	0.664
667.03	0.659
667.22	0.658
667.41	0.660
667.60	0.650
667.79	0.643
667.98	0.645
668.16	0.646
668.35	0.646
668.54	0.643
668.73	0.644
668.92	0.645
669.11	0.644
669.30	0.639
669.49	0.635
669.67	0.637
669.86	0.640
670.05	0.638
670.24	0.635
670.43	0.633
670.62	0.632
670.81	0.628
671.00	0.629
671.18	0.628
671.37	0.627
671.56	0.626
671.75	0.624
671.94	0.620
672.13	0.619
672.32	0.615
672.50	0.614
672.69	0.614
672.88	0.614
673.07	0.610
673.26	0.612
673.45	0.613
673.63	0.612
673.82	0.609
674.01	0.611
674.20	0.610
674.39	0.609
674.58	0.609
674.76	0.608
674.95	0.607
675.14	0.607
675.33	0.603
675.52	0.602
675.71	0.602
675.89	0.602
676.08	0.599
676.27	0.599
676.46	0.599
676.65	0.598
676.84	0.598
677.02	0.600
677.21	0.601
677.40	0.600
677.59	0.598
677.78	0.598
677.96	0.600
678.15	0.600
678.34	0.597
678.53	0.598
678.72	0.598
678.90	0.595
679.09	0.591
679.28	0.587
679.47	0.588
679.66	0.587
679.84	0.584
680.03	0.581
680.22	0.580
680.41	0.582
680.60	0.579
680.78	0.578
680.97	0.581
681.16	0.581
681.35	0.580
681.53	0.579
681.72	0.580
681.91	0.581
682.10	0.581
682.29	0.583
682.47	0.580
682.66	0.579
682.85	0.577
683.04	0.574
683.22	0.574
683.41	0.576
683.60	0.575
683.79	0.576
683.97	0.575
684.16	0.574
684.35	0.569
684.54	0.572
684.72	0.573
684.91	0.573
685.10	0.572
685.29	0.573
685.47	0.570
685.66	0.569
685.85	0.566
686.04	0.565
686.22	0.567
686.41	0.570
686.60	0.567
686.79	0.569
686.97	0.570
687.16	0.571
687.35	0.569
687.54	0.572
687.72	0.575
687.91	0.575
688.10	0.577
688.29	0.577
688.47	0.575
688.66	0.574
688.85	0.570
689.03	0.569
689.22	0.573
689.41	0.574
689.60	0.570
689.78	0.568
689.97	0.568
690.16	0.565
690.34	0.561
690.53	0.561
690.72	0.561
690.91	0.559
691.09	0.556
691.28	0.550
691.47	0.549
691.65	0.548
691.84	0.545
692.03	0.544
692.21	0.542
692.40	0.542
692.59	0.539
692.77	0.539
692.96	0.540
693.15	0.541
693.34	0.539
693.52	0.538
693.71	0.538
693.90	0.539
694.08	0.540
694.27	0.541
694.46	0.550
694.64	0.551
694.83	0.550
695.02	0.549
695.20	0.549
695.39	0.548
695.58	0.548
695.76	0.549
695.95	0.549
696.14	0.548
696.32	0.546
696.51	0.537
696.70	0.536
696.88	0.538
697.07	0.537
697.26	0.538
697.44	0.540
697.63	0.539
697.81	0.537
698.00	0.536
698.19	0.535
698.37	0.535
698.56	0.535
698.75	0.535
698.93	0.534
699.12	0.534
699.31	0.532
699.49	0.531
699.68	0.532
699.87	0.534
700.05	0.534
700.24	0.534
700.42	0.536
700.61	0.535
700.80	0.534
700.98	0.534
701.17	0.535
701.36	0.535
701.54	0.535
701.73	0.536
701.91	0.534
702.10	0.533
702.29	0.531
702.47	0.529
702.66	0.531
702.84	0.532
703.03	0.530
703.22	0.531
703.40	0.530
703.59	0.531
703.77	0.531
703.96	0.531
704.15	0.531
704.33	0.531
704.52	0.531
704.70	0.531
704.89	0.531
705.08	0.530
705.26	0.526
705.45	0.526
705.63	0.525
705.82	0.522
706.00	0.521
706.19	0.520
706.38	0.520
706.56	0.519
706.75	0.516
706.93	0.515
707.12	0.516
707.30	0.517
707.49	0.515
707.68	0.513
707.86	0.513
708.05	0.513
708.23	0.510
708.42	0.510
708.60	0.513
708.79	0.513
708.98	0.511
709.16	0.511
709.35	0.512
709.53	0.516
709.72	0.515
709.90	0.516
710.09	0.518
710.27	0.520
710.46	0.523
710.64	0.521
710.83	0.523
711.02	0.525
711.20	0.523
711.39	0.522
711.57	0.520
711.76	0.520
711.94	0.519
712.13	0.520
712.31	0.519
712.50	0.515
712.68	0.513
712.87	0.514
713.05	0.513
713.24	0.515
713.42	0.514
713.61	0.514
713.79	0.515
713.98	0.515
714.16	0.517
714.35	0.516
714.54	0.518
714.72	0.517
714.91	0.515
715.09	0.521
715.28	0.523
715.46	0.524
715.65	0.522
715.83	0.522
716.02	0.524
716.20	0.520
716.39	0.519
716.57	0.520
716.76	0.523
716.94	0.523
717.12	0.516
717.31	0.517
717.49	0.519
717.68	0.521
717.86	0.521
718.05	0.522
718.23	0.525
718.42	0.527
718.60	0.528
718.79	0.535
718.97	0.537
719.16	0.538
719.34	0.535
719.53	0.535
719.71	0.535
719.90	0.537
720.08	0.534
720.27	0.534
720.45	0.534
720.63	0.533
720.82	0.527
721.00	0.530
721.19	0.533
721.37	0.532
721.56	0.532
721.74	0.534
721.93	0.542
722.11	0.548
722.30	0.548
722.48	0.552
722.66	0.554
722.85	0.554
723.03	0.554
723.22	0.552
723.40	0.555
723.59	0.555
723.77	0.560
723.95	0.554
724.14	0.557
724.32	0.558
724.51	0.557
724.69	0.558
724.88	0.559
725.06	0.557
725.24	0.559
725.43	0.560
725.61	0.562
725.80	0.554
725.98	0.553
726.16	0.550
726.35	0.556
726.53	0.555
726.72	0.554
726.90	0.563
727.09	0.564
727.27	0.569
727.45	0.567
727.64	0.576
727.82	0.585
728.01	0.589
728.19	0.587
728.37	0.592
728.56	0.596
728.74	0.602
728.92	0.591
729.11	0.592
729.29	0.590
729.48	0.591
729.66	0.581
729.84	0.580
730.03	0.583
730.21	0.585
730.40	0.575
730.58	0.575
730.76	0.575
730.95	0.578
731.13	0.578
731.31	0.594
731.50	0.602
731.68	0.605
731.86	0.603
732.05	0.618
732.23	0.619
732.42	0.622
732.60	0.626
732.78	0.631
732.97	0.649
733.15	0.656
733.33	0.640
733.52	0.648
733.70	0.657
733.88	0.664
734.07	0.651
734.25	0.674
734.43	0.681
734.62	0.684
734.80	0.682
734.98	0.672
735.17	0.675
735.35	0.683
735.53	0.674
735.72	0.677
735.90	0.698
736.08	0.715
736.27	0.695
736.45	0.704
736.63	0.712
736.82	0.721
737.00	0.721
737.18	0.733
737.37	0.760
737.55	0.782
737.73	0.778
737.92	0.779
738.10	0.777
738.28	0.794
738.46	0.784
738.65	0.800
738.83	0.819
739.01	0.870
739.20	0.861
739.38	0.844
739.56	0.835
739.75	0.839
739.93	0.807
740.11	0.828
740.29	0.827
740.48	0.833
740.66	0.813
740.84	0.808
741.03	0.774
741.21	0.783
741.39	0.767
741.57	0.780
741.76	0.794
741.94	0.801
742.12	0.770
742.31	0.776
742.49	0.797
742.67	0.817
742.85	0.828
743.04	0.832
743.22	0.839
743.40	0.887
743.58	0.871
743.77	0.888
743.95	0.913
744.13	0.965
744.31	0.947
744.50	0.935
744.68	0.933
744.86	0.909
745.04	0.925
745.23	0.982
745.41	0.963
745.59	0.968
745.77	0.934
745.96	0.927
746.14	0.928
746.32	0.924
746.50	0.918
746.69	0.904
746.87	0.911
747.05	0.896
747.23	0.832
747.42	0.816
747.60	0.832
747.78	0.835
747.96	0.859
748.14	0.822
748.33	0.847
748.51	0.842
748.69	0.838
748.87	0.858
749.06	0.849
749.24	0.852
749.42	0.843
749.60	0.831
749.78	0.837
749.97	0.800
750.15	0.796
750.33	0.799
750.51	0.821
750.69	0.827
750.88	0.836
751.06	0.848
751.24	0.866
751.42	0.859
751.60	0.854
751.79	0.919
751.97	0.955
752.15	0.955
752.33	0.923
752.51	0.979
752.69	0.986
752.88	0.954
753.06	0.994
753.24	0.972
753.42	1.002
753.60	1.145
753.78	1.028
753.97	1.048
754.15	1.056
754.33	1.080
754.51	0.977
754.69	0.966
754.87	0.994
755.06	0.930
755.24	0.936
755.42	0.941
755.60	0.851
755.78	0.861
755.96	0.813
756.15	0.816
756.33	0.818
756.51	0.835
756.69	0.821
756.87	0.791
757.05	0.807
757.23	0.792
757.42	0.766
757.60	0.762
757.78	0.750
757.96	0.750
758.14	0.735
758.32	0.722
758.50	0.732
758.69	0.733
758.87	0.727
759.05	0.731
759.23	0.739
759.41	0.740
759.59	0.735
759.77	0.756
759.95	0.779
760.13	0.824
760.32	0.826
760.50	0.823
760.68	0.841
760.86	0.844
761.04	0.820
761.22	0.822
761.40	0.864
761.58	0.869
761.76	0.844
761.95	0.827
762.13	0.785
762.31	0.786
762.49	0.758
762.67	0.778
762.85	0.789
763.03	0.785
763.21	0.769
763.39	0.748
763.57	0.746
763.75	0.743
763.94	0.732
764.12	0.734
764.30	0.755
764.48	0.760
764.66	0.726
764.84	0.724
765.02	0.757
765.20	0.764
765.38	0.749
765.56	0.755
765.74	0.786
765.92	0.785
766.10	0.790
766.28	0.783
766.46	0.806
766.65	0.806
766.83	0.796
767.01	0.781
767.19	0.786
767.37	0.787
767.55	0.778
767.73	0.763
767.91	0.766
768.09	0.758
768.27	0.749
768.45	0.740
768.63	0.745
768.81	0.748
768.99	0.726
769.17	0.748
769.35	0.761
769.53	0.759
769.71	0.740
769.89	0.747
770.07	0.748
770.25	0.732
770.43	0.711
770.61	0.732
770.79	0.734
770.97	0.742
771.15	0.715
771.33	0.717
771.51	0.719
771.69	0.727
771.87	0.733
772.05	0.738
772.24	0.746
772.42	0.757
772.60	0.736
772.78	0.791
772.96	0.815
773.14	0.811
773.32	0.790
773.49	0.797
773.67	0.795
773.85	0.780
774.03	0.774
774.21	0.803
774.39	0.808
774.57	0.830
774.75	0.761
774.93	0.757
775.11	0.775
775.29	0.782
775.47	0.785
775.65	0.793
775.83	0.805
776.01	0.822
776.19	0.781
776.37	0.785
776.55	0.785
776.73	0.784
776.91	0.780
777.09	0.765
777.27	0.762
777.45	0.748
777.63	0.728
777.81	0.725
777.99	0.712
778.17	0.709
778.35	0.691
778.53	0.680
778.71	0.685
778.89	0.673
779.07	0.663
779.24	0.667
779.42	0.671
779.60	0.689
779.78	0.686
779.96	0.690
780.14	0.696
780.32	0.714
780.50	0.698
780.68	0.697
780.86	0.688
781.04	0.706
781.22	0.713
781.40	0.720
781.58	0.709
781.75	0.703
781.93	0.689
782.11	0.692
782.29	0.678
782.47	0.677
782.65	0.666
782.83	0.693
783.01	0.686
783.19	0.678
783.37	0.666
783.55	0.668
783.72	0.684
783.90	0.695
784.08	0.687
784.26	0.699
784.44	0.719
784.62	0.722
784.80	0.692
784.98	0.696
785.16	0.701
785.33	0.712
785.51	0.700
785.69	0.687
785.87	0.685
786.05	0.696
786.23	0.694
786.41	0.690
786.59	0.695
786.77	0.696
786.94	0.687
787.12	0.690
787.30	0.692
787.48	0.691
787.66	0.683
787.84	0.684
788.02	0.674
788.19	0.673
788.37	0.662
788.55	0.664
788.73	0.664
788.91	0.659
789.09	0.645
789.27	0.635
789.44	0.645
789.62	0.649
789.80	0.658
789.98	0.680
790.16	0.666
790.34	0.662
790.51	0.652
790.69	0.670
790.87	0.674
791.05	0.672
791.23	0.667
791.41	0.668
791.58	0.673
791.76	0.655
791.94	0.627
792.12	0.634
792.30	0.637
792.48	0.633
792.65	0.627
792.83	0.634
793.01	0.640
793.19	0.637
793.37	0.623
793.54	0.621
793.72	0.631
793.90	0.630
794.08	0.623
794.26	0.623
794.43	0.631
794.61	0.615
794.79	0.606
794.97	0.604
795.15	0.608
795.32	0.613
795.50	0.604
795.68	0.598
795.86	0.602
796.04	0.601
796.21	0.596
796.39	0.595
796.57	0.607
796.75	0.614
796.92	0.615
797.10	0.619
797.28	0.619
797.46	0.621
797.64	0.623
797.81	0.629
797.99	0.635
798.17	0.639
798.35	0.635
798.52	0.638
798.70	0.634
798.88	0.643
799.06	0.643
799.23	0.647
799.41	0.654
799.59	0.647
799.77	0.637
799.94	0.644
800.12	0.652
800.30	0.668
800.48	0.665
800.65	0.665
800.83	0.654
801.01	0.646
801.19	0.646
801.36	0.641
801.54	0.644
801.72	0.654
801.90	0.642
802.07	0.638
802.25	0.623
802.43	0.610
802.60	0.608
802.78	0.614
802.96	0.618
803.14	0.614
803.31	0.615
803.49	0.615
803.67	0.610
803.84	0.613
804.02	0.605
804.20	0.608
804.38	0.612
804.55	0.610
804.73	0.599
804.91	0.598
805.08	0.609
805.26	0.605
805.44	0.668
805.61	0.671
805.79	0.669
805.97	0.669
806.15	0.663
806.32	0.659
806.50	0.664
806.68	0.664
806.85	0.658
807.03	0.647
807.21	0.660
807.38	0.596
807.56	0.587
807.74	0.597
807.91	0.602
808.09	0.602
808.27	0.620
808.44	0.644
808.62	0.652
808.80	0.651
808.97	0.647
809.15	0.643
809.33	0.659
809.50	0.668
809.68	0.657
809.86	0.664
810.03	0.694
810.21	0.674
810.39	0.658
810.56	0.664
810.74	0.684
810.91	0.750
811.09	0.741
811.27	0.756
811.44	0.757
811.62	0.758
811.80	0.746
811.97	0.719
812.15	0.718
812.33	0.714
812.50	0.701
812.68	0.692
812.85	0.642
813.03	0.645
813.21	0.618
813.38	0.612
813.56	0.614
813.74	0.623
813.91	0.629
814.09	0.656
814.26	0.648
814.44	0.652
814.62	0.643
814.79	0.644
814.97	0.645
815.14	0.649
815.32	0.658
815.50	0.672
815.67	0.673
815.85	0.665
816.02	0.656
816.20	0.664
816.38	0.678
816.55	0.683
816.73	0.685
816.90	0.694
817.08	0.722
817.26	0.721
817.43	0.705
817.61	0.730
817.78	0.746
817.96	0.728
818.13	0.718
818.31	0.718
818.49	0.731
818.66	0.721
818.84	0.710
819.01	0.688
819.19	0.692
819.36	0.694
819.54	0.664
819.71	0.703
819.89	0.714
820.07	0.725
820.24	0.719
820.42	0.717
820.59	0.732
820.77	0.752
820.94	0.747
821.12	0.764
821.29	0.777
821.47	0.781
821.64	0.725
821.82	0.737
822.00	0.735
822.17	0.735
822.35	0.730
822.52	0.733
822.70	0.723
822.87	0.732
823.05	0.712
823.22	0.722
823.40	0.743
823.57	0.761
823.75	0.745
823.92	0.766
824.10	0.778
824.27	0.813
824.45	0.806
824.62	0.858
824.80	0.869
824.97	0.883
825.15	0.875
825.32	0.887
825.50	0.891
825.67	0.901
825.85	0.883
826.02	0.901
826.20	0.915
826.37	1.020
826.55	0.958
826.72	1.118
826.90	1.174
827.07	1.227
827.25	1.176
827.42	1.280
827.60	1.366
827.77	1.472
827.95	1.441
828.12	1.499
828.30	1.268
828.47	1.334
828.65	1.090
828.82	1.127
829.00	1.156
829.17	1.210
829.34	1.245
829.52	1.276
829.69	-0.000
829.87	-0.000
830.04	-0.000
830.22	-0.000
830.39	-0.000
830.57	-0.000
830.74	-0.000
830.92	-0.000
831.09	-0.000
831.26	-0.000
831.44	-0.000
831.61	-0.000
831.79	-0.000
831.96	-0.000
832.14	-0.000
832.31	-0.000
832.49	-0.000
832.66	-0.000
832.83	-0.000
833.01	-0.000
833.18	-0.000
833.36	-0.000
833.53	-0.000
833.70	-0.000
833.88	-0.000
834.05	-0.000
834.23	-0.000
834.40	-0.000
834.58	-0.000
834.75	-0.000
834.92	-0.000
835.10	-0.000
835.27	-0.000
835.45	-0.000
835.62	-0.000
835.79	-0.000
835.97	-0.000
836.14	-0.000
836.32	-0.000
836.49	-0.000
836.66	-0.000
836.84	-0.000
837.01	-0.000
837.18	-0.000
837.36	-0.000
837.53	-0.000
837.71	-0.000
837.88	-0.000
838.05	-0.000
838.23	-0.000
838.40	-0.000
838.58	-0.000
838.75	-0.000
838.92	-0.000
839.10	-0.000
839.27	-0.000
839.44	-0.000
839.62	-0.000
839.79	-0.000
839.96	-0.000
840.14	-0.000
840.31	-0.000
840.48	-0.000
840.66	-0.000
840.83	-0.000
841.01	-0.000
841.18	-0.000
841.35	-0.000
841.53	-0.000
841.70	-0.000
841.87	-0.000
842.05	-0.000
842.22	-0.000
842.39	-0.000
842.57	-0.000
842.74	-0.000
842.91	-0.000
843.09	-0.000
843.26	-0.000
843.43	-0.000
843.60	-0.000
843.78	-0.000
843.95	-0.000
844.12	-0.000
844.30	-0.000
844.47	-0.000
844.64	-0.000
844.82	-0.000
844.99	-0.000
845.16	-0.000
845.34	-0.000
845.51	-0.000
845.68	-0.000
845.85	-0.000
846.03	-0.000
846.20	-0.000
846.37	-0.000
846.55	-0.000
846.72	-0.000
846.89	-0.000
847.06	-0.000
847.24	-0.000
847.41	-0.000
847.58	-0.000
847.76	-0.000
847.93	-0.000
848.10	-0.000
848.27	-0.000
848.45	-0.000
848.62	-0.000
848.79	-0.000
848.97	-0.000
849.14	-0.000
849.31	-0.000
849.48	-0.000
849.66	-0.000
849.83	-0.000
850.00	-0.000
850.17	-0.000
850.35	-0.000
850.52	-0.000
850.69	-0.000
850.86	-0.000
851.04	-0.000
851.21	-0.000
851.38	-0.000
851.55	-0.000
851.72	-0.000
851.90	-0.000
852.07	-0.000
852.24	-0.000
852.41	-0.000
852.59	-0.000
852.76	-0.000
852.93	-0.000
853.10	-0.000
853.28	-0.000
853.45	-0.000
853.62	-0.000
853.79	-0.000
853.96	-0.000
854.14	-0.000
854.31	-0.000
854.48	-0.000
854.65	-0.000
854.82	-0.000
855.00	-0.000
855.17	-0.000
855.34	-0.000
855.51	-0.000
855.68	-0.000
855.86	-0.000
856.03	-0.000
856.20	-0.000
856.37	-0.000
856.54	-0.000
856.72	-0.000
856.89	-0.000
857.06	-0.000
857.23	-0.000
857.40	-0.000
857.57	-0.000
857.75	-0.000
857.92	-0.000
858.09	-0.000
858.26	-0.000
858.43	-0.000
858.60	-0.000
858.78	-0.000
858.95	-0.000
859.12	-0.000
859.29	-0.000
859.46	-0.000
859.63	-0.000
859.81	-0.000
859.98	-0.000
860.15	-0.000
860.32	-0.000
860.49	-0.000
860.66	-0.000
860.83	-0.000
861.01	-0.000
861.18	-0.000
861.35	-0.000
861.52	-0.000
861.69	-0.000
861.86	-0.000
862.03	-0.000
862.21	-0.000
862.38	-0.000
862.55	-0.000
862.72	-0.000
862.89	-0.000
863.06	-0.000
863.23	-0.000
863.40	-0.000
863.58	-0.000
863.75	-0.000
863.92	-0.000
864.09	-0.000
864.26	-0.000
864.43	-0.000
864.60	-0.000
864.77	-0.000
864.94	-0.000
865.11	-0.000
865.29	-0.000
865.46	-0.000
865.63	-0.000
865.80	-0.000
865.97	-0.000
866.14	-0.000
866.31	-0.000
866.48	-0.000
866.65	-0.000
866.82	-0.000
866.99	-0.000
867.16	-0.000
867.34	-0.000
867.51	-0.000
867.68	-0.000
867.85	-0.000
868.02	-0.000
868.19	-0.000
868.36	-0.000
868.53	-0.000
868.70	-0.000
868.87	-0.000
869.04	-0.000
869.21	-0.000
869.38	-0.000
869.55	-0.000
869.72	-0.000
869.89	-0.000
870.06	-0.000
870.24	-0.000
870.41	-0.000
870.58	-0.000
870.75	-0.000
870.92	-0.000
871.09	-0.000
871.26	-0.000
871.43	-0.000
871.60	-0.000
871.77	-0.000
871.94	-0.000
872.11	-0.000
872.28	-0.000
872.45	-0.000
872.62	-0.000
872.79	-0.000
872.96	-0.000
873.13	-0.000
873.30	-0.000
873.47	-0.000
873.64	-0.000
873.81	-0.000
873.98	-0.000
874.15	-0.000
874.32	-0.000
874.49	-0.000
874.66	-0.000
874.83	-0.000
875.00	-0.000
875.17	-0.000
875.34	-0.000
875.51	-0.000
875.68	-0.000
875.85	-0.000
876.02	-0.000
876.19	-0.000
876.36	-0.000
876.53	-0.000
876.70	-0.000
876.87	-0.000
877.04	-0.000
877.21	-0.000
877.38	-0.000
877.55	-0.000
877.72	-0.000
877.89	-0.000
878.06	-0.000
878.23	-0.000
878.39	-0.000
878.56	-0.000
878.73	-0.000
878.90	-0.000
879.07	-0.000
879.24	-0.000
879.41	-0.000
879.58	-0.000
879.75	-0.000
879.92	-0.000
880.09	-0.000
880.26	-0.000
880.43	-0.000
880.60	-0.000
880.77	-0.000
880.94	-0.000
881.11	-0.000
881.27	-0.000
881.44	-0.000
881.61	-0.000
881.78	-0.000
881.95	-0.000
882.12	-0.000
882.29	-0.000
882.46	-0.000
882.63	-0.000
882.80	-0.000
882.97	-0.000
883.14	-0.000
883.30	-0.000
883.47	-0.000
883.64	-0.000
883.81	-0.000
883.98	-0.000
884.15	-0.000
884.32	-0.000
884.49	-0.000
884.66	-0.000
884.82	-0.000
884.99	-0.000
885.16	-0.000
885.33	-0.000
885.50	-0.000
885.67	-0.000
885.84	-0.000
886.01	-0.000
886.17	-0.000
886.34	-0.000
886.51	-0.000
886.68	-0.000
886.85	-0.000
887.02	-0.000
887.19	-0.000
887.36	-0.000
887.52	-0.000
887.69	-0.000
887.86	-0.000
888.03	-0.000
888.20	-0.000
888.37	-0.000
888.54	-0.000
888.70	-0.000
888.87	-0.000
889.04	-0.000
889.21	-0.000
889.38	-0.000
889.55	-0.000
889.71	-0.000
889.88	-0.000
890.05	-0.000
890.22	-0.000
890.39	-0.000
>>>>>End Processed Spectral Data<<<<<
