SpectraSuite Data File
++++++++++++++++++++++++++++++++++++
Date: Fri Jun 19 15:42:17 CEST 2015
User: introlabs
Dark Spectrum Present: Yes
Reference Spectrum Present: Yes
Number of Sampled Component Spectra: 1
Spectrometers: USB4H08886
Integration Time (usec): 745692 (USB4H08886)
Spectra Averaged: 5 (USB4H08886)
Boxcar Smoothing: 5 (USB4H08886)
Correct for Electrical Dark: Yes (USB4H08886)
Strobe/Lamp Enabled: No (USB4H08886)
Correct for Detector Non-linearity: Yes (USB4H08886)
Correct for Stray Light: Yes (USB4H08886)
Number of Pixels in Processed Spectrum: 3648
>>>>>Begin Processed Spectral Data<<<<<
178.14	-0.000
178.36	-0.000
178.57	-0.000
178.79	-0.000
179.01	-0.000
179.22	-0.000
179.44	-0.000
179.65	-0.000
179.87	-0.000
180.08	-0.000
180.30	-0.000
180.52	-0.000
180.73	-0.000
180.95	-0.000
181.16	-0.000
181.38	-0.000
181.59	-0.000
181.81	-0.000
182.03	-0.000
182.24	-0.000
182.46	-0.000
182.67	-0.000
182.89	-0.000
183.10	-0.000
183.32	-0.000
183.54	-0.000
183.75	-0.000
183.97	-0.000
184.18	-0.000
184.40	-0.000
184.61	-0.000
184.83	-0.000
185.04	-0.000
185.26	-0.000
185.48	-0.000
185.69	-0.000
185.91	-0.000
186.12	-0.000
186.34	-0.000
186.55	-0.000
186.77	-0.000
186.98	-0.000
187.20	-0.000
187.42	-0.000
187.63	-0.000
187.85	-0.000
188.06	-0.000
188.28	-0.000
188.49	-0.000
188.71	-0.000
188.92	-0.000
189.14	-0.000
189.36	-0.000
189.57	-0.000
189.79	-0.000
190.00	-0.000
190.22	-0.000
190.43	-0.000
190.65	-0.000
190.86	-0.000
191.08	-0.000
191.29	-0.000
191.51	-0.000
191.72	-0.000
191.94	-0.000
192.16	-0.000
192.37	-0.000
192.59	-0.000
192.80	-0.000
193.02	-0.000
193.23	-0.000
193.45	-0.000
193.66	-0.000
193.88	-0.000
194.09	-0.000
194.31	-0.000
194.52	-0.000
194.74	-0.000
194.95	-0.000
195.17	-0.000
195.38	-0.000
195.60	-0.000
195.81	-0.000
196.03	-0.000
196.25	-0.000
196.46	-0.000
196.68	-0.000
196.89	-0.000
197.11	-0.000
197.32	-0.000
197.54	-0.000
197.75	-0.000
197.97	-0.000
198.18	-0.000
198.40	-0.000
198.61	-0.000
198.83	-0.000
199.04	-0.000
199.26	-0.000
199.47	-0.000
199.69	-0.000
199.90	-0.000
200.12	-0.000
200.33	-0.000
200.55	-0.000
200.76	-0.000
200.98	-0.000
201.19	-0.000
201.41	-0.000
201.62	-0.000
201.84	-0.000
202.05	-0.000
202.27	-0.000
202.48	-0.000
202.70	-0.000
202.91	-0.000
203.13	-0.000
203.34	-0.000
203.56	-0.000
203.77	-0.000
203.99	-0.000
204.20	-0.000
204.42	-0.000
204.63	-0.000
204.85	-0.000
205.06	-0.000
205.28	-0.000
205.49	-0.000
205.71	-0.000
205.92	-0.000
206.14	-0.000
206.35	-0.000
206.56	-0.000
206.78	-0.000
206.99	-0.000
207.21	-0.000
207.42	-0.000
207.64	-0.000
207.85	-0.000
208.07	-0.000
208.28	-0.000
208.50	-0.000
208.71	-0.000
208.93	-0.000
209.14	-0.000
209.36	-0.000
209.57	-0.000
209.79	-0.000
210.00	-0.000
210.22	-0.000
210.43	-0.000
210.64	-0.000
210.86	-0.000
211.07	-0.000
211.29	-0.000
211.50	-0.000
211.72	-0.000
211.93	-0.000
212.15	-0.000
212.36	-0.000
212.58	-0.000
212.79	-0.000
213.01	-0.000
213.22	-0.000
213.43	-0.000
213.65	-0.000
213.86	-0.000
214.08	-0.000
214.29	-0.000
214.51	-0.000
214.72	-0.000
214.94	-0.000
215.15	-0.000
215.36	-0.000
215.58	-0.000
215.79	-0.000
216.01	-0.000
216.22	-0.000
216.44	-0.000
216.65	-0.000
216.87	-0.000
217.08	-0.000
217.29	-0.000
217.51	-0.000
217.72	-0.000
217.94	-0.000
218.15	-0.000
218.37	-0.000
218.58	-0.000
218.80	-0.000
219.01	-0.000
219.22	-0.000
219.44	-0.000
219.65	-0.000
219.87	-0.000
220.08	-0.000
220.30	-0.000
220.51	-0.000
220.72	-0.000
220.94	-0.000
221.15	-0.000
221.37	-0.000
221.58	-0.000
221.79	-0.000
222.01	-0.000
222.22	-0.000
222.44	-0.000
222.65	-0.000
222.87	-0.000
223.08	-0.000
223.29	-0.000
223.51	-0.000
223.72	-0.000
223.94	-0.000
224.15	-0.000
224.36	-0.000
224.58	-0.000
224.79	-0.000
225.01	-0.000
225.22	-0.000
225.44	-0.000
225.65	-0.000
225.86	-0.000
226.08	-0.000
226.29	-0.000
226.51	-0.000
226.72	-0.000
226.93	-0.000
227.15	-0.000
227.36	-0.000
227.58	-0.000
227.79	-0.000
228.00	-0.000
228.22	-0.000
228.43	-0.000
228.65	-0.000
228.86	-0.000
229.07	-0.000
229.29	-0.000
229.50	-0.000
229.72	-0.000
229.93	-0.000
230.14	-0.000
230.36	-0.000
230.57	-0.000
230.78	-0.000
231.00	-0.000
231.21	-0.000
231.43	-0.000
231.64	-0.000
231.85	-0.000
232.07	-0.000
232.28	-0.000
232.50	-0.000
232.71	-0.000
232.92	-0.000
233.14	-0.000
233.35	-0.000
233.56	-0.000
233.78	-0.000
233.99	-0.000
234.21	-0.000
234.42	-0.000
234.63	-0.000
234.85	-0.000
235.06	-0.000
235.27	-0.000
235.49	-0.000
235.70	-0.000
235.91	-0.000
236.13	-0.000
236.34	-0.000
236.56	-0.000
236.77	-0.000
236.98	-0.000
237.20	-0.000
237.41	-0.000
237.62	-0.000
237.84	-0.000
238.05	-0.000
238.26	-0.000
238.48	-0.000
238.69	-0.000
238.91	-0.000
239.12	-0.000
239.33	-0.000
239.55	-0.000
239.76	-0.000
239.97	-0.000
240.19	-0.000
240.40	-0.000
240.61	-0.000
240.83	-0.000
241.04	-0.000
241.25	-0.000
241.47	-0.000
241.68	-0.000
241.89	-0.000
242.11	-0.000
242.32	-0.000
242.53	-0.000
242.75	-0.000
242.96	-0.000
243.17	-0.000
243.39	-0.000
243.60	-0.000
243.81	-0.000
244.03	-0.000
244.24	-0.000
244.45	-0.000
244.67	-0.000
244.88	-0.000
245.09	-0.000
245.31	-0.000
245.52	-0.000
245.73	-0.000
245.95	-0.000
246.16	-0.000
246.37	-0.000
246.59	-0.000
246.80	-0.000
247.01	-0.000
247.23	-0.000
247.44	-0.000
247.65	-0.000
247.87	-0.000
248.08	-0.000
248.29	-0.000
248.51	-0.000
248.72	-0.000
248.93	-0.000
249.15	-0.000
249.36	-0.000
249.57	-0.000
249.78	-0.000
250.00	-0.000
250.21	-0.000
250.42	-0.000
250.64	-0.000
250.85	-0.000
251.06	-0.000
251.28	-0.000
251.49	-0.000
251.70	-0.000
251.92	-0.000
252.13	-0.000
252.34	-0.000
252.55	-0.000
252.77	-0.000
252.98	-0.000
253.19	-0.000
253.41	-0.000
253.62	-0.000
253.83	-0.000
254.05	-0.000
254.26	-0.000
254.47	-0.000
254.68	-0.000
254.90	-0.000
255.11	-0.000
255.32	-0.000
255.54	-0.000
255.75	-0.000
255.96	-0.000
256.17	-0.000
256.39	-0.000
256.60	-0.000
256.81	-0.000
257.03	-0.000
257.24	-0.000
257.45	-0.000
257.66	-0.000
257.88	-0.000
258.09	-0.000
258.30	-0.000
258.51	-0.000
258.73	-0.000
258.94	-0.000
259.15	-0.000
259.37	-0.000
259.58	-0.000
259.79	-0.000
260.00	-0.000
260.22	-0.000
260.43	-0.000
260.64	-0.000
260.85	-0.000
261.07	-0.000
261.28	-0.000
261.49	-0.000
261.71	-0.000
261.92	-0.000
262.13	-0.000
262.34	-0.000
262.56	-0.000
262.77	-0.000
262.98	-0.000
263.19	-0.000
263.41	-0.000
263.62	-0.000
263.83	-0.000
264.04	-0.000
264.26	-0.000
264.47	-0.000
264.68	-0.000
264.89	-0.000
265.11	-0.000
265.32	-0.000
265.53	-0.000
265.74	-0.000
265.96	-0.000
266.17	-0.000
266.38	-0.000
266.59	-0.000
266.81	-0.000
267.02	-0.000
267.23	-0.000
267.44	-0.000
267.65	-0.000
267.87	-0.000
268.08	-0.000
268.29	-0.000
268.50	-0.000
268.72	-0.000
268.93	-0.000
269.14	-0.000
269.35	-0.000
269.57	-0.000
269.78	-0.000
269.99	-0.000
270.20	-0.000
270.41	-0.000
270.63	-0.000
270.84	-0.000
271.05	-0.000
271.26	-0.000
271.48	-0.000
271.69	-0.000
271.90	-0.000
272.11	-0.000
272.32	-0.000
272.54	-0.000
272.75	-0.000
272.96	-0.000
273.17	-0.000
273.39	-0.000
273.60	-0.000
273.81	-0.000
274.02	-0.000
274.23	-0.000
274.45	-0.000
274.66	-0.000
274.87	-0.000
275.08	-0.000
275.29	-0.000
275.51	-0.000
275.72	-0.000
275.93	-0.000
276.14	-0.000
276.35	-0.000
276.57	-0.000
276.78	-0.000
276.99	-0.000
277.20	-0.000
277.41	-0.000
277.63	-0.000
277.84	-0.000
278.05	-0.000
278.26	-0.000
278.47	-0.000
278.69	-0.000
278.90	-0.000
279.11	-0.000
279.32	-0.000
279.53	-0.000
279.74	-0.000
279.96	-0.000
280.17	-0.000
280.38	-0.000
280.59	-0.000
280.80	-0.000
281.02	-0.000
281.23	-0.000
281.44	-0.000
281.65	-0.000
281.86	-0.000
282.07	-0.000
282.29	-0.000
282.50	-0.000
282.71	-0.000
282.92	-0.000
283.13	-0.000
283.35	-0.000
283.56	-0.000
283.77	-0.000
283.98	-0.000
284.19	-0.000
284.40	-0.000
284.62	-0.000
284.83	-0.000
285.04	-0.000
285.25	-0.000
285.46	-0.000
285.67	-0.000
285.88	-0.000
286.10	-0.000
286.31	-0.000
286.52	-0.000
286.73	-0.000
286.94	-0.000
287.15	-0.000
287.37	-0.000
287.58	-0.000
287.79	-0.000
288.00	-0.000
288.21	-0.000
288.42	-0.000
288.63	-0.000
288.85	-0.000
289.06	-0.000
289.27	-0.000
289.48	-0.000
289.69	-0.000
289.90	-0.000
290.11	-0.000
290.33	-0.000
290.54	-0.000
290.75	-0.000
290.96	-0.000
291.17	-0.000
291.38	-0.000
291.59	-0.000
291.81	-0.000
292.02	-0.000
292.23	-0.000
292.44	-0.000
292.65	3.292
292.86	-0.000
293.07	-0.000
293.28	2.461
293.50	-0.000
293.71	-0.000
293.92	-0.000
294.13	-0.000
294.34	-0.000
294.55	-0.000
294.76	-0.000
294.97	-0.000
295.19	-0.000
295.40	-0.000
295.61	-0.000
295.82	4.047
296.03	2.437
296.24	2.504
296.45	1.861
296.66	1.649
296.87	1.665
297.09	1.701
297.30	1.839
297.51	1.601
297.72	1.573
297.93	1.626
298.14	1.599
298.35	1.563
298.56	1.546
298.77	1.644
298.99	1.624
299.20	1.613
299.41	1.601
299.62	1.559
299.83	1.557
300.04	1.516
300.25	1.514
300.46	1.538
300.67	1.517
300.88	1.485
301.10	1.482
301.31	1.537
301.52	1.488
301.73	1.447
301.94	1.442
302.15	1.448
302.36	1.410
302.57	1.359
302.78	1.369
302.99	1.402
303.20	1.413
303.41	1.337
303.63	1.322
303.84	1.322
304.05	1.314
304.26	1.268
304.47	1.274
304.68	1.272
304.89	1.265
305.10	1.233
305.31	1.225
305.52	1.261
305.73	1.258
305.94	1.224
306.15	1.218
306.37	1.238
306.58	1.247
306.79	1.221
307.00	1.243
307.21	1.278
307.42	1.267
307.63	1.237
307.84	1.209
308.05	1.237
308.26	1.239
308.47	1.222
308.68	1.217
308.89	1.211
309.10	1.210
309.31	1.174
309.52	1.166
309.73	1.179
309.95	1.173
310.16	1.148
310.37	1.139
310.58	1.152
310.79	1.151
311.00	1.151
311.21	1.155
311.42	1.157
311.63	1.153
311.84	1.136
312.05	1.133
312.26	1.149
312.47	1.163
312.68	1.144
312.89	1.128
313.10	1.132
313.31	1.107
313.52	1.113
313.73	1.113
313.94	1.115
314.15	1.101
314.36	1.084
314.57	1.082
314.78	1.067
314.99	1.062
315.21	1.054
315.42	1.059
315.63	1.069
315.84	1.046
316.05	1.035
316.26	1.040
316.47	1.055
316.68	1.052
316.89	1.033
317.10	1.052
317.31	1.057
317.52	1.058
317.73	1.039
317.94	1.037
318.15	1.074
318.36	1.073
318.57	1.058
318.78	1.048
318.99	1.076
319.20	1.076
319.41	1.044
319.62	1.046
319.83	1.057
320.04	1.050
320.25	1.041
320.46	1.011
320.67	1.014
320.88	1.010
321.09	0.999
321.30	0.984
321.51	0.997
321.72	0.995
321.93	0.981
322.14	0.973
322.35	1.000
322.56	1.003
322.77	0.994
322.98	1.005
323.19	1.012
323.40	1.017
323.61	1.002
323.82	0.997
324.03	1.003
324.24	1.001
324.45	0.991
324.66	0.972
324.87	0.967
325.08	0.966
325.29	0.948
325.50	0.942
325.71	0.946
325.92	0.952
326.13	0.939
326.34	0.939
326.55	0.945
326.76	0.944
326.97	0.935
327.18	0.929
327.39	0.951
327.60	0.952
327.80	0.953
328.01	0.951
328.22	0.951
328.43	0.954
328.64	0.945
328.85	0.950
329.06	0.950
329.27	0.948
329.48	0.944
329.69	0.927
329.90	0.936
330.11	0.930
330.32	0.924
330.53	0.917
330.74	0.916
330.95	0.914
331.16	0.901
331.37	0.910
331.58	0.910
331.79	0.910
332.00	0.904
332.21	0.897
332.42	0.900
332.63	0.891
332.83	0.889
333.04	0.891
333.25	0.903
333.46	0.902
333.67	0.888
333.88	0.891
334.09	0.901
334.30	0.898
334.51	0.890
334.72	0.885
334.93	0.889
335.14	0.887
335.35	0.880
335.56	0.874
335.77	0.882
335.98	0.881
336.18	0.874
336.39	0.867
336.60	0.870
336.81	0.868
337.02	0.868
337.23	0.871
337.44	0.873
337.65	0.874
337.86	0.866
338.07	0.861
338.28	0.865
338.49	0.864
338.70	0.858
338.91	0.864
339.11	0.870
339.32	0.868
339.53	0.857
339.74	0.855
339.95	0.852
340.16	0.850
340.37	0.844
340.58	0.842
340.79	0.845
341.00	0.845
341.21	0.835
341.41	0.835
341.62	0.836
341.83	0.838
342.04	0.833
342.25	0.843
342.46	0.847
342.67	0.845
342.88	0.840
343.09	0.839
343.30	0.845
343.50	0.850
343.71	0.840
343.92	0.838
344.13	0.841
344.34	0.840
344.55	0.825
344.76	0.824
344.97	0.827
345.18	0.826
345.38	0.824
345.59	0.819
345.80	0.817
346.01	0.815
346.22	0.812
346.43	0.807
346.64	0.815
346.85	0.815
347.06	0.809
347.26	0.808
347.47	0.811
347.68	0.807
347.89	0.805
348.10	0.798
348.31	0.804
348.52	0.803
348.73	0.801
348.93	0.798
349.14	0.800
349.35	0.800
349.56	0.796
349.77	0.792
349.98	0.797
350.19	0.794
350.39	0.791
350.60	0.787
350.81	0.803
351.02	0.802
351.23	0.798
351.44	0.800
351.65	0.801
351.86	0.798
352.06	0.797
352.27	0.796
352.48	0.796
352.69	0.796
352.90	0.791
353.11	0.778
353.31	0.784
353.52	0.780
353.73	0.772
353.94	0.775
354.15	0.781
354.36	0.780
354.57	0.772
354.77	0.774
354.98	0.773
355.19	0.772
355.40	0.772
355.61	0.777
355.82	0.782
356.02	0.782
356.23	0.774
356.44	0.775
356.65	0.778
356.86	0.779
357.07	0.774
357.27	0.778
357.48	0.780
357.69	0.776
357.90	0.761
358.11	0.757
358.32	0.761
358.52	0.765
358.73	0.756
358.94	0.758
359.15	0.762
359.36	0.762
359.56	0.757
359.77	0.755
359.98	0.761
360.19	0.761
360.40	0.759
360.61	0.760
360.81	0.757
361.02	0.758
361.23	0.751
361.44	0.749
361.65	0.749
361.85	0.748
362.06	0.746
362.27	0.747
362.48	0.748
362.69	0.749
362.89	0.743
363.10	0.745
363.31	0.750
363.52	0.752
363.73	0.748
363.93	0.748
364.14	0.750
364.35	0.751
364.56	0.743
364.77	0.743
364.97	0.745
365.18	0.746
365.39	0.741
365.60	0.738
365.81	0.738
366.01	0.738
366.22	0.735
366.43	0.735
366.64	0.735
366.84	0.741
367.05	0.738
367.26	0.737
367.47	0.739
367.68	0.738
367.88	0.736
368.09	0.734
368.30	0.736
368.51	0.736
368.71	0.734
368.92	0.739
369.13	0.736
369.34	0.735
369.55	0.734
369.75	0.734
369.96	0.740
370.17	0.741
370.38	0.738
370.58	0.737
370.79	0.743
371.00	0.742
371.21	0.733
371.41	0.739
371.62	0.744
371.83	0.740
372.04	0.738
372.24	0.732
372.45	0.732
372.66	0.732
372.87	0.730
373.07	0.727
373.28	0.728
373.49	0.732
373.70	0.723
373.90	0.722
374.11	0.731
374.32	0.731
374.53	0.729
374.73	0.731
374.94	0.733
375.15	0.734
375.36	0.731
375.56	0.741
375.77	0.740
375.98	0.739
376.19	0.736
376.39	0.729
376.60	0.732
376.81	0.733
377.02	0.730
377.22	0.729
377.43	0.728
377.64	0.728
377.84	0.719
378.05	0.724
378.26	0.730
378.47	0.729
378.67	0.726
378.88	0.723
379.09	0.723
379.30	0.724
379.50	0.722
379.71	0.725
379.92	0.728
380.12	0.727
380.33	0.720
380.54	0.717
380.75	0.724
380.95	0.725
381.16	0.723
381.37	0.723
381.57	0.724
381.78	0.725
381.99	0.725
382.20	0.725
382.40	0.727
382.61	0.727
382.82	0.724
383.02	0.718
383.23	0.720
383.44	0.721
383.64	0.719
383.85	0.721
384.06	0.724
384.27	0.722
384.47	0.720
384.68	0.721
384.89	0.726
385.09	0.726
385.30	0.725
385.51	0.725
385.71	0.728
385.92	0.729
386.13	0.729
386.33	0.731
386.54	0.732
386.75	0.731
386.95	0.727
387.16	0.723
387.37	0.725
387.58	0.725
387.78	0.723
387.99	0.720
388.20	0.721
388.40	0.718
388.61	0.714
388.82	0.717
389.02	0.719
389.23	0.720
389.44	0.717
389.64	0.718
389.85	0.729
390.06	0.729
390.26	0.731
390.47	0.731
390.68	0.733
390.88	0.733
391.09	0.728
391.30	0.728
391.50	0.727
391.71	0.728
391.92	0.726
392.12	0.718
392.33	0.718
392.53	0.718
392.74	0.718
392.95	0.718
393.15	0.720
393.36	0.722
393.57	0.721
393.77	0.724
393.98	0.725
394.19	0.724
394.39	0.724
394.60	0.726
394.81	0.727
395.01	0.725
395.22	0.723
395.43	0.724
395.63	0.729
395.84	0.729
396.04	0.726
396.25	0.728
396.46	0.729
396.66	0.728
396.87	0.726
397.08	0.723
397.28	0.726
397.49	0.726
397.69	0.723
397.90	0.719
398.11	0.720
398.31	0.721
398.52	0.718
398.73	0.720
398.93	0.719
399.14	0.717
399.34	0.717
399.55	0.718
399.76	0.718
399.96	0.719
400.17	0.717
400.37	0.716
400.58	0.722
400.79	0.723
400.99	0.720
401.20	0.726
401.41	0.728
401.61	0.730
401.82	0.735
402.02	0.735
402.23	0.736
402.44	0.736
402.64	0.736
402.85	0.731
403.05	0.730
403.26	0.728
403.47	0.722
403.67	0.722
403.88	0.722
404.08	0.716
404.29	0.714
404.50	0.714
404.70	0.714
404.91	0.712
405.11	0.710
405.32	0.710
405.52	0.710
405.73	0.710
405.94	0.709
406.14	0.711
406.35	0.713
406.55	0.713
406.76	0.711
406.97	0.712
407.17	0.715
407.38	0.715
407.58	0.714
407.79	0.716
407.99	0.719
408.20	0.720
408.41	0.717
408.61	0.715
408.82	0.716
409.02	0.716
409.23	0.715
409.43	0.714
409.64	0.715
409.84	0.714
410.05	0.712
410.26	0.710
410.46	0.709
410.67	0.709
410.87	0.710
411.08	0.712
411.28	0.713
411.49	0.714
411.69	0.712
411.90	0.713
412.11	0.715
412.31	0.716
412.52	0.715
412.72	0.715
412.93	0.715
413.13	0.714
413.34	0.711
413.54	0.713
413.75	0.714
413.95	0.714
414.16	0.712
414.37	0.715
414.57	0.715
414.78	0.717
414.98	0.715
415.19	0.716
415.39	0.714
415.60	0.716
415.80	0.715
416.01	0.712
416.21	0.713
416.42	0.713
416.62	0.707
416.83	0.708
417.03	0.707
417.24	0.708
417.44	0.705
417.65	0.705
417.86	0.705
418.06	0.703
418.27	0.702
418.47	0.704
418.68	0.704
418.88	0.705
419.09	0.704
419.29	0.705
419.50	0.705
419.70	0.704
419.91	0.704
420.11	0.701
420.32	0.704
420.52	0.703
420.73	0.702
420.93	0.703
421.14	0.704
421.34	0.703
421.55	0.700
421.75	0.700
421.96	0.701
422.16	0.701
422.37	0.700
422.57	0.697
422.78	0.698
422.98	0.695
423.19	0.692
423.39	0.691
423.60	0.695
423.80	0.696
424.01	0.695
424.21	0.697
424.42	0.698
424.62	0.697
424.83	0.696
425.03	0.697
425.23	0.699
425.44	0.699
425.64	0.699
425.85	0.698
426.05	0.698
426.26	0.698
426.46	0.694
426.67	0.694
426.87	0.699
427.08	0.700
427.28	0.697
427.49	0.698
427.69	0.699
427.90	0.699
428.10	0.696
428.31	0.696
428.51	0.698
428.71	0.697
428.92	0.698
429.12	0.695
429.33	0.695
429.53	0.699
429.74	0.703
429.94	0.704
430.15	0.703
430.35	0.702
430.56	0.699
430.76	0.698
430.96	0.699
431.17	0.696
431.37	0.693
431.58	0.691
431.78	0.688
431.99	0.681
432.19	0.683
432.40	0.684
432.60	0.684
432.80	0.687
433.01	0.686
433.21	0.686
433.42	0.689
433.62	0.689
433.83	0.689
434.03	0.691
434.23	0.694
434.44	0.693
434.64	0.690
434.85	0.696
435.05	0.696
435.26	0.696
435.46	0.695
435.66	0.695
435.87	0.695
436.07	0.694
436.28	0.691
436.48	0.688
436.69	0.687
436.89	0.688
437.09	0.681
437.30	0.680
437.50	0.680
437.71	0.691
437.91	0.690
438.11	0.691
438.32	0.695
438.52	0.695
438.73	0.694
438.93	0.692
439.13	0.691
439.34	0.695
439.54	0.692
439.75	0.692
439.95	0.682
440.15	0.687
440.36	0.685
440.56	0.683
440.77	0.683
440.97	0.683
441.17	0.683
441.38	0.684
441.58	0.681
441.79	0.681
441.99	0.680
442.19	0.679
442.40	0.676
442.60	0.676
442.81	0.674
443.01	0.675
443.21	0.675
443.42	0.674
443.62	0.673
443.82	0.673
444.03	0.674
444.23	0.674
444.44	0.674
444.64	0.673
444.84	0.675
445.05	0.674
445.25	0.672
445.45	0.672
445.66	0.674
445.86	0.673
446.06	0.675
446.27	0.674
446.47	0.677
446.68	0.675
446.88	0.673
447.08	0.673
447.29	0.674
447.49	0.674
447.69	0.674
447.90	0.672
448.10	0.675
448.30	0.673
448.51	0.674
448.71	0.671
448.91	0.673
449.12	0.672
449.32	0.674
449.52	0.673
449.73	0.676
449.93	0.675
450.14	0.675
450.34	0.674
450.54	0.676
450.75	0.674
450.95	0.673
451.15	0.672
451.36	0.675
451.56	0.671
451.76	0.670
451.97	0.668
452.17	0.668
452.37	0.667
452.58	0.664
452.78	0.664
452.98	0.665
453.19	0.664
453.39	0.665
453.59	0.663
453.79	0.664
454.00	0.664
454.20	0.663
454.40	0.663
454.61	0.665
454.81	0.666
455.01	0.664
455.22	0.665
455.42	0.667
455.62	0.665
455.83	0.665
456.03	0.668
456.23	0.668
456.44	0.669
456.64	0.668
456.84	0.668
457.04	0.668
457.25	0.667
457.45	0.664
457.65	0.663
457.86	0.664
458.06	0.663
458.26	0.659
458.47	0.659
458.67	0.659
458.87	0.659
459.07	0.656
459.28	0.658
459.48	0.661
459.68	0.661
459.89	0.660
460.09	0.659
460.29	0.659
460.49	0.660
460.70	0.660
460.90	0.660
461.10	0.661
461.31	0.661
461.51	0.658
461.71	0.660
461.91	0.661
462.12	0.661
462.32	0.661
462.52	0.661
462.72	0.664
462.93	0.665
463.13	0.664
463.33	0.664
463.53	0.665
463.74	0.665
463.94	0.661
464.14	0.661
464.35	0.662
464.55	0.662
464.75	0.661
464.95	0.658
465.16	0.659
465.36	0.658
465.56	0.657
465.76	0.657
465.97	0.657
466.17	0.657
466.37	0.655
466.57	0.656
466.78	0.656
466.98	0.656
467.18	0.655
467.38	0.654
467.59	0.655
467.79	0.656
467.99	0.655
468.19	0.656
468.39	0.658
468.60	0.659
468.80	0.657
469.00	0.659
469.20	0.659
469.41	0.659
469.61	0.659
469.81	0.659
470.01	0.658
470.22	0.658
470.42	0.657
470.62	0.655
470.82	0.656
471.02	0.656
471.23	0.654
471.43	0.655
471.63	0.657
471.83	0.656
472.04	0.655
472.24	0.654
472.44	0.660
472.64	0.659
472.84	0.658
473.05	0.658
473.25	0.660
473.45	0.660
473.65	0.659
473.85	0.659
474.06	0.660
474.26	0.660
474.46	0.661
474.66	0.657
474.86	0.658
475.07	0.659
475.27	0.657
475.47	0.654
475.67	0.654
475.87	0.656
476.08	0.653
476.28	0.654
476.48	0.655
476.68	0.653
476.88	0.651
477.09	0.652
477.29	0.653
477.49	0.653
477.69	0.653
477.89	0.652
478.09	0.651
478.30	0.653
478.50	0.650
478.70	0.650
478.90	0.650
479.10	0.653
479.31	0.654
479.51	0.653
479.71	0.653
479.91	0.654
480.11	0.653
480.31	0.653
480.52	0.652
480.72	0.653
480.92	0.652
481.12	0.651
481.32	0.648
481.52	0.646
481.72	0.646
481.93	0.649
482.13	0.649
482.33	0.648
482.53	0.647
482.73	0.648
482.93	0.648
483.14	0.648
483.34	0.647
483.54	0.648
483.74	0.647
483.94	0.647
484.14	0.643
484.34	0.643
484.55	0.644
484.75	0.643
484.95	0.642
485.15	0.641
485.35	0.641
485.55	0.641
485.75	0.639
485.96	0.640
486.16	0.641
486.36	0.640
486.56	0.639
486.76	0.638
486.96	0.638
487.16	0.638
487.36	0.636
487.57	0.636
487.77	0.636
487.97	0.637
488.17	0.634
488.37	0.633
488.57	0.634
488.77	0.634
488.97	0.633
489.18	0.632
489.38	0.635
489.58	0.636
489.78	0.635
489.98	0.635
490.18	0.635
490.38	0.636
490.58	0.634
490.78	0.635
490.98	0.636
491.19	0.637
491.39	0.636
491.59	0.634
491.79	0.637
491.99	0.637
492.19	0.637
492.39	0.640
492.59	0.640
492.79	0.642
492.99	0.642
493.20	0.643
493.40	0.643
493.60	0.644
493.80	0.644
494.00	0.641
494.20	0.641
494.40	0.641
494.60	0.638
494.80	0.642
495.00	0.641
495.20	0.640
495.40	0.638
495.61	0.640
495.81	0.639
496.01	0.643
496.21	0.644
496.41	0.644
496.61	0.644
496.81	0.643
497.01	0.638
497.21	0.638
497.41	0.639
497.61	0.638
497.81	0.636
498.01	0.636
498.21	0.634
498.41	0.631
498.61	0.631
498.82	0.632
499.02	0.634
499.22	0.635
499.42	0.634
499.62	0.635
499.82	0.637
500.02	0.638
500.22	0.637
500.42	0.639
500.62	0.639
500.82	0.640
501.02	0.638
501.22	0.638
501.42	0.638
501.62	0.640
501.82	0.639
502.02	0.639
502.22	0.639
502.42	0.640
502.62	0.638
502.82	0.638
503.02	0.638
503.22	0.638
503.42	0.637
503.63	0.637
503.83	0.635
504.03	0.633
504.23	0.632
504.43	0.632
504.63	0.633
504.83	0.633
505.03	0.632
505.23	0.634
505.43	0.635
505.63	0.635
505.83	0.635
506.03	0.636
506.23	0.638
506.43	0.639
506.63	0.637
506.83	0.636
507.03	0.638
507.23	0.638
507.43	0.636
507.63	0.637
507.83	0.637
508.03	0.637
508.23	0.637
508.43	0.635
508.63	0.637
508.83	0.637
509.03	0.638
509.23	0.637
509.43	0.638
509.63	0.639
509.83	0.638
510.03	0.640
510.23	0.642
510.43	0.642
510.63	0.643
510.83	0.643
511.03	0.644
511.23	0.642
511.43	0.642
511.63	0.643
511.83	0.645
512.03	0.644
512.22	0.641
512.42	0.641
512.62	0.641
512.82	0.641
513.02	0.640
513.22	0.639
513.42	0.641
513.62	0.643
513.82	0.641
514.02	0.640
514.22	0.642
514.42	0.642
514.62	0.642
514.82	0.642
515.02	0.644
515.22	0.647
515.42	0.646
515.62	0.649
515.82	0.648
516.02	0.650
516.22	0.651
516.42	0.652
516.62	0.654
516.82	0.655
517.01	0.654
517.21	0.653
517.41	0.656
517.61	0.657
517.81	0.653
518.01	0.652
518.21	0.651
518.41	0.650
518.61	0.650
518.81	0.650
519.01	0.650
519.21	0.651
519.41	0.650
519.61	0.645
519.81	0.647
520.00	0.648
520.20	0.649
520.40	0.651
520.60	0.652
520.80	0.651
521.00	0.651
521.20	0.652
521.40	0.657
521.60	0.657
521.80	0.657
522.00	0.657
522.20	0.659
522.39	0.658
522.59	0.656
522.79	0.657
522.99	0.659
523.19	0.657
523.39	0.655
523.59	0.652
523.79	0.655
523.99	0.656
524.19	0.656
524.38	0.654
524.58	0.656
524.78	0.656
524.98	0.655
525.18	0.657
525.38	0.658
525.58	0.658
525.78	0.656
525.98	0.654
526.18	0.655
526.37	0.654
526.57	0.656
526.77	0.656
526.97	0.656
527.17	0.656
527.37	0.652
527.57	0.654
527.77	0.656
527.96	0.656
528.16	0.656
528.36	0.656
528.56	0.658
528.76	0.656
528.96	0.655
529.16	0.656
529.36	0.659
529.55	0.659
529.75	0.656
529.95	0.657
530.15	0.658
530.35	0.660
530.55	0.658
530.75	0.659
530.94	0.660
531.14	0.661
531.34	0.659
531.54	0.658
531.74	0.661
531.94	0.663
532.13	0.662
532.33	0.663
532.53	0.662
532.73	0.662
532.93	0.660
533.13	0.661
533.33	0.661
533.52	0.661
533.72	0.664
533.92	0.663
534.12	0.660
534.32	0.660
534.52	0.659
534.71	0.660
534.91	0.662
535.11	0.664
535.31	0.663
535.51	0.664
535.71	0.666
535.90	0.663
536.10	0.664
536.30	0.666
536.50	0.667
536.70	0.667
536.89	0.665
537.09	0.665
537.29	0.666
537.49	0.667
537.69	0.665
537.89	0.666
538.08	0.665
538.28	0.664
538.48	0.664
538.68	0.667
538.88	0.668
539.07	0.668
539.27	0.667
539.47	0.666
539.67	0.665
539.87	0.666
540.06	0.664
540.26	0.665
540.46	0.667
540.66	0.664
540.86	0.662
541.05	0.662
541.25	0.663
541.45	0.664
541.65	0.663
541.84	0.665
542.04	0.665
542.24	0.665
542.44	0.665
542.64	0.666
542.83	0.669
543.03	0.669
543.23	0.666
543.43	0.667
543.62	0.668
543.82	0.669
544.02	0.668
544.22	0.668
544.42	0.671
544.61	0.671
544.81	0.668
545.01	0.667
545.21	0.669
545.40	0.669
545.60	0.667
545.80	0.670
546.00	0.670
546.19	0.670
546.39	0.669
546.59	0.666
546.79	0.667
546.98	0.667
547.18	0.667
547.38	0.668
547.58	0.670
547.77	0.670
547.97	0.666
548.17	0.668
548.37	0.669
548.56	0.669
548.76	0.669
548.96	0.671
549.16	0.673
549.35	0.672
549.55	0.670
549.75	0.671
549.95	0.674
550.14	0.675
550.34	0.673
550.54	0.678
550.73	0.682
550.93	0.682
551.13	0.679
551.33	0.678
551.52	0.679
551.72	0.680
551.92	0.678
552.12	0.679
552.31	0.679
552.51	0.679
552.71	0.674
552.90	0.673
553.10	0.674
553.30	0.674
553.50	0.673
553.69	0.675
553.89	0.675
554.09	0.675
554.28	0.672
554.48	0.673
554.68	0.675
554.87	0.675
555.07	0.672
555.27	0.672
555.47	0.673
555.66	0.673
555.86	0.672
556.06	0.674
556.25	0.675
556.45	0.683
556.65	0.681
556.84	0.684
557.04	0.687
557.24	0.689
557.43	0.690
557.63	0.693
557.83	0.695
558.02	0.695
558.22	0.700
558.42	0.700
558.61	0.693
558.81	0.694
559.01	0.691
559.21	0.690
559.40	0.691
559.60	0.691
559.80	0.688
559.99	0.688
560.19	0.690
560.39	0.684
560.58	0.683
560.78	0.683
560.97	0.686
561.17	0.684
561.37	0.681
561.56	0.682
561.76	0.683
561.96	0.683
562.15	0.681
562.35	0.682
562.55	0.683
562.74	0.682
562.94	0.681
563.14	0.679
563.33	0.680
563.53	0.680
563.73	0.678
563.92	0.679
564.12	0.681
564.31	0.683
564.51	0.682
564.71	0.685
564.90	0.687
565.10	0.688
565.30	0.691
565.49	0.692
565.69	0.694
565.89	0.695
566.08	0.692
566.28	0.694
566.47	0.696
566.67	0.694
566.87	0.691
567.06	0.693
567.26	0.698
567.46	0.695
567.65	0.695
567.85	0.696
568.04	0.699
568.24	0.698
568.44	0.696
568.63	0.694
568.83	0.695
569.02	0.694
569.22	0.690
569.42	0.686
569.61	0.688
569.81	0.686
570.00	0.684
570.20	0.685
570.40	0.686
570.59	0.686
570.79	0.684
570.98	0.682
571.18	0.683
571.38	0.683
571.57	0.681
571.77	0.679
571.96	0.682
572.16	0.679
572.35	0.674
572.55	0.675
572.75	0.673
572.94	0.673
573.14	0.672
573.33	0.672
573.53	0.672
573.73	0.671
573.92	0.670
574.12	0.668
574.31	0.670
574.51	0.672
574.70	0.669
574.90	0.670
575.09	0.673
575.29	0.673
575.49	0.670
575.68	0.671
575.88	0.672
576.07	0.673
576.27	0.671
576.46	0.669
576.66	0.668
576.86	0.667
577.05	0.665
577.25	0.663
577.44	0.665
577.64	0.665
577.83	0.664
578.03	0.665
578.22	0.665
578.42	0.665
578.61	0.663
578.81	0.664
579.00	0.664
579.20	0.663
579.40	0.662
579.59	0.661
579.79	0.661
579.98	0.660
580.18	0.660
580.37	0.660
580.57	0.661
580.76	0.666
580.96	0.665
581.15	0.665
581.35	0.667
581.54	0.667
581.74	0.667
581.93	0.668
582.13	0.669
582.32	0.666
582.52	0.664
582.71	0.663
582.91	0.659
583.10	0.658
583.30	0.657
583.49	0.656
583.69	0.660
583.88	0.661
584.08	0.660
584.27	0.663
584.47	0.666
584.66	0.667
584.86	0.666
585.05	0.669
585.25	0.672
585.44	0.672
585.64	0.670
585.83	0.667
586.03	0.666
586.22	0.665
586.42	0.661
586.61	0.662
586.81	0.665
587.00	0.664
587.20	0.661
587.39	0.661
587.59	0.663
587.78	0.664
587.98	0.665
588.17	0.666
588.37	0.668
588.56	0.670
588.76	0.666
588.95	0.666
589.15	0.670
589.34	0.672
589.54	0.671
589.73	0.672
589.92	0.675
590.12	0.675
590.31	0.674
590.51	0.680
590.70	0.682
590.90	0.682
591.09	0.680
591.29	0.678
591.48	0.678
591.68	0.679
591.87	0.677
592.06	0.677
592.26	0.679
592.45	0.678
592.65	0.672
592.84	0.671
593.04	0.674
593.23	0.676
593.43	0.674
593.62	0.674
593.81	0.674
594.01	0.673
594.20	0.671
594.40	0.669
594.59	0.671
594.79	0.671
594.98	0.670
595.17	0.668
595.37	0.669
595.56	0.671
595.76	0.670
595.95	0.672
596.14	0.676
596.34	0.677
596.53	0.677
596.73	0.679
596.92	0.681
597.12	0.684
597.31	0.684
597.50	0.683
597.70	0.685
597.89	0.684
598.09	0.680
598.28	0.681
598.47	0.683
598.67	0.681
598.86	0.677
599.06	0.678
599.25	0.678
599.44	0.676
599.64	0.673
599.83	0.671
600.03	0.674
600.22	0.674
600.41	0.674
600.61	0.672
600.80	0.674
601.00	0.675
601.19	0.671
601.38	0.670
601.58	0.672
601.77	0.673
601.96	0.675
602.16	0.675
602.35	0.684
602.55	0.682
602.74	0.683
602.93	0.685
603.13	0.690
603.32	0.692
603.51	0.692
603.71	0.696
603.90	0.698
604.09	0.698
604.29	0.695
604.48	0.690
604.68	0.691
604.87	0.689
605.06	0.686
605.26	0.683
605.45	0.683
605.64	0.681
605.84	0.677
606.03	0.676
606.22	0.674
606.42	0.673
606.61	0.670
606.80	0.670
607.00	0.671
607.19	0.671
607.38	0.669
607.58	0.671
607.77	0.673
607.96	0.673
608.16	0.672
608.35	0.676
608.54	0.679
608.74	0.681
608.93	0.687
609.12	0.690
609.32	0.692
609.51	0.696
609.70	0.694
609.90	0.697
610.09	0.701
610.28	0.706
610.48	0.701
610.67	0.703
610.86	0.703
611.06	0.698
611.25	0.697
611.44	0.698
611.64	0.698
611.83	0.701
612.02	0.697
612.21	0.696
612.41	0.694
612.60	0.693
612.79	0.689
612.99	0.689
613.18	0.691
613.37	0.689
613.57	0.686
613.76	0.687
613.95	0.684
614.14	0.683
614.34	0.681
614.53	0.682
614.72	0.685
614.92	0.685
615.11	0.682
615.30	0.679
615.49	0.680
615.69	0.682
615.88	0.679
616.07	0.680
616.26	0.682
616.46	0.683
616.65	0.679
616.84	0.678
617.04	0.679
617.23	0.682
617.42	0.683
617.61	0.687
617.81	0.688
618.00	0.690
618.19	0.689
618.38	0.693
618.58	0.697
618.77	0.698
618.96	0.697
619.15	0.700
619.35	0.701
619.54	0.702
619.73	0.697
619.92	0.699
620.12	0.702
620.31	0.703
620.50	0.698
620.69	0.698
620.89	0.700
621.08	0.701
621.27	0.701
621.46	0.700
621.66	0.704
621.85	0.704
622.04	0.701
622.23	0.701
622.43	0.702
622.62	0.701
622.81	0.700
623.00	0.699
623.19	0.701
623.39	0.700
623.58	0.698
623.77	0.696
623.96	0.700
624.16	0.700
624.35	0.695
624.54	0.697
624.73	0.701
624.92	0.699
625.12	0.697
625.31	0.698
625.50	0.700
625.69	0.701
625.88	0.697
626.08	0.697
626.27	0.698
626.46	0.699
626.65	0.696
626.84	0.696
627.04	0.701
627.23	0.701
627.42	0.697
627.61	0.699
627.80	0.701
628.00	0.701
628.19	0.700
628.38	0.702
628.57	0.704
628.76	0.704
628.96	0.701
629.15	0.701
629.34	0.705
629.53	0.705
629.72	0.700
629.91	0.701
630.11	0.704
630.30	0.705
630.49	0.708
630.68	0.709
630.87	0.712
631.06	0.713
631.26	0.708
631.45	0.709
631.64	0.717
631.83	0.718
632.02	0.715
632.21	0.715
632.41	0.721
632.60	0.715
632.79	0.714
632.98	0.715
633.17	0.715
633.36	0.717
633.55	0.714
633.75	0.711
633.94	0.712
634.13	0.712
634.32	0.710
634.51	0.704
634.70	0.706
634.89	0.705
635.09	0.701
635.28	0.702
635.47	0.703
635.66	0.706
635.85	0.702
636.04	0.703
636.23	0.708
636.43	0.709
636.62	0.708
636.81	0.707
637.00	0.708
637.19	0.712
637.38	0.710
637.57	0.709
637.76	0.710
637.95	0.712
638.15	0.708
638.34	0.706
638.53	0.709
638.72	0.710
638.91	0.709
639.10	0.707
639.29	0.707
639.48	0.707
639.67	0.707
639.87	0.706
640.06	0.711
640.25	0.711
640.44	0.712
640.63	0.712
640.82	0.715
641.01	0.714
641.20	0.714
641.39	0.716
641.58	0.719
641.78	0.717
641.97	0.714
642.16	0.728
642.35	0.727
642.54	0.726
642.73	0.721
642.92	0.720
643.11	0.723
643.30	0.723
643.49	0.717
643.68	0.719
643.87	0.720
644.06	0.719
644.25	0.700
644.45	0.703
644.64	0.704
644.83	0.705
645.02	0.701
645.21	0.700
645.40	0.701
645.59	0.702
645.78	0.697
645.97	0.699
646.16	0.700
646.35	0.699
646.54	0.698
646.73	0.699
646.92	0.700
647.11	0.699
647.30	0.696
647.49	0.698
647.68	0.697
647.88	0.695
648.07	0.689
648.26	0.693
648.45	0.694
648.64	0.691
648.83	0.689
649.02	0.691
649.21	0.700
649.40	0.699
649.59	0.694
649.78	0.695
649.97	0.709
650.16	0.708
650.35	0.702
650.54	0.705
650.73	0.713
650.92	0.708
651.11	0.702
651.30	0.701
651.49	0.705
651.68	0.705
651.87	0.702
652.06	0.692
652.25	0.695
652.44	0.700
652.63	0.699
652.82	0.702
653.01	0.704
653.20	0.703
653.39	0.692
653.58	0.690
653.77	0.690
653.96	0.685
654.15	0.678
654.34	0.676
654.53	0.670
654.72	0.663
654.91	0.653
655.10	0.649
655.29	0.646
655.48	0.643
655.67	0.638
655.86	0.635
656.05	0.634
656.24	0.633
656.43	0.628
656.62	0.627
656.81	0.625
657.00	0.622
657.19	0.617
657.38	0.616
657.57	0.615
657.76	0.616
657.95	0.613
658.14	0.616
658.33	0.617
658.51	0.621
658.70	0.621
658.89	0.623
659.08	0.633
659.27	0.642
659.46	0.643
659.65	0.650
659.84	0.655
660.03	0.659
660.22	0.660
660.41	0.665
660.60	0.664
660.79	0.666
660.98	0.672
661.17	0.670
661.36	0.669
661.55	0.670
661.74	0.668
661.92	0.671
662.11	0.673
662.30	0.672
662.49	0.666
662.68	0.665
662.87	0.668
663.06	0.663
663.25	0.665
663.44	0.665
663.63	0.666
663.82	0.664
664.01	0.659
664.20	0.658
664.38	0.659
664.57	0.660
664.76	0.660
664.95	0.660
665.14	0.665
665.33	0.660
665.52	0.667
665.71	0.671
665.90	0.670
666.09	0.672
666.28	0.671
666.46	0.669
666.65	0.669
666.84	0.667
667.03	0.662
667.22	0.660
667.41	0.662
667.60	0.651
667.79	0.644
667.98	0.646
668.16	0.646
668.35	0.646
668.54	0.642
668.73	0.643
668.92	0.644
669.11	0.644
669.30	0.638
669.49	0.635
669.67	0.636
669.86	0.638
670.05	0.636
670.24	0.634
670.43	0.631
670.62	0.630
670.81	0.625
671.00	0.626
671.18	0.626
671.37	0.625
671.56	0.623
671.75	0.622
671.94	0.619
672.13	0.617
672.32	0.612
672.50	0.612
672.69	0.612
672.88	0.613
673.07	0.608
673.26	0.610
673.45	0.611
673.63	0.610
673.82	0.607
674.01	0.608
674.20	0.608
674.39	0.608
674.58	0.607
674.76	0.608
674.95	0.606
675.14	0.607
675.33	0.603
675.52	0.602
675.71	0.602
675.89	0.602
676.08	0.598
676.27	0.599
676.46	0.599
676.65	0.598
676.84	0.597
677.02	0.600
677.21	0.601
677.40	0.599
677.59	0.598
677.78	0.598
677.96	0.600
678.15	0.599
678.34	0.596
678.53	0.597
678.72	0.597
678.90	0.593
679.09	0.589
679.28	0.586
679.47	0.587
679.66	0.586
679.84	0.583
680.03	0.580
680.22	0.579
680.41	0.581
680.60	0.578
680.78	0.577
680.97	0.579
681.16	0.580
681.35	0.579
681.53	0.577
681.72	0.578
681.91	0.580
682.10	0.579
682.29	0.582
682.47	0.580
682.66	0.578
682.85	0.577
683.04	0.575
683.22	0.574
683.41	0.576
683.60	0.574
683.79	0.576
683.97	0.574
684.16	0.573
684.35	0.569
684.54	0.571
684.72	0.571
684.91	0.572
685.10	0.571
685.29	0.572
685.47	0.569
685.66	0.568
685.85	0.565
686.04	0.564
686.22	0.566
686.41	0.569
686.60	0.566
686.79	0.569
686.97	0.569
687.16	0.570
687.35	0.567
687.54	0.571
687.72	0.575
687.91	0.575
688.10	0.577
688.29	0.577
688.47	0.575
688.66	0.574
688.85	0.570
689.03	0.568
689.22	0.573
689.41	0.573
689.60	0.568
689.78	0.565
689.97	0.565
690.16	0.562
690.34	0.559
690.53	0.559
690.72	0.559
690.91	0.558
691.09	0.556
691.28	0.550
691.47	0.549
691.65	0.548
691.84	0.545
692.03	0.545
692.21	0.543
692.40	0.542
692.59	0.540
692.77	0.538
692.96	0.539
693.15	0.539
693.34	0.537
693.52	0.537
693.71	0.538
693.90	0.539
694.08	0.540
694.27	0.541
694.46	0.549
694.64	0.550
694.83	0.550
695.02	0.549
695.20	0.548
695.39	0.548
695.58	0.549
695.76	0.549
695.95	0.548
696.14	0.547
696.32	0.545
696.51	0.536
696.70	0.536
696.88	0.537
697.07	0.536
697.26	0.537
697.44	0.538
697.63	0.536
697.81	0.534
698.00	0.534
698.19	0.533
698.37	0.533
698.56	0.533
698.75	0.532
698.93	0.532
699.12	0.531
699.31	0.530
699.49	0.530
699.68	0.531
699.87	0.534
700.05	0.534
700.24	0.533
700.42	0.535
700.61	0.534
700.80	0.533
700.98	0.533
701.17	0.535
701.36	0.534
701.54	0.533
701.73	0.534
701.91	0.531
702.10	0.531
702.29	0.529
702.47	0.528
702.66	0.529
702.84	0.530
703.03	0.528
703.22	0.529
703.40	0.529
703.59	0.530
703.77	0.530
703.96	0.530
704.15	0.531
704.33	0.531
704.52	0.531
704.70	0.531
704.89	0.531
705.08	0.530
705.26	0.526
705.45	0.527
705.63	0.526
705.82	0.523
706.00	0.522
706.19	0.521
706.38	0.521
706.56	0.519
706.75	0.517
706.93	0.516
707.12	0.517
707.30	0.517
707.49	0.515
707.68	0.513
707.86	0.512
708.05	0.512
708.23	0.509
708.42	0.509
708.60	0.512
708.79	0.511
708.98	0.510
709.16	0.509
709.35	0.511
709.53	0.514
709.72	0.514
709.90	0.516
710.09	0.517
710.27	0.519
710.46	0.523
710.64	0.522
710.83	0.524
711.02	0.526
711.20	0.526
711.39	0.525
711.57	0.522
711.76	0.523
711.94	0.521
712.13	0.522
712.31	0.522
712.50	0.518
712.68	0.515
712.87	0.516
713.05	0.515
713.24	0.515
713.42	0.514
713.61	0.516
713.79	0.516
713.98	0.515
714.16	0.516
714.35	0.516
714.54	0.517
714.72	0.517
714.91	0.515
715.09	0.521
715.28	0.524
715.46	0.524
715.65	0.522
715.83	0.522
716.02	0.524
716.20	0.521
716.39	0.521
716.57	0.522
716.76	0.524
716.94	0.525
717.12	0.518
717.31	0.519
717.49	0.522
717.68	0.524
717.86	0.524
718.05	0.525
718.23	0.527
718.42	0.529
718.60	0.530
718.79	0.537
718.97	0.538
719.16	0.538
719.34	0.535
719.53	0.535
719.71	0.534
719.90	0.535
720.08	0.533
720.27	0.533
720.45	0.533
720.63	0.532
720.82	0.527
721.00	0.529
721.19	0.532
721.37	0.532
721.56	0.533
721.74	0.535
721.93	0.544
722.11	0.549
722.30	0.549
722.48	0.553
722.66	0.554
722.85	0.554
723.03	0.554
723.22	0.553
723.40	0.555
723.59	0.555
723.77	0.560
723.95	0.553
724.14	0.555
724.32	0.557
724.51	0.556
724.69	0.558
724.88	0.558
725.06	0.556
725.24	0.557
725.43	0.558
725.61	0.560
725.80	0.554
725.98	0.552
726.16	0.548
726.35	0.554
726.53	0.554
726.72	0.552
726.90	0.562
727.09	0.563
727.27	0.569
727.45	0.568
727.64	0.576
727.82	0.585
728.01	0.591
728.19	0.589
728.37	0.593
728.56	0.597
728.74	0.604
728.92	0.593
729.11	0.594
729.29	0.591
729.48	0.593
729.66	0.583
729.84	0.583
730.03	0.585
730.21	0.587
730.40	0.578
730.58	0.579
730.76	0.579
730.95	0.581
731.13	0.583
731.31	0.597
731.50	0.605
731.68	0.610
731.86	0.607
732.05	0.621
732.23	0.624
732.42	0.627
732.60	0.632
732.78	0.637
732.97	0.653
733.15	0.660
733.33	0.647
733.52	0.653
733.70	0.661
733.88	0.671
734.07	0.658
734.25	0.683
734.43	0.690
734.62	0.693
734.80	0.687
734.98	0.678
735.17	0.684
735.35	0.690
735.53	0.681
735.72	0.683
735.90	0.700
736.08	0.718
736.27	0.694
736.45	0.702
736.63	0.711
736.82	0.721
737.00	0.724
737.18	0.733
737.37	0.762
737.55	0.782
737.73	0.778
737.92	0.782
738.10	0.775
738.28	0.796
738.46	0.786
738.65	0.801
738.83	0.820
739.01	0.868
739.20	0.861
739.38	0.843
739.56	0.838
739.75	0.841
739.93	0.811
740.11	0.836
740.29	0.834
740.48	0.843
740.66	0.825
740.84	0.818
741.03	0.780
741.21	0.792
741.39	0.777
741.57	0.788
741.76	0.801
741.94	0.809
742.12	0.775
742.31	0.780
742.49	0.793
742.67	0.814
742.85	0.826
743.04	0.833
743.22	0.837
743.40	0.885
743.58	0.869
743.77	0.886
743.95	0.916
744.13	0.967
744.31	0.953
744.50	0.952
744.68	0.942
744.86	0.923
745.04	0.936
745.23	0.999
745.41	0.975
745.59	0.981
745.77	0.948
745.96	0.935
746.14	0.939
746.32	0.939
746.50	0.930
746.69	0.920
746.87	0.926
747.05	0.911
747.23	0.842
747.42	0.828
747.60	0.846
747.78	0.849
747.96	0.879
748.14	0.841
748.33	0.866
748.51	0.861
748.69	0.855
748.87	0.879
749.06	0.874
749.24	0.874
749.42	0.866
749.60	0.857
749.78	0.861
749.97	0.818
750.15	0.811
750.33	0.808
750.51	0.828
750.69	0.832
750.88	0.842
751.06	0.850
751.24	0.876
751.42	0.867
751.60	0.858
751.79	0.926
751.97	0.965
752.15	0.969
752.33	0.944
752.51	1.004
752.69	1.017
752.88	0.985
753.06	1.028
753.24	1.002
753.42	1.035
753.60	1.190
753.78	1.064
753.97	1.082
754.15	1.089
754.33	1.114
754.51	1.003
754.69	0.995
754.87	1.015
755.06	0.951
755.24	0.951
755.42	0.958
755.60	0.863
755.78	0.868
755.96	0.820
756.15	0.819
756.33	0.819
756.51	0.835
756.69	0.824
756.87	0.796
757.05	0.812
757.23	0.798
757.42	0.771
757.60	0.771
757.78	0.760
757.96	0.760
758.14	0.748
758.32	0.735
758.50	0.743
758.69	0.738
758.87	0.729
759.05	0.733
759.23	0.738
759.41	0.739
759.59	0.733
759.77	0.751
759.95	0.773
760.13	0.815
760.32	0.817
760.50	0.813
760.68	0.836
760.86	0.841
761.04	0.818
761.22	0.823
761.40	0.863
761.58	0.868
761.76	0.847
761.95	0.829
762.13	0.789
762.31	0.792
762.49	0.767
762.67	0.784
762.85	0.792
763.03	0.789
763.21	0.771
763.39	0.752
763.57	0.751
763.75	0.747
763.94	0.734
764.12	0.735
764.30	0.756
764.48	0.759
764.66	0.725
764.84	0.724
765.02	0.754
765.20	0.763
765.38	0.748
765.56	0.753
765.74	0.785
765.92	0.787
766.10	0.794
766.28	0.785
766.46	0.808
766.65	0.811
766.83	0.802
767.01	0.787
767.19	0.790
767.37	0.790
767.55	0.778
767.73	0.762
767.91	0.762
768.09	0.753
768.27	0.745
768.45	0.735
768.63	0.738
768.81	0.740
768.99	0.717
769.17	0.739
769.35	0.750
769.53	0.746
769.71	0.729
769.89	0.737
770.07	0.739
770.25	0.723
770.43	0.707
770.61	0.727
770.79	0.731
770.97	0.741
771.15	0.715
771.33	0.718
771.51	0.723
771.69	0.731
771.87	0.738
772.05	0.741
772.24	0.746
772.42	0.753
772.60	0.735
772.78	0.786
772.96	0.808
773.14	0.804
773.32	0.786
773.49	0.790
773.67	0.789
773.85	0.773
774.03	0.767
774.21	0.798
774.39	0.806
774.57	0.826
774.75	0.765
774.93	0.760
775.11	0.776
775.29	0.783
775.47	0.785
775.65	0.792
775.83	0.803
776.01	0.823
776.19	0.781
776.37	0.781
776.55	0.781
776.73	0.777
776.91	0.777
777.09	0.762
777.27	0.758
777.45	0.746
777.63	0.729
777.81	0.725
777.99	0.711
778.17	0.710
778.35	0.692
778.53	0.679
778.71	0.682
778.89	0.671
779.07	0.665
779.24	0.671
779.42	0.673
779.60	0.690
779.78	0.689
779.96	0.692
780.14	0.699
780.32	0.718
780.50	0.703
780.68	0.702
780.86	0.694
781.04	0.707
781.22	0.711
781.40	0.718
781.58	0.709
781.75	0.703
781.93	0.689
782.11	0.689
782.29	0.674
782.47	0.675
782.65	0.666
782.83	0.689
783.01	0.682
783.19	0.675
783.37	0.664
783.55	0.664
783.72	0.679
783.90	0.690
784.08	0.684
784.26	0.695
784.44	0.711
784.62	0.713
784.80	0.685
784.98	0.693
785.16	0.698
785.33	0.711
785.51	0.703
785.69	0.692
785.87	0.690
786.05	0.699
786.23	0.698
786.41	0.695
786.59	0.700
786.77	0.702
786.94	0.690
787.12	0.694
787.30	0.695
787.48	0.690
787.66	0.680
787.84	0.682
788.02	0.671
788.19	0.669
788.37	0.659
788.55	0.661
788.73	0.660
788.91	0.656
789.09	0.641
789.27	0.632
789.44	0.642
789.62	0.648
789.80	0.656
789.98	0.678
790.16	0.664
790.34	0.661
790.51	0.647
790.69	0.664
790.87	0.666
791.05	0.664
791.23	0.659
791.41	0.659
791.58	0.665
791.76	0.647
791.94	0.622
792.12	0.629
792.30	0.630
792.48	0.629
792.65	0.624
792.83	0.631
793.01	0.636
793.19	0.635
793.37	0.623
793.54	0.621
793.72	0.630
793.90	0.628
794.08	0.620
794.26	0.622
794.43	0.631
794.61	0.617
794.79	0.607
794.97	0.605
795.15	0.606
795.32	0.609
795.50	0.599
795.68	0.593
795.86	0.595
796.04	0.597
796.21	0.590
796.39	0.588
796.57	0.600
796.75	0.606
796.92	0.609
797.10	0.614
797.28	0.614
797.46	0.617
797.64	0.620
797.81	0.627
797.99	0.630
798.17	0.635
798.35	0.631
798.52	0.633
798.70	0.629
798.88	0.636
799.06	0.636
799.23	0.640
799.41	0.648
799.59	0.641
799.77	0.635
799.94	0.641
800.12	0.648
800.30	0.664
800.48	0.664
800.65	0.665
800.83	0.655
801.01	0.648
801.19	0.649
801.36	0.644
801.54	0.646
801.72	0.654
801.90	0.643
802.07	0.639
802.25	0.625
802.43	0.611
802.60	0.608
802.78	0.614
802.96	0.618
803.14	0.614
803.31	0.614
803.49	0.614
803.67	0.610
803.84	0.615
804.02	0.609
804.20	0.611
804.38	0.614
804.55	0.614
804.73	0.601
804.91	0.600
805.08	0.610
805.26	0.606
805.44	0.667
805.61	0.668
805.79	0.665
805.97	0.663
806.15	0.656
806.32	0.653
806.50	0.660
806.68	0.660
806.85	0.654
807.03	0.642
807.21	0.657
807.38	0.596
807.56	0.588
807.74	0.597
807.91	0.603
808.09	0.605
808.27	0.623
808.44	0.645
808.62	0.651
808.80	0.654
808.97	0.650
809.15	0.644
809.33	0.657
809.50	0.666
809.68	0.654
809.86	0.662
810.03	0.689
810.21	0.671
810.39	0.654
810.56	0.660
810.74	0.683
810.91	0.749
811.09	0.742
811.27	0.761
811.44	0.763
811.62	0.766
811.80	0.749
811.97	0.722
812.15	0.721
812.33	0.716
812.50	0.706
812.68	0.693
812.85	0.640
813.03	0.643
813.21	0.614
813.38	0.608
813.56	0.611
813.74	0.622
813.91	0.630
814.09	0.656
814.26	0.653
814.44	0.655
814.62	0.646
814.79	0.650
814.97	0.651
815.14	0.656
815.32	0.662
815.50	0.675
815.67	0.675
815.85	0.665
816.02	0.656
816.20	0.661
816.38	0.672
816.55	0.678
816.73	0.679
816.90	0.687
817.08	0.714
817.26	0.720
817.43	0.699
817.61	0.722
817.78	0.739
817.96	0.721
818.13	0.712
818.31	0.712
818.49	0.722
818.66	0.713
818.84	0.701
819.01	0.680
819.19	0.684
819.36	0.689
819.54	0.665
819.71	0.700
819.89	0.714
820.07	0.723
820.24	0.722
820.42	0.722
820.59	0.737
820.77	0.760
820.94	0.756
821.12	0.772
821.29	0.782
821.47	0.784
821.64	0.731
821.82	0.743
822.00	0.743
822.17	0.741
822.35	0.736
822.52	0.739
822.70	0.729
822.87	0.737
823.05	0.719
823.22	0.732
823.40	0.752
823.57	0.771
823.75	0.757
823.92	0.779
824.10	0.794
824.27	0.830
824.45	0.819
824.62	0.876
824.80	0.887
824.97	0.899
825.15	0.892
825.32	0.907
825.50	0.907
825.67	0.913
825.85	0.891
826.02	0.902
826.20	0.915
826.37	1.032
826.55	0.961
826.72	1.124
826.90	1.173
827.07	1.213
827.25	1.166
827.42	1.278
827.60	1.373
827.77	1.509
827.95	1.522
828.12	1.611
828.30	1.313
828.47	1.413
828.65	1.131
828.82	1.171
829.00	1.202
829.17	1.265
829.34	1.276
829.52	1.305
829.69	-0.000
829.87	-0.000
830.04	-0.000
830.22	-0.000
830.39	-0.000
830.57	-0.000
830.74	-0.000
830.92	-0.000
831.09	-0.000
831.26	-0.000
831.44	-0.000
831.61	-0.000
831.79	-0.000
831.96	-0.000
832.14	-0.000
832.31	-0.000
832.49	-0.000
832.66	-0.000
832.83	-0.000
833.01	-0.000
833.18	-0.000
833.36	-0.000
833.53	-0.000
833.70	-0.000
833.88	-0.000
834.05	-0.000
834.23	-0.000
834.40	-0.000
834.58	-0.000
834.75	-0.000
834.92	-0.000
835.10	-0.000
835.27	-0.000
835.45	-0.000
835.62	-0.000
835.79	-0.000
835.97	-0.000
836.14	-0.000
836.32	-0.000
836.49	-0.000
836.66	-0.000
836.84	-0.000
837.01	-0.000
837.18	-0.000
837.36	-0.000
837.53	-0.000
837.71	-0.000
837.88	-0.000
838.05	-0.000
838.23	-0.000
838.40	-0.000
838.58	-0.000
838.75	-0.000
838.92	-0.000
839.10	-0.000
839.27	-0.000
839.44	-0.000
839.62	-0.000
839.79	-0.000
839.96	-0.000
840.14	-0.000
840.31	-0.000
840.48	-0.000
840.66	-0.000
840.83	-0.000
841.01	-0.000
841.18	-0.000
841.35	-0.000
841.53	-0.000
841.70	-0.000
841.87	-0.000
842.05	-0.000
842.22	-0.000
842.39	-0.000
842.57	-0.000
842.74	-0.000
842.91	-0.000
843.09	-0.000
843.26	-0.000
843.43	-0.000
843.60	-0.000
843.78	-0.000
843.95	-0.000
844.12	-0.000
844.30	-0.000
844.47	-0.000
844.64	-0.000
844.82	-0.000
844.99	-0.000
845.16	-0.000
845.34	-0.000
845.51	-0.000
845.68	-0.000
845.85	-0.000
846.03	-0.000
846.20	-0.000
846.37	-0.000
846.55	-0.000
846.72	-0.000
846.89	-0.000
847.06	-0.000
847.24	-0.000
847.41	-0.000
847.58	-0.000
847.76	-0.000
847.93	-0.000
848.10	-0.000
848.27	-0.000
848.45	-0.000
848.62	-0.000
848.79	-0.000
848.97	-0.000
849.14	-0.000
849.31	-0.000
849.48	-0.000
849.66	-0.000
849.83	-0.000
850.00	-0.000
850.17	-0.000
850.35	-0.000
850.52	-0.000
850.69	-0.000
850.86	-0.000
851.04	-0.000
851.21	-0.000
851.38	-0.000
851.55	-0.000
851.72	-0.000
851.90	-0.000
852.07	-0.000
852.24	-0.000
852.41	-0.000
852.59	-0.000
852.76	-0.000
852.93	-0.000
853.10	-0.000
853.28	-0.000
853.45	-0.000
853.62	-0.000
853.79	-0.000
853.96	-0.000
854.14	-0.000
854.31	-0.000
854.48	-0.000
854.65	-0.000
854.82	-0.000
855.00	-0.000
855.17	-0.000
855.34	-0.000
855.51	-0.000
855.68	-0.000
855.86	-0.000
856.03	-0.000
856.20	-0.000
856.37	-0.000
856.54	-0.000
856.72	-0.000
856.89	-0.000
857.06	-0.000
857.23	-0.000
857.40	-0.000
857.57	-0.000
857.75	-0.000
857.92	-0.000
858.09	-0.000
858.26	-0.000
858.43	-0.000
858.60	-0.000
858.78	-0.000
858.95	-0.000
859.12	-0.000
859.29	-0.000
859.46	-0.000
859.63	-0.000
859.81	-0.000
859.98	-0.000
860.15	-0.000
860.32	-0.000
860.49	-0.000
860.66	-0.000
860.83	-0.000
861.01	-0.000
861.18	-0.000
861.35	-0.000
861.52	-0.000
861.69	-0.000
861.86	-0.000
862.03	-0.000
862.21	-0.000
862.38	-0.000
862.55	-0.000
862.72	-0.000
862.89	-0.000
863.06	-0.000
863.23	-0.000
863.40	-0.000
863.58	-0.000
863.75	-0.000
863.92	-0.000
864.09	-0.000
864.26	-0.000
864.43	-0.000
864.60	-0.000
864.77	-0.000
864.94	-0.000
865.11	-0.000
865.29	-0.000
865.46	-0.000
865.63	-0.000
865.80	-0.000
865.97	-0.000
866.14	-0.000
866.31	-0.000
866.48	-0.000
866.65	-0.000
866.82	-0.000
866.99	-0.000
867.16	-0.000
867.34	-0.000
867.51	-0.000
867.68	-0.000
867.85	-0.000
868.02	-0.000
868.19	-0.000
868.36	-0.000
868.53	-0.000
868.70	-0.000
868.87	-0.000
869.04	-0.000
869.21	-0.000
869.38	-0.000
869.55	-0.000
869.72	-0.000
869.89	-0.000
870.06	-0.000
870.24	-0.000
870.41	-0.000
870.58	-0.000
870.75	-0.000
870.92	-0.000
871.09	-0.000
871.26	-0.000
871.43	-0.000
871.60	-0.000
871.77	-0.000
871.94	-0.000
872.11	-0.000
872.28	-0.000
872.45	-0.000
872.62	-0.000
872.79	-0.000
872.96	-0.000
873.13	-0.000
873.30	-0.000
873.47	-0.000
873.64	-0.000
873.81	-0.000
873.98	-0.000
874.15	-0.000
874.32	-0.000
874.49	-0.000
874.66	-0.000
874.83	-0.000
875.00	-0.000
875.17	-0.000
875.34	-0.000
875.51	-0.000
875.68	-0.000
875.85	-0.000
876.02	-0.000
876.19	-0.000
876.36	-0.000
876.53	-0.000
876.70	-0.000
876.87	-0.000
877.04	-0.000
877.21	-0.000
877.38	-0.000
877.55	-0.000
877.72	-0.000
877.89	-0.000
878.06	-0.000
878.23	-0.000
878.39	-0.000
878.56	-0.000
878.73	-0.000
878.90	-0.000
879.07	-0.000
879.24	-0.000
879.41	-0.000
879.58	-0.000
879.75	-0.000
879.92	-0.000
880.09	-0.000
880.26	-0.000
880.43	-0.000
880.60	-0.000
880.77	-0.000
880.94	-0.000
881.11	-0.000
881.27	-0.000
881.44	-0.000
881.61	-0.000
881.78	-0.000
881.95	-0.000
882.12	-0.000
882.29	-0.000
882.46	-0.000
882.63	-0.000
882.80	-0.000
882.97	-0.000
883.14	-0.000
883.30	-0.000
883.47	-0.000
883.64	-0.000
883.81	-0.000
883.98	-0.000
884.15	-0.000
884.32	-0.000
884.49	-0.000
884.66	-0.000
884.82	-0.000
884.99	-0.000
885.16	-0.000
885.33	-0.000
885.50	-0.000
885.67	-0.000
885.84	-0.000
886.01	-0.000
886.17	-0.000
886.34	-0.000
886.51	-0.000
886.68	-0.000
886.85	-0.000
887.02	-0.000
887.19	-0.000
887.36	-0.000
887.52	-0.000
887.69	-0.000
887.86	-0.000
888.03	-0.000
888.20	-0.000
888.37	-0.000
888.54	-0.000
888.70	-0.000
888.87	-0.000
889.04	-0.000
889.21	-0.000
889.38	-0.000
889.55	-0.000
889.71	-0.000
889.88	-0.000
890.05	-0.000
890.22	-0.000
890.39	-0.000
>>>>>End Processed Spectral Data<<<<<
